Wavenumber,Intensity
650.4205,0.157044
652.2841,0.154897
654.1478,0.156237
656.0115,0.154620
657.8751,0.152299
659.7388,0.152882
661.6025,0.154192
663.4661,0.152151
665.3298,0.148796
667.1935,0.148193
669.0571,0.151100
670.9208,0.150006
672.7845,0.149308
674.6481,0.147815
676.5118,0.146227
678.3755,0.144678
680.2392,0.145009
682.1028,0.144912
683.9665,0.144316
685.8302,0.143569
687.6938,0.143847
689.5575,0.144946
691.4212,0.145813
693.2848,0.145224
695.1485,0.145493
697.0122,0.146904
698.8758,0.148568
700.7395,0.148932
702.6032,0.150093
704.4669,0.150079
706.3305,0.148665
708.1942,0.146296
710.0579,0.143961
711.9215,0.141359
713.7852,0.138687
715.6489,0.135811
717.5125,0.133209
719.3762,0.130317
721.2399,0.127753
723.1035,0.125096
724.9672,0.122118
726.8309,0.119618
728.6945,0.118024
730.5582,0.116717
732.4219,0.116426
734.2856,0.115747
736.1492,0.114388
738.0129,0.113910
739.8766,0.114342
741.7402,0.115379
743.6039,0.116104
745.4676,0.115648
747.3312,0.115495
749.1949,0.116458
751.0586,0.117978
752.9222,0.119119
754.7859,0.120440
756.6496,0.121326
758.5132,0.122450
760.3769,0.123246
762.2406,0.122851
764.1043,0.121575
765.9679,0.120123
767.8316,0.118052
769.6953,0.115424
771.5589,0.112496
773.4226,0.109571
775.2863,0.106755
777.1499,0.104278
779.0136,0.101982
780.8773,0.100097
782.7409,0.098867
784.6046,0.098082
786.4683,0.097467
788.3320,0.097005
790.1956,0.096275
792.0593,0.095876
793.9230,0.095664
795.7866,0.095135
797.6503,0.094309
799.5140,0.093685
801.3776,0.093423
803.2413,0.093029
805.1050,0.092341
806.9686,0.091933
808.8323,0.091540
810.6960,0.091016
812.5596,0.090598
814.4233,0.090598
816.2870,0.090559
818.1507,0.090605
820.0143,0.090620
821.8780,0.090826
823.7417,0.091605
825.6053,0.092798
827.4690,0.094179
829.3327,0.095571
831.1963,0.096384
833.0600,0.096692
834.9237,0.096863
836.7873,0.097688
838.6510,0.098709
840.5147,0.099719
842.3784,0.101002
844.2420,0.102253
846.1057,0.103512
847.9694,0.104766
849.8330,0.105707
851.6967,0.106657
853.5604,0.107887
855.4240,0.109476
857.2877,0.110550
859.1514,0.110596
861.0150,0.109737
862.8787,0.107964
864.7424,0.105071
866.6060,0.101606
868.4697,0.098211
870.3334,0.095109
872.1971,0.092211
874.0607,0.090124
875.9244,0.089013
877.7881,0.088682
879.6517,0.089173
881.5154,0.090361
883.3791,0.091838
885.2427,0.093653
887.1064,0.095781
888.9701,0.098235
890.8337,0.100774
892.6974,0.103126
894.5611,0.104977
896.4247,0.106451
898.2884,0.108100
900.1521,0.110280
902.0158,0.112537
903.8794,0.114851
905.7431,0.117492
907.6068,0.120393
909.4704,0.123307
911.3341,0.126617
913.1978,0.130196
915.0614,0.133374
916.9251,0.135182
918.7888,0.135683
920.6524,0.135999
922.5161,0.136619
924.3798,0.137135
926.2435,0.137480
928.1071,0.137701
929.9708,0.137737
931.8345,0.137664
933.6981,0.137392
935.5618,0.136569
937.4255,0.135184
939.2891,0.133364
941.1528,0.131724
943.0165,0.130705
944.8801,0.130680
946.7438,0.131756
948.6075,0.134095
950.4711,0.137351
952.3348,0.141418
954.1985,0.146573
956.0622,0.152437
957.9258,0.158431
959.7895,0.164611
961.6532,0.171069
963.5168,0.178100
965.3805,0.185792
967.2442,0.194203
969.1078,0.203173
970.9715,0.212929
972.8352,0.223561
974.6988,0.234929
976.5625,0.246881
978.4262,0.259992
980.2899,0.273415
982.1535,0.283647
984.0172,0.287536
985.8809,0.288759
987.7445,0.291340
989.6082,0.294569
991.4719,0.296871
993.3355,0.297829
995.1992,0.297387
997.0629,0.296148
998.9265,0.293886
1000.7902,0.290705
1002.6539,0.287171
1004.5175,0.284330
1006.3812,0.282096
1008.2449,0.280098
1010.1086,0.277854
1011.9722,0.274823
1013.8359,0.270829
1015.6996,0.265769
1017.5632,0.259387
1019.4269,0.252223
1021.2906,0.244745
1023.1542,0.237138
1025.0179,0.229176
1026.8816,0.221342
1028.7452,0.214039
1030.6089,0.207371
1032.4726,0.201422
1034.3362,0.196439
1036.1999,0.192791
1038.0636,0.190212
1039.9273,0.187877
1041.7909,0.185436
1043.6546,0.182427
1045.5183,0.178393
1047.3819,0.173233
1049.2456,0.166897
1051.1093,0.159099
1052.9729,0.150419
1054.8366,0.141918
1056.7003,0.134323
1058.5639,0.127793
1060.4276,0.122261
1062.2913,0.117942
1064.1550,0.115631
1066.0186,0.116447
1067.8823,0.121528
1069.7460,0.130581
1071.6096,0.141421
1073.4733,0.150556
1075.3370,0.155164
1077.2006,0.154700
1079.0643,0.150532
1080.9280,0.144404
1082.7916,0.137435
1084.6553,0.130527
1086.5190,0.124325
1088.3826,0.118718
1090.2463,0.114007
1092.1100,0.110671
1093.9737,0.108831
1095.8373,0.108448
1097.7010,0.109204
1099.5647,0.110414
1101.4283,0.111517
1103.2920,0.111812
1105.1557,0.110888
1107.0193,0.108822
1108.8830,0.105891
1110.7467,0.102658
1112.6103,0.099594
1114.4740,0.097067
1116.3377,0.095440
1118.2014,0.094549
1120.0650,0.094205
1121.9287,0.094187
1123.7924,0.094083
1125.6560,0.093594
1127.5197,0.092544
1129.3834,0.091345
1131.2470,0.090794
1133.1107,0.091230
1134.9744,0.092975
1136.8380,0.096150
1138.7017,0.100308
1140.5654,0.104854
1142.4290,0.109239
1144.2927,0.112792
1146.1564,0.114938
1148.0201,0.115526
1149.8837,0.114618
1151.7474,0.112142
1153.6111,0.108217
1155.4747,0.103134
1157.3384,0.097073
1159.2021,0.090229
1161.0657,0.082864
1162.9294,0.075465
1164.7931,0.068662
1166.6567,0.062593
1168.5204,0.057340
1170.3841,0.053012
1172.2477,0.049544
1174.1114,0.046670
1175.9751,0.044242
1177.8388,0.042357
1179.7024,0.041015
1181.5661,0.040207
1183.4298,0.039995
1185.2934,0.040234
1187.1571,0.040800
1189.0208,0.041690
1190.8844,0.042696
1192.7481,0.043593
1194.6118,0.044332
1196.4754,0.045078
1198.3391,0.045950
1200.2028,0.046826
1202.0665,0.047628
1203.9301,0.048251
1205.7938,0.048580
1207.6575,0.048618
1209.5211,0.048521
1211.3848,0.048417
1213.2485,0.048306
1215.1121,0.048199
1216.9758,0.048328
1218.8395,0.048813
1220.7031,0.049465
1222.5668,0.050231
1224.4305,0.051070
1226.2941,0.051879
1228.1578,0.052616
1230.0215,0.053318
1231.8852,0.054003
1233.7488,0.054671
1235.6125,0.055319
1237.4762,0.055832
1239.3398,0.056244
1241.2035,0.056557
1243.0672,0.056625
1244.9308,0.056506
1246.7945,0.056283
1248.6582,0.056097
1250.5218,0.056003
1252.3855,0.055837
1254.2492,0.055698
1256.1129,0.055755
1257.9765,0.055947
1259.8402,0.056222
1261.7039,0.056508
1263.5675,0.056732
1265.4312,0.056874
1267.2949,0.056841
1269.1585,0.056726
1271.0222,0.056851
1272.8859,0.057205
1274.7495,0.057698
1276.6132,0.058439
1278.4769,0.059374
1280.3405,0.060397
1282.2042,0.061502
1284.0679,0.062683
1285.9316,0.063766
1287.7952,0.064601
1289.6589,0.065349
1291.5226,0.066123
1293.3862,0.066822
1295.2499,0.067652
1297.1136,0.068794
1298.9772,0.070130
1300.8409,0.071574
1302.7046,0.073067
1304.5682,0.074232
1306.4319,0.074433
1308.2956,0.073343
1310.1592,0.071316
1312.0229,0.069479
1313.8866,0.068636
1315.7503,0.068660
1317.6139,0.069354
1319.4776,0.070459
1321.3413,0.071472
1323.2049,0.072488
1325.0686,0.073686
1326.9323,0.075107
1328.7959,0.076609
1330.6596,0.077723
1332.5233,0.078262
1334.3869,0.078417
1336.2506,0.078501
1338.1143,0.078895
1339.9780,0.079341
1341.8416,0.078718
1343.7053,0.077507
1345.5690,0.076687
1347.4326,0.076349
1349.2963,0.076345
1351.1600,0.076405
1353.0236,0.076407
1354.8873,0.076462
1356.7510,0.076444
1358.6146,0.076285
1360.4783,0.076377
1362.3420,0.076873
1364.2056,0.076618
1366.0693,0.075733
1367.9330,0.075532
1369.7967,0.075238
1371.6603,0.074507
1373.5240,0.074568
1375.3877,0.074868
1377.2513,0.074335
1379.1150,0.073962
1380.9787,0.073672
1382.8423,0.073020
1384.7060,0.072522
1386.5697,0.072898
1388.4333,0.073600
1390.2970,0.073419
1392.1607,0.073466
1394.0244,0.074439
1395.8880,0.075131
1397.7517,0.074797
1399.6154,0.074299
1401.4790,0.073403
1403.3427,0.072920
1405.2064,0.072781
1407.0700,0.071431
1408.9337,0.069445
1410.7974,0.067713
1412.6610,0.066299
1414.5247,0.065139
1416.3884,0.064752
1418.2520,0.066044
1420.1157,0.067575
1421.9794,0.066916
1423.8431,0.065834
1425.7067,0.063958
1427.5704,0.061702
1429.4341,0.060205
1431.2977,0.059014
1433.1614,0.057885
1435.0251,0.057752
1436.8887,0.059038
1438.7524,0.058960
1440.6161,0.057952
1442.4797,0.057728
1444.3434,0.057642
1446.2071,0.057814
1448.0707,0.058652
1449.9344,0.058802
1451.7981,0.058046
1453.6618,0.057169
1455.5254,0.057142
1457.3891,0.059480
1459.2528,0.059378
1461.1164,0.057164
1462.9801,0.055737
1464.8438,0.054773
1466.7074,0.052734
1468.5711,0.050096
1470.4348,0.048209
1472.2984,0.047320
1474.1621,0.046292
1476.0258,0.045082
1477.8895,0.044104
1479.7531,0.043407
1481.6168,0.043121
1483.4805,0.042723
1485.3441,0.042266
1487.2078,0.042269
1489.0715,0.042865
1490.9351,0.043235
1492.7988,0.042512
1494.6625,0.042194
1496.5261,0.043107
1498.3898,0.043841
1500.2535,0.043561
1502.1171,0.042785
1503.9808,0.042102
1505.8445,0.043018
1507.7082,0.045555
1509.5718,0.044496
1511.4355,0.043491
1513.2992,0.043214
1515.1628,0.043211
1517.0265,0.043406
1518.8902,0.043254
1520.7538,0.043726
1522.6175,0.044840
1524.4812,0.044681
1526.3448,0.044855
1528.2085,0.044859
1530.0722,0.044345
1531.9359,0.044404
1533.7995,0.044994
1535.6632,0.044323
1537.5269,0.043519
1539.3905,0.044739
1541.2542,0.047232
1543.1179,0.047117
1544.9815,0.047173
1546.8452,0.047015
1548.7089,0.046865
1550.5725,0.047192
1552.4362,0.047057
1554.2999,0.046806
1556.1635,0.046691
1558.0272,0.048362
1559.8909,0.052989
1561.7546,0.051054
1563.6182,0.049868
1565.4819,0.050291
1567.3456,0.050889
1569.2092,0.052179
1571.0729,0.053221
1572.9366,0.052715
1574.8002,0.053410
1576.6639,0.055948
1578.5276,0.056691
1580.3912,0.056321
1582.2549,0.056797
1584.1186,0.057501
1585.9822,0.058312
1587.8459,0.059042
1589.7096,0.059699
1591.5733,0.060270
1593.4369,0.060874
1595.3006,0.061508
1597.1643,0.061942
1599.0279,0.062132
1600.8916,0.062434
1602.7553,0.062702
1604.6189,0.062833
1606.4826,0.062949
1608.3463,0.063286
1610.2099,0.063526
1612.0736,0.063361
1613.9373,0.063219
1615.8010,0.064020
1617.6646,0.064995
1619.5283,0.063881
1621.3920,0.063313
1623.2556,0.063999
1625.1193,0.063856
1626.9830,0.063074
1628.8466,0.062074
1630.7103,0.060085
1632.5740,0.058345
1634.4376,0.058001
1636.3013,0.058688
1638.1650,0.057657
1640.0286,0.056242
1641.8923,0.055088
1643.7560,0.054163
1645.6197,0.054306
1647.4833,0.054700
1649.3470,0.052585
1651.2107,0.051590
1653.0743,0.054655
1654.9380,0.055765
1656.8017,0.052847
1658.6653,0.051468
1660.5290,0.050822
1662.3927,0.050824
1664.2563,0.050153
1666.1200,0.048757
1667.9837,0.048222
1669.8474,0.048272
1671.7110,0.047409
1673.5747,0.046806
1675.4384,0.047239
1677.3020,0.046611
1679.1657,0.045503
1681.0294,0.045267
1682.8930,0.045876
1684.7567,0.048300
1686.6204,0.047949
1688.4840,0.046649
1690.3477,0.046063
1692.2114,0.044966
1694.0750,0.044077
1695.9387,0.043873
1697.8024,0.043187
1699.6661,0.043072
1701.5297,0.043026
1703.3934,0.040984
1705.2571,0.039704
1707.1207,0.038569
1708.9844,0.037026
1710.8481,0.035755
1712.7117,0.034718
1714.5754,0.034125
1716.4391,0.034445
1718.3027,0.035364
1720.1664,0.034733
1722.0301,0.033679
1723.8937,0.033377
1725.7574,0.033110
1727.6211,0.032510
1729.4848,0.032002
1731.3484,0.031591
1733.2121,0.032018
1735.0758,0.032971
1736.9394,0.031972
1738.8031,0.031451
1740.6668,0.031698
1742.5304,0.031464
1744.3941,0.031180
1746.2578,0.030747
1748.1214,0.030713
1749.9851,0.031300
1751.8488,0.031563
1753.7125,0.030957
1755.5761,0.030505
1757.4398,0.030668
1759.3035,0.030601
1761.1671,0.030759
1763.0308,0.031118
1764.8945,0.030633
1766.7581,0.030308
1768.6218,0.030288
1770.4855,0.030385
1772.3491,0.031143
1774.2128,0.031412
1776.0765,0.030766
1777.9401,0.030606
1779.8038,0.030637
1781.6675,0.030845
1783.5312,0.030883
1785.3948,0.030864
1787.2585,0.030521
1789.1222,0.030352
1790.9858,0.030743
1792.8495,0.031235
1794.7132,0.031050
1796.5768,0.030686
1798.4405,0.030582
1800.3042,0.030818
1802.1678,0.031099
1804.0315,0.030852
1805.8952,0.030502
1807.7589,0.030466
1809.6225,0.030780
1811.4862,0.031217
1813.3499,0.031061
1815.2135,0.030581
1817.0772,0.030471
1818.9409,0.030477
1820.8045,0.030397
1822.6682,0.030294
1824.5319,0.030336
1826.3955,0.030552
1828.2592,0.030692
1830.1229,0.030996
1831.9865,0.030745
1833.8502,0.030353
1835.7139,0.030542
1837.5776,0.030499
1839.4412,0.030211
1841.3049,0.030045
1843.1686,0.030197
1845.0322,0.030824
1846.8959,0.030795
1848.7596,0.030559
1850.6232,0.030553
1852.4869,0.030505
1854.3506,0.030540
1856.2142,0.030495
1858.0779,0.030703
1859.9416,0.030891
1861.8052,0.030711
1863.6689,0.030264
1865.5326,0.030072
1867.3963,0.030505
1869.2599,0.030956
1871.1236,0.030675
1872.9873,0.030603
1874.8509,0.030478
1876.7146,0.030152
1878.5783,0.030144
1880.4419,0.030152
1882.3056,0.030124
1884.1693,0.029972
1886.0329,0.030153
1887.8966,0.030642
1889.7603,0.030765
1891.6240,0.030468
1893.4876,0.030227
1895.3513,0.030282
1897.2150,0.030236
1899.0786,0.030274
1900.9423,0.030044
1902.8060,0.029976
1904.6696,0.029997
1906.5333,0.029867
1908.3970,0.029988
1910.2606,0.029893
1912.1243,0.029258
1913.9880,0.029294
1915.8516,0.029477
1917.7153,0.029506
1919.5790,0.029753
1921.4427,0.029495
1923.3063,0.029040
1925.1700,0.028777
1927.0337,0.028987
1928.8973,0.029195
1930.7610,0.028664
1932.6247,0.028480
1934.4883,0.028346
1936.3520,0.027803
1938.2157,0.027815
1940.0793,0.027714
1941.9430,0.027280
1943.8067,0.027234
1945.6704,0.026699
1947.5340,0.026077
1949.3977,0.025386
1951.2614,0.024909
1953.1250,0.024808
1954.9887,0.024224
1956.8524,0.023755
1958.7160,0.023341
1960.5797,0.022585
1962.4434,0.021711
1964.3070,0.021403
1966.1707,0.020978
1968.0344,0.020231
1969.8980,0.019673
1971.7617,0.020060
1973.6254,0.019353
1975.4891,0.018133
1977.3527,0.017802
1979.2164,0.018449
1981.0801,0.019197
1982.9437,0.020572
1984.8074,0.021262
1986.6711,0.020945
1988.5347,0.020852
1990.3984,0.021516
1992.2621,0.022123
1994.1257,0.021586
1995.9894,0.021441
1997.8531,0.022515
1999.7167,0.023394
2001.5804,0.022872
2003.4441,0.020357
2005.3078,0.018819
2007.1714,0.018820
2009.0351,0.019059
2010.8988,0.018343
2012.7624,0.018619
2014.6261,0.019923
2016.4898,0.019644
2018.3534,0.018215
2020.2171,0.018625
2022.0808,0.018469
2023.9444,0.018193
2025.8081,0.018359
2027.6718,0.018065
2029.5355,0.018442
2031.3991,0.019409
2033.2628,0.018769
2035.1265,0.017949
2036.9901,0.018837
2038.8538,0.021399
2040.7175,0.022804
2042.5811,0.023132
2044.4448,0.022369
2046.3085,0.021736
2048.1721,0.022972
2050.0358,0.024916
2051.8995,0.025890
2053.7631,0.026817
2055.6268,0.027779
2057.4905,0.028478
2059.3542,0.028398
2061.2178,0.027835
2063.0815,0.027755
2064.9452,0.028950
2066.8088,0.029467
2068.6725,0.029305
2070.5362,0.029146
2072.3998,0.028970
2074.2635,0.029364
2076.1272,0.030133
2077.9908,0.030668
2079.8545,0.030806
2081.7182,0.030830
2083.5819,0.031126
2085.4455,0.031559
2087.3092,0.031667
2089.1729,0.031393
2091.0365,0.031059
2092.9002,0.030834
2094.7639,0.031112
2096.6275,0.031420
2098.4912,0.031488
2100.3549,0.031635
2102.2185,0.031696
2104.0822,0.031232
2105.9459,0.030943
2107.8095,0.031215
2109.6732,0.031433
2111.5369,0.031778
2113.4006,0.032795
2115.2642,0.033012
2117.1279,0.032104
2118.9916,0.031612
2120.8552,0.031989
2122.7189,0.031882
2124.5826,0.031108
2126.4462,0.031074
2128.3099,0.030873
2130.1736,0.029787
2132.0372,0.028789
2133.9009,0.028335
2135.7646,0.028054
2137.6282,0.028055
2139.4919,0.027381
2141.3556,0.026791
2143.2193,0.027107
2145.0829,0.026460
2146.9466,0.023909
2148.8103,0.022657
2150.6739,0.021587
2152.5376,0.021093
2154.4013,0.020547
2156.2649,0.017923
2158.1286,0.015662
2159.9923,0.016804
2161.8559,0.019434
2163.7196,0.019908
2165.5833,0.019855
2167.4470,0.021026
2169.3106,0.021195
2171.1743,0.020588
2173.0380,0.021665
2174.9016,0.022079
2176.7653,0.022496
2178.6290,0.023218
2180.4926,0.023694
2182.3563,0.023432
2184.2200,0.024238
2186.0836,0.024904
2187.9473,0.024774
2189.8110,0.025098
2191.6746,0.026464
2193.5383,0.027020
2195.4020,0.026107
2197.2657,0.026151
2199.1293,0.027301
2200.9930,0.027595
2202.8567,0.028222
2204.7203,0.028774
2206.5840,0.028376
2208.4477,0.027341
2210.3113,0.027658
2212.1750,0.027846
2214.0387,0.027560
2215.9023,0.027595
2217.7660,0.028116
2219.6297,0.028287
2221.4934,0.029206
2223.3570,0.031153
2225.2207,0.031265
2227.0844,0.030470
2228.9480,0.030629
2230.8117,0.030383
2232.6754,0.030362
2234.5390,0.030807
2236.4027,0.031120
2238.2664,0.031132
2240.1300,0.031185
2241.9937,0.031731
2243.8574,0.032634
2245.7210,0.032597
2247.5847,0.032410
2249.4484,0.032501
2251.3121,0.032045
2253.1757,0.032156
2255.0394,0.032992
2256.9031,0.033589
2258.7667,0.033761
2260.6304,0.033706
2262.4941,0.034079
2264.3577,0.034119
2266.2214,0.034474
2268.0851,0.035084
2269.9487,0.034844
2271.8124,0.035261
2273.6761,0.035848
2275.5397,0.035942
2277.4034,0.035891
2279.2671,0.036120
2281.1308,0.036480
2282.9944,0.036746
2284.8581,0.037019
2286.7218,0.037471
2288.5854,0.037779
2290.4491,0.037724
2292.3128,0.037656
2294.1764,0.037937
2296.0401,0.037995
2297.9038,0.037793
2299.7674,0.037881
2301.6311,0.037897
2303.4948,0.037780
2305.3585,0.038163
2307.2221,0.038418
2309.0858,0.038195
2310.9495,0.038538
2312.8131,0.038845
2314.6768,0.038821
2316.5405,0.039211
2318.4041,0.039382
2320.2678,0.039592
2322.1315,0.039966
2323.9951,0.039936
2325.8588,0.039460
2327.7225,0.039215
2329.5861,0.039135
2331.4498,0.039229
2333.3135,0.039252
2335.1772,0.039081
2337.0408,0.039237
2338.9045,0.039454
2340.7682,0.040060
2342.6318,0.040789
2344.4955,0.040747
2346.3592,0.040399
2348.2228,0.039658
2350.0865,0.038985
2351.9502,0.039097
2353.8138,0.039352
2355.6775,0.039495
2357.5412,0.039583
2359.4049,0.039574
2361.2685,0.039670
2363.1322,0.040142
2364.9959,0.040338
2366.8595,0.040427
2368.7232,0.041020
2370.5869,0.040930
2372.4505,0.040820
2374.3142,0.041180
2376.1779,0.041285
2378.0415,0.041205
2379.9052,0.040764
2381.7689,0.040324
2383.6325,0.040372
2385.4962,0.040484
2387.3599,0.040539
2389.2236,0.040461
2391.0872,0.040333
2392.9509,0.040383
2394.8146,0.040414
2396.6782,0.040310
2398.5419,0.040359
2400.4056,0.040323
2402.2692,0.040364
2404.1329,0.040755
2405.9966,0.040968
2407.8602,0.040821
2409.7239,0.040867
2411.5876,0.040889
2413.4512,0.040822
2415.3149,0.041218
2417.1786,0.041472
2419.0423,0.041277
2420.9059,0.041315
2422.7696,0.041450
2424.6333,0.041359
2426.4969,0.041173
2428.3606,0.041266
2430.2243,0.041521
2432.0879,0.041858
2433.9516,0.042059
2435.8153,0.041783
2437.6789,0.041642
2439.5426,0.041911
2441.4063,0.041972
2443.2700,0.041903
2445.1336,0.042058
2446.9973,0.042192
2448.8610,0.042209
2450.7246,0.042554
2452.5883,0.042646
2454.4520,0.042679
2456.3156,0.042479
2458.1793,0.042364
2460.0430,0.042387
2461.9066,0.042547
2463.7703,0.042744
2465.6340,0.043095
2467.4976,0.042969
2469.3613,0.042866
2471.2250,0.042859
2473.0887,0.043009
2474.9523,0.043001
2476.8160,0.043215
2478.6797,0.043527
2480.5433,0.043386
2482.4070,0.043383
2484.2707,0.043352
2486.1343,0.043270
2487.9980,0.043375
2489.8617,0.043568
2491.7253,0.043916
2493.5890,0.043901
2495.4527,0.044038
2497.3164,0.044477
2499.1800,0.044444
2501.0437,0.044153
2502.9074,0.044074
2504.7710,0.044447
2506.6347,0.044723
2508.4984,0.044466
2510.3620,0.044433
2512.2257,0.044465
2514.0894,0.044703
2515.9530,0.044745
2517.8167,0.044850
2519.6804,0.044870
2521.5440,0.044802
2523.4077,0.044908
2525.2714,0.045053
2527.1351,0.044958
2528.9987,0.045505
2530.8624,0.045729
2532.7261,0.045660
2534.5897,0.045540
2536.4534,0.045652
2538.3171,0.045760
2540.1807,0.045628
2542.0444,0.045854
2543.9081,0.046177
2545.7717,0.046109
2547.6354,0.046293
2549.4991,0.046549
2551.3627,0.046761
2553.2264,0.046732
2555.0901,0.046479
2556.9538,0.046516
2558.8174,0.046936
2560.6811,0.046818
2562.5448,0.046982
2564.4084,0.047438
2566.2721,0.047712
2568.1358,0.047766
2569.9994,0.047806
2571.8631,0.048106
2573.7268,0.048388
2575.5904,0.048098
2577.4541,0.047992
2579.3178,0.048226
2581.1815,0.048389
2583.0451,0.048728
2584.9088,0.049019
2586.7725,0.048926
2588.6361,0.048702
2590.4998,0.048915
2592.3635,0.049666
2594.2271,0.049822
2596.0908,0.049511
2597.9545,0.049610
2599.8181,0.050004
2601.6818,0.050046
2603.5455,0.050234
2605.4091,0.050358
2607.2728,0.050225
2609.1365,0.050677
2611.0002,0.050827
2612.8638,0.050978
2614.7275,0.051529
2616.5912,0.051590
2618.4548,0.051474
2620.3185,0.051485
2622.1822,0.051510
2624.0458,0.051888
2625.9095,0.052221
2627.7732,0.052082
2629.6368,0.052174
2631.5005,0.052653
2633.3642,0.052985
2635.2279,0.052780
2637.0915,0.052939
2638.9552,0.053463
2640.8189,0.053846
2642.6825,0.053949
2644.5462,0.054087
2646.4099,0.054261
2648.2735,0.054380
2650.1372,0.054451
2652.0009,0.054437
2653.8645,0.054623
2655.7282,0.054725
2657.5919,0.054683
2659.4555,0.054840
2661.3192,0.054847
2663.1829,0.054920
2665.0466,0.054944
2666.9102,0.055057
2668.7739,0.055107
2670.6376,0.055027
2672.5012,0.055165
2674.3649,0.055371
2676.2286,0.055478
2678.0922,0.055654
2679.9559,0.055780
2681.8196,0.055976
2683.6832,0.056126
2685.5469,0.056222
2687.4106,0.056351
2689.2742,0.056652
2691.1379,0.056664
2693.0016,0.056843
2694.8653,0.057114
2696.7289,0.057263
2698.5926,0.057172
2700.4563,0.057318
2702.3199,0.057671
2704.1836,0.057790
2706.0473,0.057772
2707.9109,0.057803
2709.7746,0.058101
2711.6383,0.058412
2713.5019,0.058429
2715.3656,0.058442
2717.2293,0.058446
2719.0930,0.058443
2720.9566,0.058754
2722.8203,0.059220
2724.6840,0.059420
2726.5476,0.059662
2728.4113,0.059869
2730.2750,0.059981
2732.1386,0.060059
2734.0023,0.059965
2735.8660,0.060157
2737.7296,0.060480
2739.5933,0.060517
2741.4570,0.060561
2743.3206,0.060817
2745.1843,0.061117
2747.0480,0.061279
2748.9117,0.061506
2750.7753,0.061820
2752.6390,0.062001
2754.5027,0.062221
2756.3663,0.062400
2758.2300,0.062299
2760.0937,0.062717
2761.9573,0.062997
2763.8210,0.062816
2765.6847,0.062767
2767.5483,0.063153
2769.4120,0.063298
2771.2757,0.063338
2773.1394,0.063756
2775.0030,0.064237
2776.8667,0.064387
2778.7304,0.064534
2780.5940,0.064670
2782.4577,0.064655
2784.3214,0.064640
2786.1850,0.064742
2788.0487,0.064824
2789.9124,0.065165
2791.7760,0.065382
2793.6397,0.065515
2795.5034,0.065467
2797.3670,0.065411
2799.2307,0.065511
2801.0944,0.065885
2802.9581,0.066147
2804.8217,0.066319
2806.6854,0.066306
2808.5491,0.066401
2810.4127,0.066635
2812.2764,0.066870
2814.1401,0.067174
2816.0037,0.067632
2817.8674,0.067796
2819.7311,0.067825
2821.5947,0.068042
2823.4584,0.068532
2825.3221,0.068935
2827.1857,0.069267
2829.0494,0.069442
2830.9131,0.069730
2832.7768,0.070004
2834.6404,0.070297
2836.5041,0.070500
2838.3678,0.070883
2840.2314,0.071177
2842.0951,0.071706
2843.9588,0.072178
2845.8224,0.072326
2847.6861,0.072811
2849.5498,0.073680
2851.4134,0.074138
2853.2771,0.074613
2855.1408,0.075101
2857.0045,0.075451
2858.8681,0.075521
2860.7318,0.075992
2862.5955,0.076612
2864.4591,0.077180
2866.3228,0.077443
2868.1865,0.077949
2870.0501,0.078736
2871.9138,0.079449
2873.7775,0.079872
2875.6411,0.080370
2877.5048,0.081028
2879.3685,0.081501
2881.2321,0.082018
2883.0958,0.082729
2884.9595,0.082972
2886.8232,0.083298
2888.6868,0.083521
2890.5505,0.083585
2892.4142,0.083380
2894.2778,0.083348
2896.1415,0.083383
2898.0052,0.083597
2899.8688,0.083372
2901.7325,0.083662
2903.5962,0.084160
2905.4598,0.084200
2907.3235,0.083940
2909.1872,0.084097
2911.0509,0.084307
2912.9145,0.084807
2914.7782,0.085042
2916.6419,0.085218
2918.5055,0.085899
2920.3692,0.086558
2922.2329,0.086869
2924.0965,0.087100
2925.9602,0.087101
2927.8239,0.087256
2929.6875,0.086997
2931.5512,0.086587
2933.4149,0.086317
2935.2785,0.085821
2937.1422,0.084830
2939.0059,0.083823
2940.8696,0.082767
2942.7332,0.081661
2944.5969,0.080681
2946.4606,0.079723
2948.3242,0.078833
2950.1879,0.077945
2952.0516,0.077116
2953.9152,0.076612
2955.7789,0.075825
2957.6426,0.075492
2959.5062,0.075257
2961.3699,0.075032
2963.2336,0.074535
2965.0972,0.074099
2966.9609,0.074008
2968.8246,0.074075
2970.6883,0.073951
2972.5519,0.074022
2974.4156,0.073970
2976.2793,0.073620
2978.1429,0.073508
2980.0066,0.073441
2981.8703,0.073032
2983.7339,0.073006
2985.5976,0.073090
2987.4613,0.073052
2989.3249,0.073040
2991.1886,0.073232
2993.0523,0.073542
2994.9160,0.073507
2996.7796,0.073136
2998.6433,0.073618
3000.5070,0.074463
3002.3706,0.074625
3004.2343,0.074785
3006.0980,0.075331
3007.9616,0.075641
3009.8253,0.076070
3011.6890,0.076429
3013.5526,0.076611
3015.4163,0.076671
3017.2800,0.077020
3019.1436,0.077456
3021.0073,0.077892
3022.8710,0.078547
3024.7347,0.079169
3026.5983,0.079334
3028.4620,0.079813
3030.3257,0.080195
3032.1893,0.080569
3034.0530,0.080990
3035.9167,0.081009
3037.7803,0.081094
3039.6440,0.081878
3041.5077,0.082215
3043.3713,0.082419
3045.2350,0.082571
3047.0987,0.082969
3048.9624,0.083511
3050.8260,0.084143
3052.6897,0.084642
3054.5534,0.084988
3056.4170,0.085480
3058.2807,0.085724
3060.1444,0.085662
3062.0080,0.086117
3063.8717,0.086822
3065.7354,0.087254
3067.5990,0.087564
3069.4627,0.088022
3071.3264,0.088086
3073.1900,0.088535
3075.0537,0.089241
3076.9174,0.089217
3078.7811,0.089262
3080.6447,0.089828
3082.5084,0.090279
3084.3721,0.090837
3086.2357,0.091066
3088.0994,0.091204
3089.9631,0.090931
3091.8267,0.091205
3093.6904,0.091864
3095.5541,0.092462
3097.4177,0.092702
3099.2814,0.093272
3101.1451,0.093610
3103.0087,0.093759
3104.8724,0.094059
3106.7361,0.094564
3108.5998,0.094829
3110.4634,0.094850
3112.3271,0.094972
3114.1908,0.095794
3116.0544,0.096164
3117.9181,0.096165
3119.7818,0.096426
3121.6454,0.096707
3123.5091,0.096677
3125.3728,0.097338
3127.2364,0.097905
3129.1001,0.098342
3130.9638,0.098614
3132.8275,0.099056
3134.6911,0.099270
3136.5548,0.099519
3138.4185,0.099876
3140.2821,0.100333
3142.1458,0.100276
3144.0095,0.100458
3145.8731,0.101260
3147.7368,0.101984
3149.6005,0.102222
3151.4641,0.102265
3153.3278,0.102266
3155.1915,0.102552
3157.0551,0.102759
3158.9188,0.102912
3160.7825,0.102844
3162.6462,0.103533
3164.5098,0.104214
3166.3735,0.104374
3168.2372,0.104455
3170.1008,0.104883
3171.9645,0.104792
3173.8282,0.105076
3175.6918,0.105429
3177.5555,0.105409
3179.4192,0.105566
3181.2828,0.106152
3183.1465,0.105741
3185.0102,0.105967
3186.8739,0.106905
3188.7375,0.107101
3190.6012,0.107264
3192.4649,0.107948
3194.3285,0.108219
3196.1922,0.108696
3198.0559,0.108754
3199.9195,0.108431
3201.7832,0.108446
3203.6469,0.109312
3205.5105,0.109208
3207.3742,0.109201
3209.2379,0.109670
3211.1015,0.109910
3212.9652,0.109924
3214.8289,0.109904
3216.6926,0.109953
3218.5562,0.110522
3220.4199,0.110827
3222.2836,0.111559
3224.1472,0.111587
3226.0109,0.111553
3227.8746,0.111262
3229.7382,0.111198
3231.6019,0.111562
3233.4656,0.112042
3235.3292,0.111934
3237.1929,0.111434
3239.0566,0.111308
3240.9202,0.111859
3242.7839,0.112285
3244.6476,0.112253
3246.5113,0.112094
3248.3749,0.112396
3250.2386,0.112205
3252.1023,0.112832
3253.9659,0.113149
3255.8296,0.112289
3257.6933,0.111955
3259.5569,0.112713
3261.4206,0.112467
3263.2843,0.111853
3265.1479,0.112212
3267.0116,0.113002
3268.8753,0.112461
3270.7390,0.112231
3272.6026,0.112583
3274.4663,0.112701
3276.3300,0.112536
3278.1936,0.112281
3280.0573,0.111923
3281.9210,0.112028
3283.7846,0.111936
3285.6483,0.111653
3287.5120,0.111350
3289.3756,0.111573
3291.2393,0.111057
3293.1030,0.110565
3294.9666,0.110627
3296.8303,0.110283
3298.6940,0.109650
3300.5577,0.109331
3302.4213,0.109096
3304.2850,0.109327
3306.1487,0.109115
3308.0123,0.108664
3309.8760,0.108201
3311.7397,0.107504
3313.6033,0.107019
3315.4670,0.107477
3317.3307,0.107876
3319.1943,0.108024
3321.0580,0.107433
3322.9217,0.106758
3324.7854,0.106681
3326.6490,0.107260
3328.5127,0.106856
3330.3764,0.106288
3332.2400,0.105783
3334.1037,0.105830
3335.9674,0.105757
3337.8310,0.105685
3339.6947,0.105316
3341.5584,0.104922
3343.4220,0.104445
3345.2857,0.103881
3347.1494,0.102927
3349.0130,0.101976
3350.8767,0.101225
3352.7404,0.101448
3354.6041,0.101585
3356.4677,0.101514
3358.3314,0.100673
3360.1951,0.099642
3362.0587,0.099221
3363.9224,0.098344
3365.7861,0.096979
3367.6497,0.096820
3369.5134,0.096244
3371.3771,0.095632
3373.2407,0.095988
3375.1044,0.096006
3376.9681,0.094571
3378.8317,0.093368
3380.6954,0.092991
3382.5591,0.093388
3384.4228,0.092997
3386.2864,0.093104
3388.1501,0.092857
3390.0138,0.091521
3391.8774,0.090626
3393.7411,0.090309
3395.6048,0.089709
3397.4684,0.089927
3399.3321,0.090129
3401.1958,0.089432
3403.0594,0.088254
3404.9231,0.087481
3406.7868,0.086480
3408.6505,0.085889
3410.5141,0.084904
3412.3778,0.083879
3414.2415,0.082519
3416.1051,0.082449
3417.9688,0.082966
3419.8325,0.082568
3421.6961,0.081383
3423.5598,0.080181
3425.4235,0.079228
3427.2871,0.078823
3429.1508,0.077736
3431.0145,0.076847
3432.8781,0.076603
3434.7418,0.075229
3436.6055,0.073998
3438.4692,0.073768
3440.3328,0.073468
3442.1965,0.072132
3444.0602,0.070921
3445.9238,0.072041
3447.7875,0.071992
3449.6512,0.070557
3451.5148,0.069417
3453.3785,0.068781
3455.2422,0.068868
3457.1058,0.068579
3458.9695,0.067393
3460.8332,0.066205
3462.6969,0.064446
3464.5605,0.063483
3466.4242,0.064146
3468.2879,0.064594
3470.1515,0.063437
3472.0152,0.062392
3473.8789,0.061543
3475.7425,0.061429
3477.6062,0.061377
3479.4699,0.061262
3481.3335,0.060477
3483.1972,0.058747
3485.0609,0.057723
3486.9245,0.057414
3488.7882,0.056122
3490.6519,0.055609
3492.5156,0.055878
3494.3792,0.055756
3496.2429,0.055630
3498.1066,0.055098
3499.9702,0.053542
3501.8339,0.052441
3503.6976,0.052480
3505.5612,0.052335
3507.4249,0.050918
3509.2886,0.049871
3511.1522,0.050085
3513.0159,0.049265
3514.8796,0.048386
3516.7432,0.048603
3518.6069,0.048181
3520.4706,0.047598
3522.3343,0.046934
3524.1979,0.046311
3526.0616,0.045689
3527.9253,0.044666
3529.7889,0.043651
3531.6526,0.042950
3533.5163,0.042861
3535.3799,0.043346
3537.2436,0.043178
3539.1073,0.042007
3540.9709,0.040828
3542.8346,0.040528
3544.6983,0.039821
3546.5620,0.038917
3548.4256,0.038365
3550.2893,0.037549
3552.1530,0.037350
3554.0166,0.037248
3555.8803,0.037301
3557.7440,0.036550
3559.6076,0.035160
3561.4713,0.035025
3563.3350,0.034569
3565.1986,0.033076
3567.0623,0.032228
3568.9260,0.031761
3570.7896,0.030286
3572.6533,0.030413
3574.5170,0.031431
3576.3807,0.031299
3578.2443,0.030703
3580.1080,0.030066
3581.9717,0.029368
3583.8353,0.028279
3585.6990,0.027767
3587.5627,0.028222
3589.4263,0.028737
3591.2900,0.028657
3593.1537,0.028104
3595.0173,0.027163
3596.8810,0.026555
3598.7447,0.026639
3600.6084,0.026716
3602.4720,0.026056
3604.3357,0.025519
3606.1994,0.025357
3608.0630,0.024687
3609.9267,0.024144
3611.7904,0.023936
3613.6540,0.023393
3615.5177,0.022861
3617.3814,0.022499
3619.2450,0.023011
3621.1087,0.023293
3622.9724,0.022730
3624.8360,0.022793
3626.6997,0.022218
3628.5634,0.021335
3630.4271,0.021472
3632.2907,0.021811
3634.1544,0.021729
3636.0181,0.021385
3637.8817,0.021307
3639.7454,0.021222
3641.6091,0.020789
3643.4727,0.020541
3645.3364,0.020220
3647.2001,0.019875
3649.0637,0.019463
3650.9274,0.019191
3652.7911,0.019786
3654.6547,0.020133
3656.5184,0.020263
3658.3821,0.020388
3660.2458,0.020170
3662.1094,0.020014
3663.9731,0.019860
3665.8368,0.019556
3667.7004,0.019433
3669.5641,0.019692
3671.4278,0.019407
3673.2914,0.018857
3675.1551,0.019580
3677.0188,0.020787
3678.8824,0.020906
3680.7461,0.020473
3682.6098,0.020053
3684.4735,0.019603
3686.3371,0.019299
3688.2008,0.018688
3690.0645,0.019003
3691.9281,0.020537
3693.7918,0.020595
3695.6555,0.020041
3697.5191,0.019808
3699.3828,0.019853
3701.2465,0.019980
3703.1101,0.020307
3704.9738,0.020076
3706.8375,0.019448
3708.7011,0.019412
3710.5648,0.019440
3712.4285,0.019692
3714.2922,0.020775
3716.1558,0.021130
3718.0195,0.020555
3719.8832,0.019999
3721.7468,0.020588
3723.6105,0.021350
3725.4742,0.020939
3727.3378,0.020518
3729.2015,0.020492
3731.0652,0.020454
3732.9288,0.020641
3734.7925,0.020578
3736.6562,0.019927
3738.5199,0.019732
3740.3835,0.019823
3742.2472,0.020099
3744.1109,0.019847
3745.9745,0.019501
3747.8382,0.020231
3749.7019,0.021243
3751.5655,0.022266
3753.4292,0.022092
3755.2929,0.021659
3757.1565,0.022069
3759.0202,0.022159
3760.8839,0.021798
3762.7475,0.022040
3764.6112,0.022219
3766.4749,0.022031
3768.3386,0.022376
3770.2022,0.022776
3772.0659,0.022723
3773.9296,0.022877
3775.7932,0.022813
3777.6569,0.022715
3779.5206,0.023144
3781.3842,0.023483
3783.2479,0.023103
3785.1116,0.022696
3786.9752,0.023188
3788.8389,0.023764
3790.7026,0.023471
3792.5662,0.022813
3794.4299,0.022449
3796.2936,0.022393
3798.1573,0.022371
3800.0209,0.022173
3801.8846,0.022548
3803.7483,0.023912
3805.6119,0.023821
3807.4756,0.023449
3809.3393,0.023986
3811.2029,0.023417
3813.0666,0.022526
3814.9303,0.022218
3816.7939,0.022886
3818.6576,0.023828
3820.5213,0.023405
3822.3850,0.023702
3824.2486,0.023965
3826.1123,0.023517
3827.9760,0.023518
3829.8396,0.023222
3831.7033,0.022898
3833.5670,0.023096
3835.4306,0.023127
3837.2943,0.023077
3839.1580,0.023422
3841.0216,0.023997
3842.8853,0.024177
3844.7490,0.024076
3846.6126,0.023698
3848.4763,0.023024
3850.3400,0.022670
3852.2037,0.022921
3854.0673,0.025073
3855.9310,0.027591
3857.7947,0.025871
3859.6583,0.024375
3861.5220,0.023984
3863.3857,0.023759
3865.2493,0.023972
3867.1130,0.024055
3868.9767,0.024012
3870.8403,0.024838
3872.7040,0.025336
3874.5677,0.024980
3876.4314,0.025260
3878.2950,0.025302
3880.1587,0.024848
3882.0224,0.025261
3883.8860,0.025609
3885.7497,0.024940
3887.6134,0.024830
3889.4770,0.025028
3891.3407,0.024758
3893.2044,0.024642
3895.0680,0.024854
3896.9317,0.024971
3898.7954,0.024878
3900.6590,0.025078
3902.5227,0.025648
3904.3864,0.026292
3906.2501,0.026577
3908.1137,0.025783
3909.9774,0.025266
3911.8411,0.025369
3913.7047,0.025569
3915.5684,0.025619
3917.4321,0.025831
3919.2957,0.026490
3921.1594,0.026263
3923.0231,0.025708
3924.8867,0.026173
3926.7504,0.026807
3928.6141,0.026908
3930.4777,0.026671
3932.3414,0.026478
3934.2051,0.026681
3936.0688,0.026515
3937.9324,0.025839
3939.7961,0.025599
3941.6598,0.025857
3943.5234,0.026422
3945.3871,0.026780
3947.2508,0.026500
3949.1144,0.026312
3950.9781,0.026441
3952.8418,0.026402
3954.7054,0.026311
3956.5691,0.026600
3958.4328,0.026649
3960.2965,0.026523
3962.1601,0.026894
3964.0238,0.026901
3965.8875,0.026496
3967.7511,0.026437
3969.6148,0.026951
3971.4785,0.026969
3973.3421,0.026690
3975.2058,0.027236
3977.0695,0.027742
3978.9331,0.026986
3980.7968,0.026040
3982.6605,0.026262
3984.5241,0.027090
3986.3878,0.027296
3988.2515,0.027147
3990.1152,0.027249
3991.9788,0.027119
3993.8425,0.026810
3995.7062,0.027192
3997.5698,0.027549
3999.4335,0.027336
