Wavenumber,Intensity
650.4205,0.202902
652.2841,0.213662
654.1478,0.223704
656.0115,0.234126
657.8751,0.248834
659.7388,0.265763
661.6025,0.286300
663.4661,0.302744
665.3298,0.314215
667.1935,0.325658
669.0571,0.326546
670.9208,0.301302
672.7845,0.274583
674.6481,0.249920
676.5118,0.232847
678.3755,0.220044
680.2392,0.211231
682.1028,0.203384
683.9665,0.194003
685.8302,0.183699
687.6938,0.175395
689.5575,0.166654
691.4212,0.158360
693.2848,0.150327
695.1485,0.142012
697.0122,0.134966
698.8758,0.130729
700.7395,0.127836
702.6032,0.124357
704.4669,0.119982
706.3305,0.116514
708.1942,0.113928
710.0579,0.111053
711.9215,0.107810
713.7852,0.105582
715.6489,0.103029
717.5125,0.100795
719.3762,0.098905
721.2399,0.096503
723.1035,0.094531
724.9672,0.093538
726.8309,0.093498
728.6945,0.092921
730.5582,0.091654
732.4219,0.091391
734.2856,0.091939
736.1492,0.091869
738.0129,0.091835
739.8766,0.092838
741.7402,0.093790
743.6039,0.094973
745.4676,0.095928
747.3312,0.095947
749.1949,0.095938
751.0586,0.095680
752.9222,0.095391
754.7859,0.095018
756.6496,0.093890
758.5132,0.093673
760.3769,0.094108
762.2406,0.094334
764.1043,0.094983
765.9679,0.095956
767.8316,0.096272
769.6953,0.096666
771.5589,0.097443
773.4226,0.099004
775.2863,0.100866
777.1499,0.102100
779.0136,0.102431
780.8773,0.102495
782.7409,0.102075
784.6046,0.101247
786.4683,0.101386
788.3320,0.102143
790.1956,0.102438
792.0593,0.102826
793.9230,0.103482
795.7866,0.103982
797.6503,0.104365
799.5140,0.105178
801.3776,0.106397
803.2413,0.107422
805.1050,0.108070
806.9686,0.109241
808.8323,0.110664
810.6960,0.111063
812.5596,0.109849
814.4233,0.108458
816.2870,0.107578
818.1507,0.107512
820.0143,0.107903
821.8780,0.108532
823.7417,0.109238
825.6053,0.110468
827.4690,0.112351
829.3327,0.114211
831.1963,0.114578
833.0600,0.113496
834.9237,0.112593
836.7873,0.112969
838.6510,0.114011
840.5147,0.115465
842.3784,0.117311
844.2420,0.119718
846.1057,0.122200
847.9694,0.123819
849.8330,0.124528
851.6967,0.124700
853.5604,0.124807
855.4240,0.125201
857.2877,0.125601
859.1514,0.126316
861.0150,0.127340
862.8787,0.128701
864.7424,0.130133
866.6060,0.131832
868.4697,0.133560
870.3334,0.135094
872.1971,0.136947
874.0607,0.139357
875.9244,0.141780
877.7881,0.143943
879.6517,0.146084
881.5154,0.148324
883.3791,0.150631
885.2427,0.152986
887.1064,0.154800
888.9701,0.156619
890.8337,0.158823
892.6974,0.161091
894.5611,0.163165
896.4247,0.165388
898.2884,0.167536
900.1521,0.169651
902.0158,0.171844
903.8794,0.174196
905.7431,0.176865
907.6068,0.180185
909.4704,0.183695
911.3341,0.187519
913.1978,0.191702
915.0614,0.195238
916.9251,0.196160
918.7888,0.194910
920.6524,0.194297
922.5161,0.195770
924.3798,0.198511
926.2435,0.201310
928.1071,0.203294
929.9708,0.205041
931.8345,0.207096
933.6981,0.209754
935.5618,0.212525
937.4255,0.215125
939.2891,0.217729
941.1528,0.220438
943.0165,0.223095
944.8801,0.225917
946.7438,0.228669
948.6075,0.231548
950.4711,0.234805
952.3348,0.238263
954.1985,0.241877
956.0622,0.245688
957.9258,0.249428
959.7895,0.253520
961.6532,0.257844
963.5168,0.262290
965.3805,0.266879
967.2442,0.271839
969.1078,0.277048
970.9715,0.282142
972.8352,0.287236
974.6988,0.292906
976.5625,0.299270
978.4262,0.307507
980.2899,0.316870
982.1535,0.321761
984.0172,0.317543
985.8809,0.312398
987.7445,0.313257
989.6082,0.317599
991.4719,0.322167
993.3355,0.326520
995.1992,0.330536
997.0629,0.334117
998.9265,0.337232
1000.7902,0.339644
1002.6539,0.341433
1004.5175,0.343683
1006.3812,0.345966
1008.2449,0.347180
1010.1086,0.346448
1011.9722,0.343492
1013.8359,0.337693
1015.6996,0.329245
1017.5632,0.318240
1019.4269,0.305094
1021.2906,0.290878
1023.1542,0.276404
1025.0179,0.262184
1026.8816,0.249335
1028.7452,0.237770
1030.6089,0.227225
1032.4726,0.217379
1034.3362,0.208316
1036.1999,0.199630
1038.0636,0.191302
1039.9273,0.183471
1041.7909,0.176228
1043.6546,0.169286
1045.5183,0.162580
1047.3819,0.155979
1049.2456,0.149692
1051.1093,0.143876
1052.9729,0.138749
1054.8366,0.134584
1056.7003,0.131586
1058.5639,0.129693
1060.4276,0.128271
1062.2913,0.127110
1064.1550,0.126271
1066.0186,0.125515
1067.8823,0.125107
1069.7460,0.125179
1071.6096,0.125300
1073.4733,0.125277
1075.3370,0.125087
1077.2006,0.124518
1079.0643,0.123375
1080.9280,0.121903
1082.7916,0.120261
1084.6553,0.118446
1086.5190,0.116667
1088.3826,0.114759
1090.2463,0.113019
1092.1100,0.111990
1093.9737,0.111785
1095.8373,0.111910
1097.7010,0.112097
1099.5647,0.112372
1101.4283,0.112671
1103.2920,0.112654
1105.1557,0.111971
1107.0193,0.110454
1108.8830,0.108149
1110.7467,0.105073
1112.6103,0.101643
1114.4740,0.098323
1116.3377,0.095255
1118.2014,0.092599
1120.0650,0.090450
1121.9287,0.088752
1123.7924,0.087404
1125.6560,0.086143
1127.5197,0.084743
1129.3834,0.083340
1131.2470,0.081822
1133.1107,0.080073
1134.9744,0.078294
1136.8380,0.076944
1138.7017,0.075884
1140.5654,0.074955
1142.4290,0.074277
1144.2927,0.073673
1146.1564,0.072979
1148.0201,0.072386
1149.8837,0.071844
1151.7474,0.071089
1153.6111,0.070265
1155.4747,0.069440
1157.3384,0.068510
1159.2021,0.067453
1161.0657,0.066381
1162.9294,0.065403
1164.7931,0.064491
1166.6567,0.063671
1168.5204,0.062886
1170.3841,0.062113
1172.2477,0.061354
1174.1114,0.060426
1175.9751,0.059239
1177.8388,0.058046
1179.7024,0.057210
1181.5661,0.056983
1183.4298,0.057128
1185.2934,0.057313
1187.1571,0.057604
1189.0208,0.057859
1190.8844,0.058044
1192.7481,0.058371
1194.6118,0.058734
1196.4754,0.059234
1198.3391,0.060040
1200.2028,0.060955
1202.0665,0.061677
1203.9301,0.061997
1205.7938,0.061758
1207.6575,0.061407
1209.5211,0.061475
1211.3848,0.062005
1213.2485,0.062773
1215.1121,0.063607
1216.9758,0.064495
1218.8395,0.065276
1220.7031,0.065855
1222.5668,0.066383
1224.4305,0.066951
1226.2941,0.067527
1228.1578,0.067962
1230.0215,0.068220
1231.8852,0.068317
1233.7488,0.068341
1235.6125,0.068317
1237.4762,0.068286
1239.3398,0.068215
1241.2035,0.068042
1243.0672,0.067952
1244.9308,0.067980
1246.7945,0.067996
1248.6582,0.067934
1250.5218,0.067932
1252.3855,0.068031
1254.2492,0.068171
1256.1129,0.068090
1257.9765,0.067745
1259.8402,0.067449
1261.7039,0.067261
1263.5675,0.066959
1265.4312,0.066691
1267.2949,0.066607
1269.1585,0.066650
1271.0222,0.066827
1272.8859,0.067207
1274.7495,0.067711
1276.6132,0.068355
1278.4769,0.069069
1280.3405,0.069772
1282.2042,0.070307
1284.0679,0.070446
1285.9316,0.070399
1287.7952,0.070645
1289.6589,0.071023
1291.5226,0.071537
1293.3862,0.072333
1295.2499,0.073550
1297.1136,0.074894
1298.9772,0.076162
1300.8409,0.077808
1302.7046,0.079823
1304.5682,0.081553
1306.4319,0.082212
1308.2956,0.080982
1310.1592,0.077606
1312.0229,0.074078
1313.8866,0.072156
1315.7503,0.071474
1317.6139,0.071407
1319.4776,0.071481
1321.3413,0.071301
1323.2049,0.071262
1325.0686,0.071913
1326.9323,0.072919
1328.7959,0.073971
1330.6596,0.074612
1332.5233,0.074716
1334.3869,0.074035
1336.2506,0.072842
1338.1143,0.072180
1339.9780,0.072341
1341.8416,0.071553
1343.7053,0.070406
1345.5690,0.070111
1347.4326,0.070439
1349.2963,0.071096
1351.1600,0.071826
1353.0236,0.072707
1354.8873,0.073968
1356.7510,0.074980
1358.6146,0.075343
1360.4783,0.075679
1362.3420,0.077319
1364.2056,0.078615
1366.0693,0.078326
1367.9330,0.079278
1369.7967,0.080783
1371.6603,0.081411
1373.5240,0.083653
1375.3877,0.086653
1377.2513,0.087575
1379.1150,0.088810
1380.9787,0.090438
1382.8423,0.091807
1384.7060,0.093099
1386.5697,0.096128
1388.4333,0.099947
1390.2970,0.100301
1392.1607,0.099783
1394.0244,0.100839
1395.8880,0.101602
1397.7517,0.100080
1399.6154,0.098587
1401.4790,0.096022
1403.3427,0.093861
1405.2064,0.092465
1407.0700,0.089359
1408.9337,0.085226
1410.7974,0.081537
1412.6610,0.078622
1414.5247,0.076338
1416.3884,0.075209
1418.2520,0.076646
1420.1157,0.078750
1421.9794,0.077346
1423.8431,0.076131
1425.7067,0.073790
1427.5704,0.071153
1429.4341,0.070555
1431.2977,0.070830
1433.1614,0.070304
1435.0251,0.070864
1436.8887,0.074995
1438.7524,0.076773
1440.6161,0.075983
1442.4797,0.076174
1444.3434,0.076384
1446.2071,0.076881
1448.0707,0.078607
1449.9344,0.078919
1451.7981,0.076724
1453.6618,0.073378
1455.5254,0.071636
1457.3891,0.076190
1459.2528,0.077153
1461.1164,0.073796
1462.9801,0.072657
1464.8438,0.074452
1466.7074,0.074544
1468.5711,0.071985
1470.4348,0.070207
1472.2984,0.071764
1474.1621,0.074237
1476.0258,0.074334
1477.8895,0.073869
1479.7531,0.073837
1481.6168,0.075595
1483.4805,0.077095
1485.3441,0.077776
1487.2078,0.079886
1489.0715,0.084982
1490.9351,0.089883
1492.7988,0.088722
1494.6625,0.087871
1496.5261,0.091462
1498.3898,0.096159
1500.2535,0.096651
1502.1171,0.095142
1503.9808,0.093677
1505.8445,0.096408
1507.7082,0.110743
1509.5718,0.110544
1511.4355,0.107892
1513.2992,0.106922
1515.1628,0.106667
1517.0265,0.107898
1518.8902,0.106923
1520.7538,0.107162
1522.6175,0.110044
1524.4812,0.109151
1526.3448,0.109350
1528.2085,0.109675
1530.0722,0.108203
1531.9359,0.107725
1533.7995,0.109734
1535.6632,0.107821
1537.5269,0.104577
1539.3905,0.105015
1541.2542,0.109981
1543.1179,0.109102
1544.9815,0.107517
1546.8452,0.104580
1548.7089,0.102169
1550.5725,0.100750
1552.4362,0.098627
1554.2999,0.096629
1556.1635,0.093932
1558.0272,0.093863
1559.8909,0.099967
1561.7546,0.095162
1563.6182,0.091912
1565.4819,0.090637
1567.3456,0.089593
1569.2092,0.090150
1571.0729,0.090304
1572.9366,0.088001
1574.8002,0.087328
1576.6639,0.090007
1578.5276,0.090199
1580.3912,0.088935
1582.2549,0.088802
1584.1186,0.088964
1585.9822,0.089025
1587.8459,0.089065
1589.7096,0.089203
1591.5733,0.089625
1593.4369,0.090263
1595.3006,0.091117
1597.1643,0.091965
1599.0279,0.092967
1600.8916,0.094391
1602.7553,0.096180
1604.6189,0.097959
1606.4826,0.099949
1608.3463,0.102826
1610.2099,0.105800
1612.0736,0.107347
1613.9373,0.108009
1615.8010,0.110828
1617.6646,0.116074
1619.5283,0.116010
1621.3920,0.114996
1623.2556,0.117044
1625.1193,0.118999
1626.9830,0.118356
1628.8466,0.117265
1630.7103,0.114801
1632.5740,0.111497
1634.4376,0.108912
1636.3013,0.108009
1638.1650,0.106436
1640.0286,0.103421
1641.8923,0.100179
1643.7560,0.097171
1645.6197,0.095633
1647.4833,0.095317
1649.3470,0.093107
1651.2107,0.090719
1653.0743,0.090941
1654.9380,0.092007
1656.8017,0.089081
1658.6653,0.086272
1660.5290,0.083718
1662.3927,0.081420
1664.2563,0.078796
1666.1200,0.076018
1667.9837,0.073585
1669.8474,0.071378
1671.7110,0.069140
1673.5747,0.067216
1675.4384,0.065952
1677.3020,0.064032
1679.1657,0.062106
1681.0294,0.060083
1682.8930,0.058028
1684.7567,0.056424
1686.6204,0.054075
1688.4840,0.051696
1690.3477,0.048494
1692.2114,0.044852
1694.0750,0.041600
1695.9387,0.037786
1697.8024,0.034104
1699.6661,0.031868
1701.5297,0.028628
1703.3934,0.026910
1705.2571,0.025334
1707.1207,0.022957
1708.9844,0.021240
1710.8481,0.019968
1712.7117,0.018820
1714.5754,0.017763
1716.4391,0.016989
1718.3027,0.016788
1720.1664,0.016768
1722.0301,0.016484
1723.8937,0.016326
1725.7574,0.016121
1727.6211,0.015583
1729.4848,0.014918
1731.3484,0.014448
1733.2121,0.014111
1735.0758,0.014266
1736.9394,0.014310
1738.8031,0.014152
1740.6668,0.014080
1742.5304,0.014119
1744.3941,0.014047
1746.2578,0.013890
1748.1214,0.013670
1749.9851,0.013772
1751.8488,0.013910
1753.7125,0.013738
1755.5761,0.013358
1757.4398,0.013044
1759.3035,0.012866
1761.1671,0.012793
1763.0308,0.012909
1764.8945,0.012981
1766.7581,0.012887
1768.6218,0.012813
1770.4855,0.012487
1772.3491,0.012315
1774.2128,0.012600
1776.0765,0.012812
1777.9401,0.012756
1779.8038,0.012676
1781.6675,0.012774
1783.5312,0.012926
1785.3948,0.013096
1787.2585,0.012915
1789.1222,0.012595
1790.9858,0.012623
1792.8495,0.012985
1794.7132,0.013158
1796.5768,0.012993
1798.4405,0.013016
1800.3042,0.013317
1802.1678,0.013376
1804.0315,0.013268
1805.8952,0.013297
1807.7589,0.013377
1809.6225,0.013459
1811.4862,0.013497
1813.3499,0.013451
1815.2135,0.013357
1817.0772,0.013331
1818.9409,0.013421
1820.8045,0.013442
1822.6682,0.013428
1824.5319,0.013483
1826.3955,0.013410
1828.2592,0.013372
1830.1229,0.013534
1831.9865,0.013318
1833.8502,0.012841
1835.7139,0.012730
1837.5776,0.012998
1839.4412,0.013164
1841.3049,0.013023
1843.1686,0.012903
1845.0322,0.012801
1846.8959,0.012666
1848.7596,0.012804
1850.6232,0.013085
1852.4869,0.013261
1854.3506,0.013140
1856.2142,0.012737
1858.0779,0.012651
1859.9416,0.012825
1861.8052,0.013041
1863.6689,0.013174
1865.5326,0.013230
1867.3963,0.013135
1869.2599,0.012676
1871.1236,0.012619
1872.9873,0.012777
1874.8509,0.012735
1876.7146,0.012896
1878.5783,0.012909
1880.4419,0.012652
1882.3056,0.012728
1884.1693,0.012839
1886.0329,0.012729
1887.8966,0.012606
1889.7603,0.012356
1891.6240,0.012008
1893.4876,0.012243
1895.3513,0.012745
1897.2150,0.012604
1899.0786,0.012150
1900.9423,0.011984
1902.8060,0.012438
1904.6696,0.012525
1906.5333,0.012174
1908.3970,0.012233
1910.2606,0.012306
1912.1243,0.011960
1913.9880,0.011658
1915.8516,0.011718
1917.7153,0.011739
1919.5790,0.011380
1921.4427,0.011308
1923.3063,0.011319
1925.1700,0.011143
1927.0337,0.011587
1928.8973,0.011760
1930.7610,0.011483
1932.6247,0.011078
1934.4883,0.010516
1936.3520,0.010762
1938.2157,0.010904
1940.0793,0.010600
1941.9430,0.010508
1943.8067,0.010131
1945.6704,0.009924
1947.5340,0.010331
1949.3977,0.010118
1951.2614,0.008892
1953.1250,0.008052
1954.9887,0.007964
1956.8524,0.007851
1958.7160,0.007303
1960.5797,0.006714
1962.4434,0.006229
1964.3070,0.006045
1966.1707,0.006278
1968.0344,0.006625
1969.8980,0.005761
1971.7617,0.003943
1973.6254,0.003031
1975.4891,0.002921
1977.3527,0.003048
1979.2164,0.003872
1981.0801,0.005317
1982.9437,0.005434
1984.8074,0.005740
1986.6711,0.006716
1988.5347,0.007130
1990.3984,0.006972
1992.2621,0.005874
1994.1257,0.005658
1995.9894,0.006571
1997.8531,0.006724
1999.7167,0.006323
2001.5804,0.005751
2003.4441,0.005557
2005.3078,0.005475
2007.1714,0.005206
2009.0351,0.005740
2010.8988,0.005146
2012.7624,0.003264
2014.6261,0.003270
2016.4898,0.003712
2018.3534,0.003186
2020.2171,0.003035
2022.0808,0.003884
2023.9444,0.004544
2025.8081,0.004529
2027.6718,0.004355
2029.5355,0.003201
2031.3991,0.002213
2033.2628,0.003126
2035.1265,0.003696
2036.9901,0.003693
2038.8538,0.004165
2040.7175,0.004669
2042.5811,0.005766
2044.4448,0.006484
2046.3085,0.006474
2048.1721,0.007387
2050.0358,0.008614
2051.8995,0.009739
2053.7631,0.010400
2055.6268,0.010059
2057.4905,0.009884
2059.3542,0.009684
2061.2178,0.009853
2063.0815,0.010631
2064.9452,0.010730
2066.8088,0.010803
2068.6725,0.011309
2070.5362,0.011851
2072.3998,0.012196
2074.2635,0.011800
2076.1272,0.011685
2077.9908,0.012363
2079.8545,0.012662
2081.7182,0.013038
2083.5819,0.013523
2085.4455,0.013204
2087.3092,0.012788
2089.1729,0.012985
2091.0365,0.013411
2092.9002,0.013205
2094.7639,0.012671
2096.6275,0.012660
2098.4912,0.013042
2100.3549,0.012969
2102.2185,0.012420
2104.0822,0.012868
2105.9459,0.014147
2107.8095,0.014392
2109.6732,0.013821
2111.5369,0.013508
2113.4006,0.013826
2115.2642,0.014314
2117.1279,0.014226
2118.9916,0.014027
2120.8552,0.014100
2122.7189,0.013645
2124.5826,0.012945
2126.4462,0.012674
2128.3099,0.012624
2130.1736,0.012749
2132.0372,0.012463
2133.9009,0.012297
2135.7646,0.011911
2137.6282,0.011088
2139.4919,0.009680
2141.3556,0.008031
2143.2193,0.007827
2145.0829,0.008180
2146.9466,0.008051
2148.8103,0.007514
2150.6739,0.006257
2152.5376,0.005472
2154.4013,0.005543
2156.2649,0.004479
2158.1286,0.001365
2159.9923,-0.000240
2161.8559,0.001887
2163.7196,0.005099
2165.5833,0.005673
2167.4470,0.005175
2169.3106,0.006795
2171.1743,0.007767
2173.0380,0.007270
2174.9016,0.007057
2176.7653,0.006743
2178.6290,0.006927
2180.4926,0.008217
2182.3563,0.009465
2184.2200,0.010038
2186.0836,0.009828
2187.9473,0.009463
2189.8110,0.009201
2191.6746,0.009302
2193.5383,0.009369
2195.4020,0.009474
2197.2657,0.010351
2199.1293,0.010772
2200.9930,0.010667
2202.8567,0.011078
2204.7203,0.011482
2206.5840,0.011814
2208.4477,0.011630
2210.3113,0.011506
2212.1750,0.011418
2214.0387,0.011865
2215.9023,0.012576
2217.7660,0.012384
2219.6297,0.012721
2221.4934,0.013220
2223.3570,0.012919
2225.2207,0.012220
2227.0844,0.012263
2228.9480,0.013371
2230.8117,0.013826
2232.6754,0.013618
2234.5390,0.014387
2236.4027,0.015140
2238.2664,0.014671
2240.1300,0.014617
2241.9937,0.015177
2243.8574,0.015054
2245.7210,0.014499
2247.5847,0.014215
2249.4484,0.014679
2251.3121,0.015292
2253.1757,0.015554
2255.0394,0.015842
2256.9031,0.016371
2258.7667,0.016386
2260.6304,0.015967
2262.4941,0.016068
2264.3577,0.016016
2266.2214,0.016618
2268.0851,0.017622
2269.9487,0.017612
2271.8124,0.017372
2273.6761,0.017410
2275.5397,0.017922
2277.4034,0.018462
2279.2671,0.018225
2281.1308,0.017897
2282.9944,0.018109
2284.8581,0.018870
2286.7218,0.019322
2288.5854,0.019115
2290.4491,0.019216
2292.3128,0.019659
2294.1764,0.019572
2296.0401,0.019217
2297.9038,0.019436
2299.7674,0.019679
2301.6311,0.019366
2303.4948,0.019462
2305.3585,0.019896
2307.2221,0.019773
2309.0858,0.019758
2310.9495,0.020073
2312.8131,0.019958
2314.6768,0.019853
2316.5405,0.020186
2318.4041,0.020564
2320.2678,0.020493
2322.1315,0.020219
2323.9951,0.020592
2325.8588,0.020632
2327.7225,0.019999
2329.5861,0.019579
2331.4498,0.019470
2333.3135,0.019673
2335.1772,0.019856
2337.0408,0.019936
2338.9045,0.020093
2340.7682,0.020233
2342.6318,0.020195
2344.4955,0.020483
2346.3592,0.020749
2348.2228,0.020487
2350.0865,0.020006
2351.9502,0.019370
2353.8138,0.018943
2355.6775,0.019260
2357.5412,0.019530
2359.4049,0.019583
2361.2685,0.019612
2363.1322,0.019186
2364.9959,0.018893
2366.8595,0.019199
2368.7232,0.019670
2370.5869,0.020128
2372.4505,0.020359
2374.3142,0.020579
2376.1779,0.021195
2378.0415,0.021724
2379.9052,0.021380
2381.7689,0.020722
2383.6325,0.020782
2385.4962,0.020881
2387.3599,0.020471
2389.2236,0.020417
2391.0872,0.020679
2392.9509,0.020756
2394.8146,0.020837
2396.6782,0.020918
2398.5419,0.020992
2400.4056,0.020993
2402.2692,0.020965
2404.1329,0.020861
2405.9966,0.020717
2407.8602,0.021105
2409.7239,0.021488
2411.5876,0.021436
2413.4512,0.021424
2415.3149,0.021438
2417.1786,0.021351
2419.0423,0.021461
2420.9059,0.021565
2422.7696,0.021372
2424.6333,0.021278
2426.4969,0.021492
2428.3606,0.021724
2430.2243,0.021867
2432.0879,0.021938
2433.9516,0.021769
2435.8153,0.021588
2437.6789,0.021507
2439.5426,0.021684
2441.4063,0.022312
2443.2700,0.022432
2445.1336,0.022147
2446.9973,0.022578
2448.8610,0.022925
2450.7246,0.022517
2452.5883,0.022115
2454.4520,0.021953
2456.3156,0.021935
2458.1793,0.022251
2460.0430,0.022670
2461.9066,0.022820
2463.7703,0.022778
2465.6340,0.022930
2467.4976,0.023033
2469.3613,0.022978
2471.2250,0.023083
2473.0887,0.023017
2474.9523,0.023231
2476.8160,0.023586
2478.6797,0.023336
2480.5433,0.023154
2482.4070,0.023473
2484.2707,0.023737
2486.1343,0.023445
2487.9980,0.023029
2489.8617,0.023246
2491.7253,0.023772
2493.5890,0.024115
2495.4527,0.024293
2497.3164,0.024520
2499.1800,0.024782
2501.0437,0.024719
2502.9074,0.024348
2504.7710,0.024365
2506.6347,0.024697
2508.4984,0.024624
2510.3620,0.024315
2512.2257,0.024167
2514.0894,0.024444
2515.9530,0.024894
2517.8167,0.024918
2519.6804,0.024808
2521.5440,0.024854
2523.4077,0.024850
2525.2714,0.024993
2527.1351,0.025469
2528.9987,0.025563
2530.8624,0.025275
2532.7261,0.025157
2534.5897,0.025233
2536.4534,0.025398
2538.3171,0.025603
2540.1807,0.025924
2542.0444,0.026332
2543.9081,0.026308
2545.7717,0.025993
2547.6354,0.025929
2549.4991,0.026016
2551.3627,0.025966
2553.2264,0.026182
2555.0901,0.026473
2556.9538,0.026403
2558.8174,0.026340
2560.6811,0.026465
2562.5448,0.026754
2564.4084,0.027151
2566.2721,0.027311
2568.1358,0.027409
2569.9994,0.027600
2571.8631,0.027685
2573.7268,0.027709
2575.5904,0.027637
2577.4541,0.027498
2579.3178,0.027520
2581.1815,0.027855
2583.0451,0.028300
2584.9088,0.028154
2586.7725,0.027906
2588.6361,0.028235
2590.4998,0.028901
2592.3635,0.029249
2594.2271,0.029024
2596.0908,0.028952
2597.9545,0.029198
2599.8181,0.029397
2601.6818,0.029563
2603.5455,0.029528
2605.4091,0.029444
2607.2728,0.029801
2609.1365,0.030156
2611.0002,0.030133
2612.8638,0.030242
2614.7275,0.030518
2616.5912,0.030614
2618.4548,0.030789
2620.3185,0.030957
2622.1822,0.030902
2624.0458,0.030900
2625.9095,0.031066
2627.7732,0.031014
2629.6368,0.031158
2631.5005,0.031560
2633.3642,0.031672
2635.2279,0.031834
2637.0915,0.031999
2638.9552,0.032143
2640.8189,0.032210
2642.6825,0.032329
2644.5462,0.032624
2646.4099,0.032727
2648.2735,0.032560
2650.1372,0.032427
2652.0009,0.032760
2653.8645,0.033029
2655.7282,0.032804
2657.5919,0.032615
2659.4555,0.032600
2661.3192,0.032627
2663.1829,0.032774
2665.0466,0.032974
2666.9102,0.032999
2668.7739,0.032764
2670.6376,0.032695
2672.5012,0.032977
2674.3649,0.033136
2676.2286,0.033094
2678.0922,0.033365
2679.9559,0.033744
2681.8196,0.033733
2683.6832,0.033617
2685.5469,0.033705
2687.4106,0.033943
2689.2742,0.034156
2691.1379,0.034180
2693.0016,0.034223
2694.8653,0.034402
2696.7289,0.034402
2698.5926,0.034485
2700.4563,0.034988
2702.3199,0.035290
2704.1836,0.035154
2706.0473,0.035267
2707.9109,0.035587
2709.7746,0.035687
2711.6383,0.035715
2713.5019,0.035833
2715.3656,0.035917
2717.2293,0.036095
2719.0930,0.036381
2720.9566,0.036515
2722.8203,0.036834
2724.6840,0.037151
2726.5476,0.037151
2728.4113,0.037199
2730.2750,0.037331
2732.1386,0.037406
2734.0023,0.037459
2735.8660,0.037581
2737.7296,0.037736
2739.5933,0.037842
2741.4570,0.037867
2743.3206,0.037882
2745.1843,0.038166
2747.0480,0.038485
2748.9117,0.038655
2750.7753,0.038898
2752.6390,0.039042
2754.5027,0.038983
2756.3663,0.039093
2758.2300,0.039582
2760.0937,0.039863
2761.9573,0.039800
2763.8210,0.040022
2765.6847,0.040292
2767.5483,0.040342
2769.4120,0.040484
2771.2757,0.040838
2773.1394,0.041276
2775.0030,0.041702
2776.8667,0.041986
2778.7304,0.041971
2780.5940,0.041928
2782.4577,0.041973
2784.3214,0.042191
2786.1850,0.042446
2788.0487,0.042465
2789.9124,0.042430
2791.7760,0.042544
2793.6397,0.042705
2795.5034,0.042600
2797.3670,0.042576
2799.2307,0.042694
2801.0944,0.042722
2802.9581,0.042998
2804.8217,0.043161
2806.6854,0.042808
2808.5491,0.042617
2810.4127,0.042874
2812.2764,0.043280
2814.1401,0.043380
2816.0037,0.043359
2817.8674,0.043476
2819.7311,0.043847
2821.5947,0.044192
2823.4584,0.044299
2825.3221,0.044741
2827.1857,0.045026
2829.0494,0.044799
2830.9131,0.044829
2832.7768,0.045017
2834.6404,0.045223
2836.5041,0.045619
2838.3678,0.046007
2840.2314,0.046214
2842.0951,0.046726
2843.9588,0.047587
2845.8224,0.047827
2847.6861,0.047878
2849.5498,0.048479
2851.4134,0.049042
2853.2771,0.049601
2855.1408,0.049856
2857.0045,0.049657
2858.8681,0.049879
2860.7318,0.050564
2862.5955,0.051078
2864.4591,0.051182
2866.3228,0.051347
2868.1865,0.051754
2870.0501,0.052052
2871.9138,0.052231
2873.7775,0.052226
2875.6411,0.052091
2877.5048,0.051939
2879.3685,0.051666
2881.2321,0.051363
2883.0958,0.051367
2884.9595,0.051536
2886.8232,0.051683
2888.6868,0.051646
2890.5505,0.051696
2892.4142,0.052078
2894.2778,0.052388
2896.1415,0.052517
2898.0052,0.052825
2899.8688,0.053231
2901.7325,0.053661
2903.5962,0.054291
2905.4598,0.054404
2907.3235,0.054154
2909.1872,0.054760
2911.0509,0.055601
2912.9145,0.056175
2914.7782,0.056793
2916.6419,0.057181
2918.5055,0.057510
2920.3692,0.058145
2922.2329,0.058557
2924.0965,0.058729
2925.9602,0.059072
2927.8239,0.059153
2929.6875,0.059169
2931.5512,0.059359
2933.4149,0.059351
2935.2785,0.058920
2937.1422,0.057835
2939.0059,0.057055
2940.8696,0.057069
2942.7332,0.057251
2944.5969,0.057379
2946.4606,0.057134
2948.3242,0.056810
2950.1879,0.057041
2952.0516,0.057532
2953.9152,0.057784
2955.7789,0.057481
2957.6426,0.057291
2959.5062,0.057418
2961.3699,0.057443
2963.2336,0.057235
2965.0972,0.057130
2966.9609,0.056893
2968.8246,0.056132
2970.6883,0.055382
2972.5519,0.055228
2974.4156,0.055382
2976.2793,0.055113
2978.1429,0.054727
2980.0066,0.054901
2981.8703,0.054854
2983.7339,0.054278
2985.5976,0.053920
2987.4613,0.053888
2989.3249,0.053597
2991.1886,0.053311
2993.0523,0.053785
2994.9160,0.054718
2996.7796,0.054868
2998.6433,0.054676
3000.5070,0.054804
3002.3706,0.054693
3004.2343,0.055107
3006.0980,0.055785
3007.9616,0.056072
3009.8253,0.056366
3011.6890,0.056338
3013.5526,0.056575
3015.4163,0.057132
3017.2800,0.057736
3019.1436,0.057976
3021.0073,0.057802
3022.8710,0.057758
3024.7347,0.057840
3026.5983,0.057914
3028.4620,0.058133
3030.3257,0.058251
3032.1893,0.058146
3034.0530,0.058701
3035.9167,0.059515
3037.7803,0.059552
3039.6440,0.059052
3041.5077,0.058685
3043.3713,0.059351
3045.2350,0.059916
3047.0987,0.059731
3048.9624,0.059872
3050.8260,0.060236
3052.6897,0.060455
3054.5534,0.060688
3056.4170,0.061021
3058.2807,0.061300
3060.1444,0.061031
3062.0080,0.060297
3063.8717,0.060041
3065.7354,0.060535
3067.5990,0.060569
3069.4627,0.060653
3071.3264,0.060955
3073.1900,0.060796
3075.0537,0.060745
3076.9174,0.060717
3078.7811,0.060536
3080.6447,0.060609
3082.5084,0.060531
3084.3721,0.060513
3086.2357,0.060423
3088.0994,0.059928
3089.9631,0.059700
3091.8267,0.059940
3093.6904,0.060186
3095.5541,0.060155
3097.4177,0.060058
3099.2814,0.059824
3101.1451,0.059221
3103.0087,0.059076
3104.8724,0.059386
3106.7361,0.059266
3108.5998,0.058704
3110.4634,0.058719
3112.3271,0.059153
3114.1908,0.059276
3116.0544,0.059132
3117.9181,0.059443
3119.7818,0.059619
3121.6454,0.059479
3123.5091,0.059554
3125.3728,0.059472
3127.2364,0.059161
3129.1001,0.059613
3130.9638,0.059835
3132.8275,0.059054
3134.6911,0.059076
3136.5548,0.059833
3138.4185,0.060064
3140.2821,0.060398
3142.1458,0.060710
3144.0095,0.060569
3145.8731,0.060563
3147.7368,0.060653
3149.6005,0.060641
3151.4641,0.061103
3153.3278,0.061559
3155.1915,0.061741
3157.0551,0.061885
3158.9188,0.061250
3160.7825,0.060781
3162.6462,0.061056
3164.5098,0.061495
3166.3735,0.061839
3168.2372,0.062636
3170.1008,0.063333
3171.9645,0.062541
3173.8282,0.061604
3175.6918,0.061678
3177.5555,0.061908
3179.4192,0.061937
3181.2828,0.062212
3183.1465,0.062408
3185.0102,0.062084
3186.8739,0.061928
3188.7375,0.061935
3190.6012,0.061362
3192.4649,0.061405
3194.3285,0.061931
3196.1922,0.062088
3198.0559,0.062369
3199.9195,0.062664
3201.7832,0.062740
3203.6469,0.062609
3205.5105,0.062532
3207.3742,0.062588
3209.2379,0.062459
3211.1015,0.062520
3212.9652,0.062907
3214.8289,0.063515
3216.6926,0.063362
3218.5562,0.062858
3220.4199,0.063047
3222.2836,0.062581
3224.1472,0.062174
3226.0109,0.062554
3227.8746,0.062111
3229.7382,0.061412
3231.6019,0.061921
3233.4656,0.062583
3235.3292,0.062742
3237.1929,0.062794
3239.0566,0.062705
3240.9202,0.061858
3242.7839,0.062142
3244.6476,0.063257
3246.5113,0.063230
3248.3749,0.063782
3250.2386,0.064735
3252.1023,0.064587
3253.9659,0.064353
3255.8296,0.064722
3257.6933,0.064652
3259.5569,0.065746
3261.4206,0.066729
3263.2843,0.066556
3265.1479,0.065836
3267.0116,0.065208
3268.8753,0.065234
3270.7390,0.065311
3272.6026,0.065224
3274.4663,0.066005
3276.3300,0.066564
3278.1936,0.066323
3280.0573,0.066336
3281.9210,0.066375
3283.7846,0.065018
3285.6483,0.063681
3287.5120,0.063448
3289.3756,0.063713
3291.2393,0.063305
3293.1030,0.063199
3294.9666,0.063940
3296.8303,0.063760
3298.6940,0.062504
3300.5577,0.061835
3302.4213,0.061370
3304.2850,0.059876
3306.1487,0.058823
3308.0123,0.059030
3309.8760,0.059133
3311.7397,0.058837
3313.6033,0.058451
3315.4670,0.057818
3317.3307,0.057280
3319.1943,0.056879
3321.0580,0.056336
3322.9217,0.056417
3324.7854,0.056350
3326.6490,0.055560
3328.5127,0.054963
3330.3764,0.054883
3332.2400,0.054436
3334.1037,0.053816
3335.9674,0.053306
3337.8310,0.053436
3339.6947,0.053653
3341.5584,0.052806
3343.4220,0.051831
3345.2857,0.051350
3347.1494,0.050473
3349.0130,0.049804
3350.8767,0.049230
3352.7404,0.048555
3354.6041,0.049108
3356.4677,0.048790
3358.3314,0.047329
3360.1951,0.047316
3362.0587,0.047384
3363.9224,0.046756
3365.7861,0.046201
3367.6497,0.045209
3369.5134,0.044775
3371.3771,0.045389
3373.2407,0.045383
3375.1044,0.045932
3376.9681,0.046224
3378.8317,0.045400
3380.6954,0.044791
3382.5591,0.043951
3384.4228,0.043421
3386.2864,0.043790
3388.1501,0.043737
3390.0138,0.044095
3391.8774,0.044390
3393.7411,0.044410
3395.6048,0.044750
3397.4684,0.045590
3399.3321,0.046184
3401.1958,0.045546
3403.0594,0.044154
3404.9231,0.043776
3406.7868,0.043326
3408.6505,0.042029
3410.5141,0.041079
3412.3778,0.040209
3414.2415,0.038570
3416.1051,0.037376
3417.9688,0.036883
3419.8325,0.036366
3421.6961,0.036015
3423.5598,0.035217
3425.4235,0.034449
3427.2871,0.034625
3429.1508,0.034703
3431.0145,0.035008
3432.8781,0.034302
3434.7418,0.033263
3436.6055,0.032333
3438.4692,0.031936
3440.3328,0.031706
3442.1965,0.030794
3444.0602,0.029938
3445.9238,0.030317
3447.7875,0.030316
3449.6512,0.030555
3451.5148,0.030207
3453.3785,0.029539
3455.2422,0.029768
3457.1058,0.030454
3458.9695,0.029452
3460.8332,0.027683
3462.6969,0.027402
3464.5605,0.027937
3466.4242,0.027397
3468.2879,0.027354
3470.1515,0.027869
3472.0152,0.027565
3473.8789,0.026807
3475.7425,0.026286
3477.6062,0.025965
3479.4699,0.024782
3481.3335,0.023647
3483.1972,0.024257
3485.0609,0.024882
3486.9245,0.025818
3488.7882,0.026032
3490.6519,0.025286
3492.5156,0.024376
3494.3792,0.023444
3496.2429,0.022134
3498.1066,0.021377
3499.9702,0.022388
3501.8339,0.023660
3503.6976,0.023668
3505.5612,0.023136
3507.4249,0.023129
3509.2886,0.022547
3511.1522,0.022107
3513.0159,0.021931
3514.8796,0.021411
3516.7432,0.020508
3518.6069,0.019866
3520.4706,0.020203
3522.3343,0.019533
3524.1979,0.018109
3526.0616,0.018369
3527.9253,0.020041
3529.7889,0.019505
3531.6526,0.018980
3533.5163,0.020299
3535.3799,0.020081
3537.2436,0.018886
3539.1073,0.018662
3540.9709,0.018586
3542.8346,0.018172
3544.6983,0.017558
3546.5620,0.016372
3548.4256,0.016180
3550.2893,0.016914
3552.1530,0.017744
3554.0166,0.017105
3555.8803,0.016890
3557.7440,0.017267
3559.6076,0.016393
3561.4713,0.015826
3563.3350,0.016191
3565.1986,0.015684
3567.0623,0.014547
3568.9260,0.014557
3570.7896,0.016085
3572.6533,0.016361
3574.5170,0.016962
3576.3807,0.016439
3578.2443,0.015486
3580.1080,0.014985
3581.9717,0.014272
3583.8353,0.014004
3585.6990,0.012834
3587.5627,0.012755
3589.4263,0.014080
3591.2900,0.014703
3593.1537,0.014832
3595.0173,0.014791
3596.8810,0.015507
3598.7447,0.015618
3600.6084,0.014932
3602.4720,0.014562
3604.3357,0.014049
3606.1994,0.013254
3608.0630,0.012022
3609.9267,0.011892
3611.7904,0.012275
3613.6540,0.011778
3615.5177,0.012641
3617.3814,0.014177
3619.2450,0.014186
3621.1087,0.013642
3622.9724,0.013434
3624.8360,0.012910
3626.6997,0.011472
3628.5634,0.010493
3630.4271,0.011014
3632.2907,0.013281
3634.1544,0.013874
3636.0181,0.012892
3637.8817,0.012876
3639.7454,0.013180
3641.6091,0.012926
3643.4727,0.013243
3645.3364,0.012415
3647.2001,0.010280
3649.0637,0.008211
3650.9274,0.009233
3652.7911,0.012873
3654.6547,0.014557
3656.5184,0.014354
3658.3821,0.014986
3660.2458,0.016687
3662.1094,0.017316
3663.9731,0.017449
3665.8368,0.018115
3667.7004,0.018720
3669.5641,0.020352
3671.4278,0.027225
3673.2914,0.036502
3675.1551,0.037107
3677.0188,0.030468
3678.8824,0.018384
3680.7461,0.011734
3682.6098,0.008416
3684.4735,0.008527
3686.3371,0.009091
3688.2008,0.008809
3690.0645,0.006482
3691.9281,0.007005
3693.7918,0.009910
3695.6555,0.010841
3697.5191,0.010375
3699.3828,0.010160
3701.2465,0.010686
3703.1101,0.011173
3704.9738,0.012007
3706.8375,0.012102
3708.7011,0.010858
3710.5648,0.009140
3712.4285,0.008660
3714.2922,0.009344
3716.1558,0.011193
3718.0195,0.012131
3719.8832,0.010955
3721.7468,0.009971
3723.6105,0.010349
3725.4742,0.011418
3727.3378,0.010952
3729.2015,0.010426
3731.0652,0.009883
3732.9288,0.009157
3734.7925,0.008735
3736.6562,0.009162
3738.5199,0.009363
3740.3835,0.009847
3742.2472,0.009685
3744.1109,0.008576
3745.9745,0.006692
3747.8382,0.007007
3749.7019,0.007990
3751.5655,0.007985
3753.4292,0.009197
3755.2929,0.011542
3757.1565,0.012443
3759.0202,0.012426
3760.8839,0.012617
3762.7475,0.012458
3764.6112,0.012224
3766.4749,0.012086
3768.3386,0.011893
3770.2022,0.012192
3772.0659,0.012285
3773.9296,0.012379
3775.7932,0.012044
3777.6569,0.011976
3779.5206,0.012319
3781.3842,0.012026
3783.2479,0.012005
3785.1116,0.012360
3786.9752,0.013224
3788.8389,0.013662
3790.7026,0.013356
3792.5662,0.013113
3794.4299,0.012773
3796.2936,0.012394
3798.1573,0.011532
3800.0209,0.010827
3801.8846,0.009945
3803.7483,0.010193
3805.6119,0.012000
3807.4756,0.012470
3809.3393,0.013278
3811.2029,0.014202
3813.0666,0.013216
3814.9303,0.011225
3816.7939,0.010200
3818.6576,0.011686
3820.5213,0.011915
3822.3850,0.011246
3824.2486,0.012506
3826.1123,0.013234
3827.9760,0.012813
3829.8396,0.012618
3831.7033,0.012023
3833.5670,0.011296
3835.4306,0.011590
3837.2943,0.011825
3839.1580,0.011572
3841.0216,0.011734
3842.8853,0.012219
3844.7490,0.012613
3846.6126,0.013221
3848.4763,0.013442
3850.3400,0.012370
3852.2037,0.010407
3854.0673,0.008558
3855.9310,0.009451
3857.7947,0.011790
3859.6583,0.012626
3861.5220,0.012718
3863.3857,0.012350
3865.2493,0.011390
3867.1130,0.011448
3868.9767,0.012016
3870.8403,0.011703
3872.7040,0.013128
3874.5677,0.013813
3876.4314,0.013186
3878.2950,0.013594
3880.1587,0.013002
3882.0224,0.012731
3883.8860,0.013514
3885.7497,0.013268
3887.6134,0.013231
3889.4770,0.013707
3891.3407,0.013689
3893.2044,0.013835
3895.0680,0.014159
3896.9317,0.013853
3898.7954,0.012202
3900.6590,0.010890
3902.5227,0.010495
3904.3864,0.010659
3906.2501,0.012673
3908.1137,0.014956
3909.9774,0.014509
3911.8411,0.013476
3913.7047,0.012917
3915.5684,0.012612
3917.4321,0.012617
3919.2957,0.013603
3921.1594,0.013939
3923.0231,0.013508
3924.8867,0.013105
3926.7504,0.013048
3928.6141,0.014248
3930.4777,0.014624
3932.3414,0.013257
3934.2051,0.012851
3936.0688,0.013753
3937.9324,0.014492
3939.7961,0.014219
3941.6598,0.013416
3943.5234,0.013181
3945.3871,0.013857
3947.2508,0.014234
3949.1144,0.013954
3950.9781,0.013567
3952.8418,0.014469
3954.7054,0.015048
3956.5691,0.014555
3958.4328,0.014077
3960.2965,0.014447
3962.1601,0.014405
3964.0238,0.013832
3965.8875,0.013636
3967.7511,0.013720
3969.6148,0.014061
3971.4785,0.014325
3973.3421,0.013817
3975.2058,0.013903
3977.0695,0.014866
3978.9331,0.014392
3980.7968,0.013784
3982.6605,0.014401
3984.5241,0.014864
3986.3878,0.015306
3988.2515,0.014796
3990.1152,0.014034
3991.9788,0.014042
3993.8425,0.014107
3995.7062,0.014317
3997.5698,0.014409
3999.4335,0.014582
