Wavenumber,Intensity
650.4205,0.125329
652.2841,0.122204
654.1478,0.117536
656.0115,0.107611
657.8751,0.093032
659.7388,0.078722
661.6025,0.068123
663.4661,0.060071
665.3298,0.055285
667.1935,0.053534
669.0571,0.052008
670.9208,0.050795
672.7845,0.050467
674.6481,0.049715
676.5118,0.050312
678.3755,0.050387
680.2392,0.050082
682.1028,0.049320
683.9665,0.049945
685.8302,0.051074
687.6938,0.052161
689.5575,0.052634
691.4212,0.052009
693.2848,0.051921
695.1485,0.052322
697.0122,0.052596
698.8758,0.053905
700.7395,0.054381
702.6032,0.054254
704.4669,0.053491
706.3305,0.053300
708.1942,0.052816
710.0579,0.051985
711.9215,0.051125
713.7852,0.050446
715.6489,0.049882
717.5125,0.048630
719.3762,0.047253
721.2399,0.046974
723.1035,0.047038
724.9672,0.045856
726.8309,0.045208
728.6945,0.044862
730.5582,0.043889
732.4219,0.043091
734.2856,0.042780
736.1492,0.042510
738.0129,0.042374
739.8766,0.042790
741.7402,0.043488
743.6039,0.044494
745.4676,0.045546
747.3312,0.045788
749.1949,0.045675
751.0586,0.045953
752.9222,0.045978
754.7859,0.045924
756.6496,0.045818
758.5132,0.045674
760.3769,0.045819
762.2406,0.046044
764.1043,0.046632
765.9679,0.047175
767.8316,0.047034
769.6953,0.047601
771.5589,0.048236
773.4226,0.049075
775.2863,0.049753
777.1499,0.050309
779.0136,0.050940
780.8773,0.051429
782.7409,0.051540
784.6046,0.052119
786.4683,0.052957
788.3320,0.053600
790.1956,0.054238
792.0593,0.055188
793.9230,0.056177
795.7866,0.057608
797.6503,0.059015
799.5140,0.060037
801.3776,0.061082
803.2413,0.062219
805.1050,0.063024
806.9686,0.064269
808.8323,0.065738
810.6960,0.066893
812.5596,0.067536
814.4233,0.067908
816.2870,0.068625
818.1507,0.070309
820.0143,0.072598
821.8780,0.075311
823.7417,0.078683
825.6053,0.083088
827.4690,0.088954
829.3327,0.096144
831.1963,0.103263
833.0600,0.110790
834.9237,0.119599
836.7873,0.127878
838.6510,0.131749
840.5147,0.130572
842.3784,0.126398
844.2420,0.120739
846.1057,0.112223
847.9694,0.097974
849.8330,0.076870
851.6967,0.055132
853.5604,0.039837
855.4240,0.031694
857.2877,0.027837
859.1514,0.026167
861.0150,0.025581
862.8787,0.025833
864.7424,0.026502
866.6060,0.027893
868.4697,0.029572
870.3334,0.031381
872.1971,0.033846
874.0607,0.037027
875.9244,0.041089
877.7881,0.046198
879.6517,0.051993
881.5154,0.058363
883.3791,0.063900
885.2427,0.065342
887.1064,0.060808
888.9701,0.052145
890.8337,0.043097
892.6974,0.036247
894.5611,0.032009
896.4247,0.029922
898.2884,0.029449
900.1521,0.029692
902.0158,0.030352
903.8794,0.031263
905.7431,0.032289
907.6068,0.033580
909.4704,0.035088
911.3341,0.036700
913.1978,0.038523
915.0614,0.040154
916.9251,0.040388
918.7888,0.039122
920.6524,0.037904
922.5161,0.037567
924.3798,0.038284
926.2435,0.039697
928.1071,0.041041
929.9708,0.042392
931.8345,0.044317
933.6981,0.046910
935.5618,0.050172
937.4255,0.054040
939.2891,0.058022
941.1528,0.061118
943.0165,0.062380
944.8801,0.060609
946.7438,0.055440
948.6075,0.049494
950.4711,0.045671
952.3348,0.044078
954.1985,0.043757
956.0622,0.044284
957.9258,0.045264
959.7895,0.046345
961.6532,0.047501
963.5168,0.048869
965.3805,0.050498
967.2442,0.052507
969.1078,0.054940
970.9715,0.057766
972.8352,0.061039
974.6988,0.065316
976.5625,0.071143
978.4262,0.079314
980.2899,0.090019
982.1535,0.100303
984.0172,0.106024
985.8809,0.110720
987.7445,0.117309
989.6082,0.117930
991.4719,0.104436
993.3355,0.081515
995.1992,0.061178
997.0629,0.048781
998.9265,0.042572
1000.7902,0.039720
1002.6539,0.038708
1004.5175,0.038536
1006.3812,0.038719
1008.2449,0.039107
1010.1086,0.039371
1011.9722,0.039800
1013.8359,0.040686
1015.6996,0.041903
1017.5632,0.043518
1019.4269,0.045289
1021.2906,0.047058
1023.1542,0.048771
1025.0179,0.050146
1026.8816,0.051386
1028.7452,0.052877
1030.6089,0.054283
1032.4726,0.055769
1034.3362,0.057391
1036.1999,0.059018
1038.0636,0.060769
1039.9273,0.062589
1041.7909,0.064554
1043.6546,0.066648
1045.5183,0.068802
1047.3819,0.070791
1049.2456,0.072172
1051.1093,0.073127
1052.9729,0.074250
1054.8366,0.075775
1056.7003,0.077803
1058.5639,0.079514
1060.4276,0.078479
1062.2913,0.073417
1064.1550,0.066591
1066.0186,0.061104
1067.8823,0.058112
1069.7460,0.057109
1071.6096,0.057202
1073.4733,0.057753
1075.3370,0.058499
1077.2006,0.059322
1079.0643,0.060270
1080.9280,0.061245
1082.7916,0.062341
1084.6553,0.063587
1086.5190,0.064963
1088.3826,0.066213
1090.2463,0.067408
1092.1100,0.068777
1093.9737,0.070286
1095.8373,0.071897
1097.7010,0.073520
1099.5647,0.075402
1101.4283,0.077325
1103.2920,0.078886
1105.1557,0.080183
1107.0193,0.080955
1108.8830,0.080804
1110.7467,0.079997
1112.6103,0.078854
1114.4740,0.077492
1116.3377,0.076263
1118.2014,0.075407
1120.0650,0.075030
1121.9287,0.075018
1123.7924,0.075360
1125.6560,0.075923
1127.5197,0.076453
1129.3834,0.076405
1131.2470,0.075786
1133.1107,0.074910
1134.9744,0.074059
1136.8380,0.073582
1138.7017,0.073796
1140.5654,0.074715
1142.4290,0.076304
1144.2927,0.078494
1146.1564,0.081503
1148.0201,0.085613
1149.8837,0.090413
1151.7474,0.095088
1153.6111,0.098965
1155.4747,0.100290
1157.3384,0.096233
1159.2021,0.085805
1161.0657,0.072656
1162.9294,0.062125
1164.7931,0.056239
1166.6567,0.053826
1168.5204,0.053241
1170.3841,0.053575
1172.2477,0.054240
1174.1114,0.054777
1175.9751,0.055028
1177.8388,0.055046
1179.7024,0.055149
1181.5661,0.055503
1183.4298,0.056016
1185.2934,0.056505
1187.1571,0.057018
1189.0208,0.057424
1190.8844,0.057712
1192.7481,0.057909
1194.6118,0.058217
1196.4754,0.058638
1198.3391,0.059152
1200.2028,0.059814
1202.0665,0.060485
1203.9301,0.060852
1205.7938,0.060937
1207.6575,0.061009
1209.5211,0.061299
1211.3848,0.061756
1213.2485,0.062352
1215.1121,0.063022
1216.9758,0.063726
1218.8395,0.064430
1220.7031,0.065082
1222.5668,0.065617
1224.4305,0.066372
1226.2941,0.067265
1228.1578,0.068088
1230.0215,0.068810
1231.8852,0.069480
1233.7488,0.070175
1235.6125,0.070955
1237.4762,0.071821
1239.3398,0.072877
1241.2035,0.074129
1243.0672,0.075593
1244.9308,0.077249
1246.7945,0.079090
1248.6582,0.081187
1250.5218,0.083754
1252.3855,0.086985
1254.2492,0.090648
1256.1129,0.094495
1257.9765,0.098389
1259.8402,0.101350
1261.7039,0.101164
1263.5675,0.096575
1265.4312,0.088829
1267.2949,0.080667
1269.1585,0.074959
1271.0222,0.072643
1272.8859,0.072969
1274.7495,0.074727
1276.6132,0.077399
1278.4769,0.080797
1280.3405,0.084913
1282.2042,0.089572
1284.0679,0.094644
1285.9316,0.100685
1287.7952,0.108159
1289.6589,0.116163
1291.5226,0.122817
1293.3862,0.124045
1295.2499,0.116346
1297.1136,0.102831
1298.9772,0.090469
1300.8409,0.083584
1302.7046,0.081851
1304.5682,0.081685
1306.4319,0.079935
1308.2956,0.076640
1310.1592,0.073813
1312.0229,0.072963
1313.8866,0.074330
1315.7503,0.076954
1317.6139,0.080949
1319.4776,0.086035
1321.3413,0.091080
1323.2049,0.096231
1325.0686,0.102470
1326.9323,0.109654
1328.7959,0.117186
1330.6596,0.123332
1332.5233,0.124748
1334.3869,0.119037
1336.2506,0.109511
1338.1143,0.102412
1339.9780,0.100103
1341.8416,0.096854
1343.7053,0.090915
1345.5690,0.084585
1347.4326,0.080375
1349.2963,0.079322
1351.1600,0.080622
1353.0236,0.083330
1354.8873,0.087344
1356.7510,0.091261
1358.6146,0.094413
1360.4783,0.098405
1362.3420,0.105391
1364.2056,0.111589
1366.0693,0.114822
1367.9330,0.120349
1369.7967,0.127633
1371.6603,0.133687
1373.5240,0.142342
1375.3877,0.152342
1377.2513,0.158044
1379.1150,0.164339
1380.9787,0.171420
1382.8423,0.176928
1384.7060,0.179625
1386.5697,0.178984
1388.4333,0.170287
1390.2970,0.156026
1392.1607,0.143216
1394.0244,0.136246
1395.8880,0.138059
1397.7517,0.144300
1399.6154,0.150153
1401.4790,0.146317
1403.3427,0.133750
1405.2064,0.113554
1407.0700,0.096558
1408.9337,0.094441
1410.7974,0.101264
1412.6610,0.105304
1414.5247,0.099924
1416.3884,0.088494
1418.2520,0.075263
1420.1157,0.060129
1421.9794,0.051218
1423.8431,0.047217
1425.7067,0.044666
1427.5704,0.044162
1429.4341,0.044281
1431.2977,0.042460
1433.1614,0.039986
1435.0251,0.040425
1436.8887,0.045820
1438.7524,0.050440
1440.6161,0.053767
1442.4797,0.059960
1444.3434,0.067471
1446.2071,0.074301
1448.0707,0.078089
1449.9344,0.074614
1451.7981,0.068665
1453.6618,0.064608
1455.5254,0.065913
1457.3891,0.079112
1459.2528,0.087546
1461.1164,0.087632
1462.9801,0.089935
1464.8438,0.093137
1466.7074,0.089106
1468.5711,0.081319
1470.4348,0.076141
1472.2984,0.076547
1474.1621,0.079320
1476.0258,0.080481
1477.8895,0.081485
1479.7531,0.082677
1481.6168,0.085691
1483.4805,0.088428
1485.3441,0.090636
1487.2078,0.095203
1489.0715,0.103436
1490.9351,0.111394
1492.7988,0.111950
1494.6625,0.113545
1496.5261,0.121192
1498.3898,0.128986
1500.2535,0.130924
1502.1171,0.130285
1503.9808,0.129135
1505.8445,0.131230
1507.7082,0.133690
1509.5718,0.121277
1511.4355,0.110903
1513.2992,0.100926
1515.1628,0.092396
1517.0265,0.084737
1518.8902,0.077085
1520.7538,0.073932
1522.6175,0.070504
1524.4812,0.067775
1526.3448,0.067232
1528.2085,0.066833
1530.0722,0.065971
1531.9359,0.066787
1533.7995,0.070563
1535.6632,0.071149
1537.5269,0.070458
1539.3905,0.076008
1541.2542,0.087846
1543.1179,0.089899
1544.9815,0.092755
1546.8452,0.094904
1548.7089,0.097677
1550.5725,0.103444
1552.4362,0.107148
1554.2999,0.110648
1556.1635,0.114356
1558.0272,0.122895
1559.8909,0.144397
1561.7546,0.135841
1563.6182,0.131980
1565.4819,0.133035
1567.3456,0.133224
1569.2092,0.134488
1571.0729,0.133282
1572.9366,0.127785
1574.8002,0.124460
1576.6639,0.121129
1578.5276,0.113185
1580.3912,0.106269
1582.2549,0.099795
1584.1186,0.093275
1585.9822,0.087189
1587.8459,0.081726
1589.7096,0.077256
1591.5733,0.073249
1593.4369,0.069928
1595.3006,0.067231
1597.1643,0.064806
1599.0279,0.062745
1600.8916,0.061177
1602.7553,0.060038
1604.6189,0.059159
1606.4826,0.059044
1608.3463,0.059758
1610.2099,0.060636
1612.0736,0.061309
1613.9373,0.062366
1615.8010,0.065612
1617.6646,0.071299
1619.5283,0.073203
1621.3920,0.075368
1623.2556,0.081195
1625.1193,0.086485
1626.9830,0.088916
1628.8466,0.090689
1630.7103,0.088911
1632.5740,0.084914
1634.4376,0.080532
1636.3013,0.073310
1638.1650,0.065162
1640.0286,0.060326
1641.8923,0.056641
1643.7560,0.054126
1645.6197,0.053664
1647.4833,0.054099
1649.3470,0.052383
1651.2107,0.051466
1653.0743,0.052882
1654.9380,0.050415
1656.8017,0.047536
1658.6653,0.046152
1660.5290,0.045006
1662.3927,0.043945
1664.2563,0.042178
1666.1200,0.039975
1667.9837,0.037890
1669.8474,0.034699
1671.7110,0.031063
1673.5747,0.029012
1675.4384,0.027443
1677.3020,0.025711
1679.1657,0.024889
1681.0294,0.024478
1682.8930,0.024492
1684.7567,0.024720
1686.6204,0.023968
1688.4840,0.023656
1690.3477,0.023172
1692.2114,0.022243
1694.0750,0.021421
1695.9387,0.020370
1697.8024,0.019030
1699.6661,0.018588
1701.5297,0.017526
1703.3934,0.016486
1705.2571,0.015736
1707.1207,0.014448
1708.9844,0.013408
1710.8481,0.012678
1712.7117,0.011911
1714.5754,0.011141
1716.4391,0.010590
1718.3027,0.010495
1720.1664,0.010466
1722.0301,0.010420
1723.8937,0.010266
1725.7574,0.009965
1727.6211,0.009603
1729.4848,0.009170
1731.3484,0.008572
1733.2121,0.008146
1735.0758,0.007796
1736.9394,0.007733
1738.8031,0.007866
1740.6668,0.007656
1742.5304,0.007346
1744.3941,0.007218
1746.2578,0.007174
1748.1214,0.007140
1749.9851,0.007048
1751.8488,0.006983
1753.7125,0.006862
1755.5761,0.006793
1757.4398,0.006719
1759.3035,0.006715
1761.1671,0.006853
1763.0308,0.006853
1764.8945,0.006765
1766.7581,0.006734
1768.6218,0.006546
1770.4855,0.006397
1772.3491,0.006429
1774.2128,0.006194
1776.0765,0.006188
1777.9401,0.006507
1779.8038,0.006643
1781.6675,0.006546
1783.5312,0.006681
1785.3948,0.006924
1787.2585,0.006858
1789.1222,0.006625
1790.9858,0.006586
1792.8495,0.006801
1794.7132,0.006680
1796.5768,0.006537
1798.4405,0.006701
1800.3042,0.006765
1802.1678,0.006598
1804.0315,0.006621
1805.8952,0.006883
1807.7589,0.006783
1809.6225,0.006514
1811.4862,0.006657
1813.3499,0.006738
1815.2135,0.006559
1817.0772,0.006549
1818.9409,0.006718
1820.8045,0.006844
1822.6682,0.006905
1824.5319,0.006969
1826.3955,0.006970
1828.2592,0.006871
1830.1229,0.006997
1831.9865,0.007154
1833.8502,0.007250
1835.7139,0.007345
1837.5776,0.007190
1839.4412,0.006961
1841.3049,0.006905
1843.1686,0.006864
1845.0322,0.006797
1846.8959,0.006728
1848.7596,0.006641
1850.6232,0.006448
1852.4869,0.006491
1854.3506,0.006765
1856.2142,0.007008
1858.0779,0.006995
1859.9416,0.006769
1861.8052,0.006709
1863.6689,0.006856
1865.5326,0.007039
1867.3963,0.007135
1869.2599,0.007250
1871.1236,0.007166
1872.9873,0.007086
1874.8509,0.007168
1876.7146,0.007068
1878.5783,0.006915
1880.4419,0.006730
1882.3056,0.006802
1884.1693,0.007341
1886.0329,0.007509
1887.8966,0.006855
1889.7603,0.006584
1891.6240,0.006734
1893.4876,0.006555
1895.3513,0.006288
1897.2150,0.006394
1899.0786,0.006897
1900.9423,0.007266
1902.8060,0.007135
1904.6696,0.007128
1906.5333,0.007453
1908.3970,0.007487
1910.2606,0.007196
1912.1243,0.007066
1913.9880,0.006904
1915.8516,0.007236
1917.7153,0.007635
1919.5790,0.007165
1921.4427,0.006514
1923.3063,0.006417
1925.1700,0.006861
1927.0337,0.007153
1928.8973,0.007248
1930.7610,0.006853
1932.6247,0.006341
1934.4883,0.006478
1936.3520,0.006417
1938.2157,0.006250
1940.0793,0.006457
1941.9430,0.006930
1943.8067,0.006441
1945.6704,0.005879
1947.5340,0.005951
1949.3977,0.006106
1951.2614,0.006486
1953.1250,0.006494
1954.9887,0.006113
1956.8524,0.005901
1958.7160,0.005386
1960.5797,0.005353
1962.4434,0.005340
1964.3070,0.005113
1966.1707,0.004921
1968.0344,0.004526
1969.8980,0.004041
1971.7617,0.004579
1973.6254,0.004553
1975.4891,0.003595
1977.3527,0.003787
1979.2164,0.004035
1981.0801,0.003403
1982.9437,0.002862
1984.8074,0.003600
1986.6711,0.004898
1988.5347,0.004829
1990.3984,0.004743
1992.2621,0.005565
1994.1257,0.005750
1995.9894,0.005660
1997.8531,0.005798
1999.7167,0.005595
2001.5804,0.005870
2003.4441,0.006053
2005.3078,0.005518
2007.1714,0.005782
2009.0351,0.006370
2010.8988,0.005385
2012.7624,0.004353
2014.6261,0.004729
2016.4898,0.004782
2018.3534,0.004311
2020.2171,0.004496
2022.0808,0.005239
2023.9444,0.005189
2025.8081,0.003982
2027.6718,0.004287
2029.5355,0.005522
2031.3991,0.005552
2033.2628,0.006375
2035.1265,0.007205
2036.9901,0.006585
2038.8538,0.007114
2040.7175,0.007427
2042.5811,0.007305
2044.4448,0.007196
2046.3085,0.007282
2048.1721,0.008581
2050.0358,0.009889
2051.8995,0.010085
2053.7631,0.009656
2055.6268,0.009412
2057.4905,0.009605
2059.3542,0.009407
2061.2178,0.009739
2063.0815,0.010208
2064.9452,0.010113
2066.8088,0.009735
2068.6725,0.010122
2070.5362,0.011939
2072.3998,0.012637
2074.2635,0.011476
2076.1272,0.011132
2077.9908,0.011515
2079.8545,0.011716
2081.7182,0.011701
2083.5819,0.011667
2085.4455,0.011958
2087.3092,0.011633
2089.1729,0.011019
2091.0365,0.011456
2092.9002,0.012199
2094.7639,0.012350
2096.6275,0.012335
2098.4912,0.012831
2100.3549,0.013211
2102.2185,0.013176
2104.0822,0.013509
2105.9459,0.014016
2107.8095,0.014182
2109.6732,0.013982
2111.5369,0.013716
2113.4006,0.014024
2115.2642,0.014532
2117.1279,0.014712
2118.9916,0.014871
2120.8552,0.014914
2122.7189,0.014845
2124.5826,0.014360
2126.4462,0.013594
2128.3099,0.013750
2130.1736,0.013529
2132.0372,0.013786
2133.9009,0.015558
2135.7646,0.015865
2137.6282,0.014693
2139.4919,0.014633
2141.3556,0.015491
2143.2193,0.015691
2145.0829,0.014319
2146.9466,0.013936
2148.8103,0.014329
2150.6739,0.014108
2152.5376,0.014054
2154.4013,0.012352
2156.2649,0.012099
2158.1286,0.015471
2159.9923,0.017182
2161.8559,0.015976
2163.7196,0.015860
2165.5833,0.017552
2167.4470,0.017594
2169.3106,0.016935
2171.1743,0.016517
2173.0380,0.017323
2174.9016,0.019547
2176.7653,0.019923
2178.6290,0.018520
2180.4926,0.019474
2182.3563,0.022075
2184.2200,0.023119
2186.0836,0.023259
2187.9473,0.023727
2189.8110,0.024291
2191.6746,0.024661
2193.5383,0.023969
2195.4020,0.024376
2197.2657,0.025981
2199.1293,0.026108
2200.9930,0.025994
2202.8567,0.026241
2204.7203,0.025829
2206.5840,0.025376
2208.4477,0.025712
2210.3113,0.025505
2212.1750,0.024451
2214.0387,0.023926
2215.9023,0.023945
2217.7660,0.024284
2219.6297,0.024168
2221.4934,0.023713
2223.3570,0.022728
2225.2207,0.021475
2227.0844,0.021217
2228.9480,0.020614
2230.8117,0.020042
2232.6754,0.020593
2234.5390,0.021089
2236.4027,0.021556
2238.2664,0.021602
2240.1300,0.020590
2241.9937,0.020088
2243.8574,0.020848
2245.7210,0.020610
2247.5847,0.019947
2249.4484,0.020190
2251.3121,0.020582
2253.1757,0.020623
2255.0394,0.020292
2256.9031,0.019120
2258.7667,0.018443
2260.6304,0.018825
2262.4941,0.018498
2264.3577,0.018435
2266.2214,0.018908
2268.0851,0.018851
2269.9487,0.018928
2271.8124,0.019464
2273.6761,0.019889
2275.5397,0.019343
2277.4034,0.018752
2279.2671,0.018609
2281.1308,0.018716
2282.9944,0.018899
2284.8581,0.018928
2286.7218,0.018830
2288.5854,0.018533
2290.4491,0.018413
2292.3128,0.018560
2294.1764,0.018490
2296.0401,0.018590
2297.9038,0.018908
2299.7674,0.018805
2301.6311,0.018753
2303.4948,0.018853
2305.3585,0.018623
2307.2221,0.018661
2309.0858,0.019044
2310.9495,0.019358
2312.8131,0.019385
2314.6768,0.019387
2316.5405,0.019737
2318.4041,0.020016
2320.2678,0.019810
2322.1315,0.020080
2323.9951,0.020599
2325.8588,0.020350
2327.7225,0.020025
2329.5861,0.019786
2331.4498,0.019434
2333.3135,0.019497
2335.1772,0.019581
2337.0408,0.019530
2338.9045,0.019588
2340.7682,0.020008
2342.6318,0.020339
2344.4955,0.020501
2346.3592,0.020596
2348.2228,0.020233
2350.0865,0.019791
2351.9502,0.019693
2353.8138,0.019949
2355.6775,0.020370
2357.5412,0.020611
2359.4049,0.020829
2361.2685,0.021044
2363.1322,0.021314
2364.9959,0.021496
2366.8595,0.021418
2368.7232,0.021581
2370.5869,0.021896
2372.4505,0.022225
2374.3142,0.022626
2376.1779,0.022752
2378.0415,0.022795
2379.9052,0.023048
2381.7689,0.023034
2383.6325,0.023115
2385.4962,0.023423
2387.3599,0.023520
2389.2236,0.023858
2391.0872,0.024295
2392.9509,0.024494
2394.8146,0.024748
2396.6782,0.025070
2398.5419,0.025206
2400.4056,0.025097
2402.2692,0.025131
2404.1329,0.025355
2405.9966,0.025591
2407.8602,0.026159
2409.7239,0.027049
2411.5876,0.027256
2413.4512,0.026952
2415.3149,0.027061
2417.1786,0.027168
2419.0423,0.027325
2420.9059,0.027537
2422.7696,0.027808
2424.6333,0.028099
2426.4969,0.028175
2428.3606,0.028262
2430.2243,0.028592
2432.0879,0.028842
2433.9516,0.028843
2435.8153,0.028808
2437.6789,0.029144
2439.5426,0.029690
2441.4063,0.029887
2443.2700,0.029929
2445.1336,0.030282
2446.9973,0.030876
2448.8610,0.031224
2450.7246,0.031237
2452.5883,0.031388
2454.4520,0.031566
2456.3156,0.031593
2458.1793,0.031578
2460.0430,0.031842
2461.9066,0.032202
2463.7703,0.032391
2465.6340,0.032527
2467.4976,0.032897
2469.3613,0.033552
2471.2250,0.033484
2473.0887,0.033316
2474.9523,0.033944
2476.8160,0.034457
2478.6797,0.034598
2480.5433,0.034636
2482.4070,0.035062
2484.2707,0.035514
2486.1343,0.035364
2487.9980,0.034977
2489.8617,0.034849
2491.7253,0.035289
2493.5890,0.035769
2495.4527,0.035777
2497.3164,0.035644
2499.1800,0.035554
2501.0437,0.035588
2502.9074,0.035902
2504.7710,0.035796
2506.6347,0.035201
2508.4984,0.035241
2510.3620,0.035659
2512.2257,0.035653
2514.0894,0.035587
2515.9530,0.036075
2517.8167,0.036305
2519.6804,0.036162
2521.5440,0.036527
2523.4077,0.036961
2525.2714,0.037377
2527.1351,0.037581
2528.9987,0.037487
2530.8624,0.037528
2532.7261,0.038030
2534.5897,0.038526
2536.4534,0.038807
2538.3171,0.039227
2540.1807,0.039816
2542.0444,0.040834
2543.9081,0.041288
2545.7717,0.040987
2547.6354,0.041358
2549.4991,0.042146
2551.3627,0.042125
2553.2264,0.041819
2555.0901,0.042215
2556.9538,0.042641
2558.8174,0.042602
2560.6811,0.042487
2562.5448,0.042596
2564.4084,0.042731
2566.2721,0.042910
2568.1358,0.043327
2569.9994,0.043396
2571.8631,0.043471
2573.7268,0.043954
2575.5904,0.044317
2577.4541,0.044254
2579.3178,0.044218
2581.1815,0.044845
2583.0451,0.045362
2584.9088,0.045603
2586.7725,0.046052
2588.6361,0.046277
2590.4998,0.046684
2592.3635,0.047728
2594.2271,0.048685
2596.0908,0.048961
2597.9545,0.048971
2599.8181,0.049447
2601.6818,0.050435
2603.5455,0.051418
2605.4091,0.052047
2607.2728,0.052438
2609.1365,0.052560
2611.0002,0.052488
2612.8638,0.052581
2614.7275,0.053152
2616.5912,0.053459
2618.4548,0.053300
2620.3185,0.053404
2622.1822,0.053350
2624.0458,0.053128
2625.9095,0.053176
2627.7732,0.053284
2629.6368,0.053489
2631.5005,0.053650
2633.3642,0.053653
2635.2279,0.053525
2637.0915,0.053389
2638.9552,0.053418
2640.8189,0.053319
2642.6825,0.052898
2644.5462,0.052284
2646.4099,0.051696
2648.2735,0.050993
2650.1372,0.050098
2652.0009,0.049512
2653.8645,0.049143
2655.7282,0.048806
2657.5919,0.048485
2659.4555,0.047936
2661.3192,0.047439
2663.1829,0.047152
2665.0466,0.047049
2666.9102,0.046966
2668.7739,0.046835
2670.6376,0.046931
2672.5012,0.047006
2674.3649,0.047042
2676.2286,0.047321
2678.0922,0.047965
2679.9559,0.048718
2681.8196,0.049188
2683.6832,0.049501
2685.5469,0.049971
2687.4106,0.050564
2689.2742,0.051057
2691.1379,0.051651
2693.0016,0.052424
2694.8653,0.052826
2696.7289,0.053039
2698.5926,0.053579
2700.4563,0.054123
2702.3199,0.054361
2704.1836,0.054696
2706.0473,0.054916
2707.9109,0.054815
2709.7746,0.054928
2711.6383,0.055087
2713.5019,0.055035
2715.3656,0.055278
2717.2293,0.055613
2719.0930,0.055533
2720.9566,0.055305
2722.8203,0.055322
2724.6840,0.055476
2726.5476,0.055700
2728.4113,0.056153
2730.2750,0.056579
2732.1386,0.056494
2734.0023,0.056335
2735.8660,0.056410
2737.7296,0.056523
2739.5933,0.056755
2741.4570,0.057058
2743.3206,0.057172
2745.1843,0.057001
2747.0480,0.056736
2748.9117,0.056839
2750.7753,0.057240
2752.6390,0.057435
2754.5027,0.057405
2756.3663,0.057509
2758.2300,0.057713
2760.0937,0.057959
2761.9573,0.058174
2763.8210,0.058500
2765.6847,0.058599
2767.5483,0.058565
2769.4120,0.058646
2771.2757,0.058538
2773.1394,0.058463
2775.0030,0.058914
2776.8667,0.059514
2778.7304,0.059536
2780.5940,0.059168
2782.4577,0.059173
2784.3214,0.059177
2786.1850,0.058847
2788.0487,0.058436
2789.9124,0.058109
2791.7760,0.057982
2793.6397,0.057652
2795.5034,0.057014
2797.3670,0.056451
2799.2307,0.056009
2801.0944,0.055735
2802.9581,0.055547
2804.8217,0.055275
2806.6854,0.054999
2808.5491,0.055097
2810.4127,0.055026
2812.2764,0.054706
2814.1401,0.054642
2816.0037,0.054704
2817.8674,0.055037
2819.7311,0.055484
2821.5947,0.055463
2823.4584,0.055488
2825.3221,0.055792
2827.1857,0.055887
2829.0494,0.055829
2830.9131,0.055936
2832.7768,0.055897
2834.6404,0.055825
2836.5041,0.056330
2838.3678,0.057027
2840.2314,0.057685
2842.0951,0.058394
2843.9588,0.058702
2845.8224,0.058616
2847.6861,0.058607
2849.5498,0.059125
2851.4134,0.059794
2853.2771,0.060177
2855.1408,0.060444
2857.0045,0.060798
2858.8681,0.061080
2860.7318,0.061117
2862.5955,0.061286
2864.4591,0.061410
2866.3228,0.061419
2868.1865,0.061587
2870.0501,0.061687
2871.9138,0.061700
2873.7775,0.061456
2875.6411,0.061378
2877.5048,0.061416
2879.3685,0.061109
2881.2321,0.060780
2883.0958,0.060632
2884.9595,0.060162
2886.8232,0.059588
2888.6868,0.059204
2890.5505,0.058821
2892.4142,0.058370
2894.2778,0.058073
2896.1415,0.057907
2898.0052,0.057576
2899.8688,0.056986
2901.7325,0.056958
2903.5962,0.057216
2905.4598,0.057370
2907.3235,0.057502
2909.1872,0.057470
2911.0509,0.057584
2912.9145,0.057819
2914.7782,0.057213
2916.6419,0.056471
2918.5055,0.056463
2920.3692,0.057020
2922.2329,0.057553
2924.0965,0.057968
2925.9602,0.058536
2927.8239,0.059160
2929.6875,0.060185
2931.5512,0.060697
2933.4149,0.059435
2935.2785,0.057605
2937.1422,0.056586
2939.0059,0.056377
2940.8696,0.056482
2942.7332,0.056756
2944.5969,0.057022
2946.4606,0.057136
2948.3242,0.057073
2950.1879,0.056760
2952.0516,0.056453
2953.9152,0.056385
2955.7789,0.055954
2957.6426,0.055486
2959.5062,0.055598
2961.3699,0.055275
2963.2336,0.054452
2965.0972,0.054245
2966.9609,0.054073
2968.8246,0.053874
2970.6883,0.053662
2972.5519,0.052769
2974.4156,0.052017
2976.2793,0.052113
2978.1429,0.052386
2980.0066,0.052585
2981.8703,0.052685
2983.7339,0.052311
2985.5976,0.051883
2987.4613,0.052034
2989.3249,0.051849
2991.1886,0.051315
2993.0523,0.051149
2994.9160,0.051353
2996.7796,0.051176
2998.6433,0.050828
3000.5070,0.050519
3002.3706,0.050010
3004.2343,0.049909
3006.0980,0.050429
3007.9616,0.050536
3009.8253,0.050550
3011.6890,0.051078
3013.5526,0.051564
3015.4163,0.051444
3017.2800,0.050949
3019.1436,0.050686
3021.0073,0.050397
3022.8710,0.049702
3024.7347,0.048801
3026.5983,0.048474
3028.4620,0.048337
3030.3257,0.048026
3032.1893,0.048041
3034.0530,0.047526
3035.9167,0.046630
3037.7803,0.045983
3039.6440,0.045706
3041.5077,0.045856
3043.3713,0.045676
3045.2350,0.045081
3047.0987,0.044759
3048.9624,0.044292
3050.8260,0.043975
3052.6897,0.043940
3054.5534,0.043553
3056.4170,0.043076
3058.2807,0.042836
3060.1444,0.042380
3062.0080,0.041958
3063.8717,0.041535
3065.7354,0.041248
3067.5990,0.040794
3069.4627,0.040472
3071.3264,0.040291
3073.1900,0.040161
3075.0537,0.039672
3076.9174,0.038777
3078.7811,0.038519
3080.6447,0.038208
3082.5084,0.037397
3084.3721,0.037209
3086.2357,0.036963
3088.0994,0.036414
3089.9631,0.035825
3091.8267,0.035308
3093.6904,0.034517
3095.5541,0.033363
3097.4177,0.032724
3099.2814,0.032810
3101.1451,0.032567
3103.0087,0.031695
3104.8724,0.030296
3106.7361,0.029811
3108.5998,0.029996
3110.4634,0.029800
3112.3271,0.029154
3114.1908,0.028288
3116.0544,0.027530
3117.9181,0.027446
3119.7818,0.027531
3121.6454,0.027139
3123.5091,0.027024
3125.3728,0.026335
3127.2364,0.024957
3129.1001,0.024971
3130.9638,0.025518
3132.8275,0.024857
3134.6911,0.023846
3136.5548,0.023184
3138.4185,0.023121
3140.2821,0.023936
3142.1458,0.023853
3144.0095,0.022854
3145.8731,0.021931
3147.7368,0.021263
3149.6005,0.021233
3151.4641,0.021476
3153.3278,0.021492
3155.1915,0.021665
3157.0551,0.021395
3158.9188,0.020790
3160.7825,0.020611
3162.6462,0.020316
3164.5098,0.019599
3166.3735,0.019224
3168.2372,0.019143
3170.1008,0.018932
3171.9645,0.018370
3173.8282,0.017860
3175.6918,0.017809
3177.5555,0.017653
3179.4192,0.017003
3181.2828,0.017205
3183.1465,0.017715
3185.0102,0.017225
3186.8739,0.016853
3188.7375,0.016592
3190.6012,0.016128
3192.4649,0.015918
3194.3285,0.015771
3196.1922,0.016114
3198.0559,0.016086
3199.9195,0.015725
3201.7832,0.015925
3203.6469,0.016736
3205.5105,0.016732
3207.3742,0.015594
3209.2379,0.014974
3211.1015,0.015863
3212.9652,0.016142
3214.8289,0.015360
3216.6926,0.015204
3218.5562,0.015263
3220.4199,0.014964
3222.2836,0.015240
3224.1472,0.015356
3226.0109,0.015672
3227.8746,0.015910
3229.7382,0.015234
3231.6019,0.014715
3233.4656,0.015210
3235.3292,0.015244
3237.1929,0.014919
3239.0566,0.014659
3240.9202,0.014353
3242.7839,0.013959
3244.6476,0.013701
3246.5113,0.013740
3248.3749,0.014622
3250.2386,0.015227
3252.1023,0.015020
3253.9659,0.015020
3255.8296,0.015058
3257.6933,0.015203
3259.5569,0.015183
3261.4206,0.014454
3263.2843,0.014277
3265.1479,0.014409
3267.0116,0.014187
3268.8753,0.013814
3270.7390,0.014285
3272.6026,0.014787
3274.4663,0.014703
3276.3300,0.014995
3278.1936,0.014908
3280.0573,0.014357
3281.9210,0.014138
3283.7846,0.013978
3285.6483,0.014554
3287.5120,0.014632
3289.3756,0.014106
3291.2393,0.013757
3293.1030,0.013808
3294.9666,0.013863
3296.8303,0.013442
3298.6940,0.012469
3300.5577,0.012259
3302.4213,0.012607
3304.2850,0.012458
3306.1487,0.012038
3308.0123,0.011586
3309.8760,0.011783
3311.7397,0.012420
3313.6033,0.012949
3315.4670,0.012505
3317.3307,0.011722
3319.1943,0.011468
3321.0580,0.011829
3322.9217,0.012408
3324.7854,0.011699
3326.6490,0.011346
3328.5127,0.011940
3330.3764,0.012262
3332.2400,0.011621
3334.1037,0.011416
3335.9674,0.011350
3337.8310,0.011184
3339.6947,0.011633
3341.5584,0.012050
3343.4220,0.011771
3345.2857,0.010890
3347.1494,0.010381
3349.0130,0.010928
3350.8767,0.010556
3352.7404,0.010418
3354.6041,0.009811
3356.4677,0.008010
3358.3314,0.008193
3360.1951,0.009453
3362.0587,0.009538
3363.9224,0.009827
3365.7861,0.009618
3367.6497,0.008910
3369.5134,0.008707
3371.3771,0.008385
3373.2407,0.007752
3375.1044,0.008060
3376.9681,0.008677
3378.8317,0.008547
3380.6954,0.008617
3382.5591,0.008989
3384.4228,0.008538
3386.2864,0.007961
3388.1501,0.007416
3390.0138,0.007424
3391.8774,0.007790
3393.7411,0.007655
3395.6048,0.007830
3397.4684,0.009092
3399.3321,0.008581
3401.1958,0.007893
3403.0594,0.008704
3404.9231,0.008465
3406.7868,0.007164
3408.6505,0.007067
3410.5141,0.007042
3412.3778,0.007121
3414.2415,0.007433
3416.1051,0.006707
3417.9688,0.006204
3419.8325,0.005852
3421.6961,0.004978
3423.5598,0.004478
3425.4235,0.004393
3427.2871,0.004792
3429.1508,0.004651
3431.0145,0.004610
3432.8781,0.004720
3434.7418,0.003770
3436.6055,0.002996
3438.4692,0.004360
3440.3328,0.005461
3442.1965,0.005667
3444.0602,0.003105
3445.9238,0.002769
3447.7875,0.004933
3449.6512,0.003905
3451.5148,0.003151
3453.3785,0.002921
3455.2422,0.002265
3457.1058,0.002947
3458.9695,0.002803
3460.8332,0.001864
3462.6969,0.001214
3464.5605,0.001963
3466.4242,0.002253
3468.2879,0.002411
3470.1515,0.002619
3472.0152,0.002546
3473.8789,0.002852
3475.7425,0.002136
3477.6062,0.001903
3479.4699,0.001921
3481.3335,0.000980
3483.1972,0.001184
3485.0609,0.002535
3486.9245,0.002844
3488.7882,0.001542
3490.6519,0.001267
3492.5156,0.001761
3494.3792,0.002831
3496.2429,0.002008
3498.1066,0.001117
3499.9702,0.001905
3501.8339,0.001686
3503.6976,0.001142
3505.5612,0.000662
3507.4249,0.000232
3509.2886,0.000860
3511.1522,0.001130
3513.0159,-0.000106
3514.8796,-0.000340
3516.7432,0.000872
3518.6069,0.000496
3520.4706,0.000371
3522.3343,0.000925
3524.1979,0.000826
3526.0616,0.001145
3527.9253,0.001703
3529.7889,0.001464
3531.6526,0.000518
3533.5163,-0.000630
3535.3799,-0.000580
3537.2436,0.000406
3539.1073,0.001492
3540.9709,0.001571
3542.8346,0.000606
3544.6983,-0.001228
3546.5620,-0.001505
3548.4256,0.000172
3550.2893,0.000578
3552.1530,0.000300
3554.0166,0.000403
3555.8803,-0.000159
3557.7440,-0.000502
3559.6076,0.000292
3561.4713,0.000792
3563.3350,0.000030
3565.1986,-0.000864
3567.0623,-0.002340
3568.9260,-0.003784
3570.7896,-0.002566
3572.6533,-0.000864
3574.5170,-0.000490
3576.3807,-0.000041
3578.2443,-0.000298
3580.1080,-0.000210
3581.9717,0.001422
3583.8353,0.002806
3585.6990,0.001738
3587.5627,-0.002139
3589.4263,-0.003401
3591.2900,0.000024
3593.1537,0.000940
3595.0173,-0.000295
3596.8810,-0.001405
3598.7447,-0.000729
3600.6084,0.000074
3602.4720,0.000879
3604.3357,0.000780
3606.1994,0.000668
3608.0630,0.000505
3609.9267,0.000027
3611.7904,0.000219
3613.6540,-0.000008
3615.5177,-0.001040
3617.3814,-0.001006
3619.2450,0.000187
3621.1087,-0.000531
3622.9724,-0.001805
3624.8360,-0.000501
3626.6997,0.000538
3628.5634,0.000313
3630.4271,-0.000992
3632.2907,-0.001690
3634.1544,-0.000898
3636.0181,-0.000141
3637.8817,0.001331
3639.7454,0.001781
3641.6091,0.001179
3643.4727,0.001368
3645.3364,0.001536
3647.2001,0.001280
3649.0637,-0.000679
3650.9274,-0.002794
3652.7911,-0.002262
3654.6547,-0.000476
3656.5184,0.001306
3658.3821,0.001651
3660.2458,0.000961
3662.1094,0.001318
3663.9731,0.001266
3665.8368,0.001337
3667.7004,0.001797
3669.5641,0.001663
3671.4278,0.000192
3673.2914,-0.000778
3675.1551,-0.000728
3677.0188,-0.001304
3678.8824,-0.000904
3680.7461,0.001033
3682.6098,0.001773
3684.4735,0.002357
3686.3371,0.002363
3688.2008,0.000679
3690.0645,-0.001914
3691.9281,-0.002221
3693.7918,-0.000066
3695.6555,0.002048
3697.5191,0.002373
3699.3828,0.001835
3701.2465,0.001858
3703.1101,0.001515
3704.9738,0.001024
3706.8375,0.001251
3708.7011,0.001807
3710.5648,0.001824
3712.4285,-0.000091
3714.2922,-0.000476
3716.1558,0.000704
3718.0195,0.002089
3719.8832,0.003013
3721.7468,0.002065
3723.6105,0.001040
3725.4742,0.000713
3727.3378,0.000245
3729.2015,0.000084
3731.0652,0.000731
3732.9288,0.000926
3734.7925,-0.000198
3736.6562,-0.001419
3738.5199,-0.000728
3740.3835,0.000737
3742.2472,0.000757
3744.1109,0.000399
3745.9745,-0.000264
3747.8382,-0.001021
3749.7019,-0.001159
3751.5655,-0.002537
3753.4292,-0.002111
3755.2929,0.000282
3757.1565,0.001063
3759.0202,0.000837
3760.8839,0.000517
3762.7475,0.000601
3764.6112,0.001107
3766.4749,0.001603
3768.3386,0.001678
3770.2022,0.001210
3772.0659,0.000836
3773.9296,0.002062
3775.7932,0.002983
3777.6569,0.002484
3779.5206,0.001588
3781.3842,0.001259
3783.2479,0.001627
3785.1116,0.002271
3786.9752,0.002495
3788.8389,0.002267
3790.7026,0.001730
3792.5662,0.002039
3794.4299,0.002762
3796.2936,0.002769
3798.1573,0.001621
3800.0209,0.000589
3801.8846,0.000212
3803.7483,-0.000612
3805.6119,0.000649
3807.4756,0.002370
3809.3393,0.001814
3811.2029,0.001699
3813.0666,0.002505
3814.9303,0.002357
3816.7939,0.001259
3818.6576,-0.000175
3820.5213,0.000310
3822.3850,0.000708
3824.2486,-0.000523
3826.1123,0.000829
3827.9760,0.002418
3829.8396,0.002574
3831.7033,0.002300
3833.5670,0.001852
3835.4306,0.000951
3837.2943,0.001107
3839.1580,0.000859
3841.0216,0.000541
3842.8853,0.001029
3844.7490,0.001470
3846.6126,0.001049
3848.4763,0.001433
3850.3400,0.002057
3852.2037,0.001568
3854.0673,-0.000420
3855.9310,-0.001911
3857.7947,-0.000323
3859.6583,0.001903
3861.5220,0.002931
3863.3857,0.002016
3865.2493,0.000768
3867.1130,0.000469
3868.9767,0.001190
3870.8403,0.000923
3872.7040,-0.000789
3874.5677,0.000337
3876.4314,0.001822
3878.2950,0.002205
3880.1587,0.002391
3882.0224,0.001765
3883.8860,0.000918
3885.7497,0.001347
3887.6134,0.001415
3889.4770,0.001920
3891.3407,0.001743
3893.2044,0.001385
3895.0680,0.002185
3896.9317,0.002754
3898.7954,0.002302
3900.6590,0.001871
3902.5227,0.001537
3904.3864,0.001304
3906.2501,0.000949
3908.1137,0.001236
3909.9774,0.002042
3911.8411,0.002213
3913.7047,0.002294
3915.5684,0.002353
3917.4321,0.001896
3919.2957,0.002296
3921.1594,0.002752
3923.0231,0.002522
3924.8867,0.002587
3926.7504,0.002651
3928.6141,0.002489
3930.4777,0.002761
3932.3414,0.002575
3934.2051,0.002284
3936.0688,0.003087
3937.9324,0.003487
3939.7961,0.002974
3941.6598,0.002681
3943.5234,0.002326
3945.3871,0.001962
3947.2508,0.002804
3949.1144,0.003391
3950.9781,0.002495
3952.8418,0.002659
3954.7054,0.002730
3956.5691,0.002036
3958.4328,0.001968
3960.2965,0.002659
3962.1601,0.002561
3964.0238,0.002879
3965.8875,0.002892
3967.7511,0.002578
3969.6148,0.002607
3971.4785,0.002918
3973.3421,0.002828
3975.2058,0.003014
3977.0695,0.002625
3978.9331,0.002846
3980.7968,0.002977
3982.6605,0.002758
3984.5241,0.002600
3986.3878,0.003268
3988.2515,0.003241
3990.1152,0.002965
3991.9788,0.002675
3993.8425,0.002990
3995.7062,0.003667
3997.5698,0.003992
3999.4335,0.003914
