Wavenumber,Intensity
650.4205,0.105808
652.2841,0.107044
654.1478,0.110199
656.0115,0.113110
657.8751,0.117641
659.7388,0.122583
661.6025,0.129479
663.4661,0.135719
665.3298,0.141231
667.1935,0.147922
669.0571,0.149706
670.9208,0.138588
672.7845,0.125705
674.6481,0.114972
676.5118,0.107112
678.3755,0.100252
680.2392,0.096212
682.1028,0.092986
683.9665,0.090367
685.8302,0.089662
687.6938,0.088785
689.5575,0.088000
691.4212,0.089118
693.2848,0.090561
695.1485,0.090560
697.0122,0.090545
698.8758,0.092231
700.7395,0.094604
702.6032,0.096598
704.4669,0.098676
706.3305,0.103142
708.1942,0.106837
710.0579,0.108592
711.9215,0.108777
713.7852,0.107248
715.6489,0.102374
717.5125,0.091458
719.3762,0.079509
721.2399,0.072387
723.1035,0.068721
724.9672,0.066192
726.8309,0.064715
728.6945,0.063528
730.5582,0.062628
732.4219,0.062197
734.2856,0.062020
736.1492,0.062190
738.0129,0.062342
739.8766,0.063214
741.7402,0.065569
743.6039,0.068213
745.4676,0.071047
747.3312,0.074047
749.1949,0.075975
751.0586,0.076562
752.9222,0.076476
754.7859,0.075823
756.6496,0.074499
758.5132,0.074091
760.3769,0.075675
762.2406,0.078752
764.1043,0.083391
765.9679,0.089373
767.8316,0.093364
769.6953,0.091869
771.5589,0.087658
773.4226,0.086517
775.2863,0.085835
777.1499,0.079428
779.0136,0.071032
780.8773,0.066258
782.7409,0.064124
784.6046,0.062346
786.4683,0.061083
788.3320,0.060015
790.1956,0.059572
792.0593,0.060252
793.9230,0.061213
795.7866,0.061954
797.6503,0.063636
799.5140,0.065687
801.3776,0.065457
803.2413,0.063444
805.1050,0.061767
806.9686,0.060706
808.8323,0.060524
810.6960,0.061059
812.5596,0.061608
814.4233,0.062376
816.2870,0.063887
818.1507,0.065974
820.0143,0.069038
821.8780,0.073012
823.7417,0.075429
825.6053,0.074959
827.4690,0.074043
829.3327,0.075938
831.1963,0.080826
833.0600,0.083333
834.9237,0.078812
836.7873,0.071899
838.6510,0.068748
840.5147,0.070504
842.3784,0.076058
844.2420,0.083583
846.1057,0.089098
847.9694,0.088027
849.8330,0.079343
851.6967,0.068503
853.5604,0.060755
855.4240,0.056718
857.2877,0.054709
859.1514,0.053346
861.0150,0.052625
862.8787,0.052825
864.7424,0.053478
866.6060,0.054190
868.4697,0.055074
870.3334,0.056432
872.1971,0.057307
874.0607,0.057090
875.9244,0.056647
877.7881,0.056594
879.6517,0.057069
881.5154,0.057848
883.3791,0.058850
885.2427,0.060503
887.1064,0.062509
888.9701,0.063852
890.8337,0.063335
892.6974,0.061973
894.5611,0.062008
896.4247,0.063839
898.2884,0.066798
900.1521,0.069792
902.0158,0.070577
903.8794,0.068762
905.7431,0.066675
907.6068,0.066619
909.4704,0.069245
911.3341,0.073732
913.1978,0.079306
915.0614,0.084756
916.9251,0.087236
918.7888,0.086113
920.6524,0.084666
922.5161,0.084208
924.3798,0.082397
926.2435,0.078350
928.1071,0.074134
929.9708,0.071389
931.8345,0.070043
933.6981,0.069700
935.5618,0.070575
937.4255,0.073030
939.2891,0.077410
941.1528,0.083315
943.0165,0.088021
944.8801,0.088412
946.7438,0.085350
948.6075,0.081117
950.4711,0.076535
952.3348,0.073598
954.1985,0.073522
956.0622,0.075442
957.9258,0.078554
959.7895,0.082456
961.6532,0.086738
963.5168,0.089898
965.3805,0.091286
967.2442,0.092344
969.1078,0.094314
970.9715,0.097015
972.8352,0.100170
974.6988,0.104132
976.5625,0.108980
978.4262,0.114871
980.2899,0.121748
982.1535,0.126601
984.0172,0.125523
985.8809,0.122642
987.7445,0.123053
989.6082,0.125577
991.4719,0.127424
993.3355,0.127843
995.1992,0.127486
997.0629,0.127337
998.9265,0.127578
1000.7902,0.127873
1002.6539,0.127581
1004.5175,0.126752
1006.3812,0.125141
1008.2449,0.122736
1010.1086,0.120775
1011.9722,0.120132
1013.8359,0.120631
1015.6996,0.121886
1017.5632,0.123372
1019.4269,0.124759
1021.2906,0.126259
1023.1542,0.128213
1025.0179,0.130311
1026.8816,0.131429
1028.7452,0.130935
1030.6089,0.129586
1032.4726,0.127974
1034.3362,0.125414
1036.1999,0.121482
1038.0636,0.117477
1039.9273,0.114882
1041.7909,0.114163
1043.6546,0.114748
1045.5183,0.115623
1047.3819,0.115749
1049.2456,0.114933
1051.1093,0.113374
1052.9729,0.111268
1054.8366,0.109244
1056.7003,0.108061
1058.5639,0.107948
1060.4276,0.108261
1062.2913,0.108392
1064.1550,0.107357
1066.0186,0.104566
1067.8823,0.101384
1069.7460,0.099369
1071.6096,0.099392
1073.4733,0.100645
1075.3370,0.102138
1077.2006,0.103480
1079.0643,0.104595
1080.9280,0.105380
1082.7916,0.105708
1084.6553,0.105228
1086.5190,0.103600
1088.3826,0.101148
1090.2463,0.099215
1092.1100,0.098742
1093.9737,0.099298
1095.8373,0.100596
1097.7010,0.102874
1099.5647,0.105760
1101.4283,0.108672
1103.2920,0.111215
1105.1557,0.112368
1107.0193,0.111671
1108.8830,0.110421
1110.7467,0.109514
1112.6103,0.108703
1114.4740,0.107838
1116.3377,0.107384
1118.2014,0.107721
1120.0650,0.108769
1121.9287,0.109975
1123.7924,0.111033
1125.6560,0.111846
1127.5197,0.112572
1129.3834,0.113048
1131.2470,0.113062
1133.1107,0.112513
1134.9744,0.111292
1136.8380,0.108817
1138.7017,0.105204
1140.5654,0.101684
1142.4290,0.098891
1144.2927,0.096324
1146.1564,0.093678
1148.0201,0.090910
1149.8837,0.088287
1151.7474,0.086272
1153.6111,0.084992
1155.4747,0.084463
1157.3384,0.084524
1159.2021,0.084785
1161.0657,0.085203
1162.9294,0.086067
1164.7931,0.087598
1166.6567,0.089499
1168.5204,0.091170
1170.3841,0.092065
1172.2477,0.092275
1174.1114,0.091856
1175.9751,0.090564
1177.8388,0.088530
1179.7024,0.086938
1181.5661,0.087062
1183.4298,0.088564
1185.2934,0.089762
1187.1571,0.089664
1189.0208,0.087203
1190.8844,0.081659
1192.7481,0.074639
1194.6118,0.068924
1196.4754,0.065592
1198.3391,0.063688
1200.2028,0.062339
1202.0665,0.061296
1203.9301,0.060325
1205.7938,0.059261
1207.6575,0.058070
1209.5211,0.057035
1211.3848,0.056789
1213.2485,0.057178
1215.1121,0.057636
1216.9758,0.057974
1218.8395,0.058181
1220.7031,0.058413
1222.5668,0.058959
1224.4305,0.059941
1226.2941,0.061213
1228.1578,0.062694
1230.0215,0.064329
1231.8852,0.066090
1233.7488,0.068087
1235.6125,0.070040
1237.4762,0.071496
1239.3398,0.071751
1241.2035,0.070426
1243.0672,0.068450
1244.9308,0.066917
1246.7945,0.066114
1248.6582,0.065595
1250.5218,0.064946
1252.3855,0.064582
1254.2492,0.064906
1256.1129,0.065740
1257.9765,0.066696
1259.8402,0.067632
1261.7039,0.068734
1263.5675,0.070131
1265.4312,0.071926
1267.2949,0.074177
1269.1585,0.076037
1271.0222,0.075770
1272.8859,0.073006
1274.7495,0.070380
1276.6132,0.069892
1278.4769,0.071276
1280.3405,0.073724
1282.2042,0.076755
1284.0679,0.080163
1285.9316,0.084365
1287.7952,0.089978
1289.6589,0.097031
1291.5226,0.105363
1293.3862,0.113562
1295.2499,0.117819
1297.1136,0.115052
1298.9772,0.108045
1300.8409,0.103497
1302.7046,0.104901
1304.5682,0.110909
1306.4319,0.117800
1308.2956,0.122043
1310.1592,0.123217
1312.0229,0.123459
1313.8866,0.123345
1315.7503,0.122133
1317.6139,0.120859
1319.4776,0.119873
1321.3413,0.119458
1323.2049,0.121958
1325.0686,0.128403
1326.9323,0.135725
1328.7959,0.138598
1330.6596,0.133625
1332.5233,0.124590
1334.3869,0.118076
1336.2506,0.116996
1338.1143,0.120509
1339.9780,0.125575
1341.8416,0.126916
1343.7053,0.125707
1345.5690,0.125899
1347.4326,0.128738
1349.2963,0.131719
1351.1600,0.130848
1353.0236,0.127146
1354.8873,0.126036
1356.7510,0.127752
1358.6146,0.127908
1360.4783,0.125378
1362.3420,0.121964
1364.2056,0.117076
1366.0693,0.113171
1367.9330,0.114411
1369.7967,0.120524
1371.6603,0.124835
1373.5240,0.125148
1375.3877,0.122591
1377.2513,0.123454
1379.1150,0.131658
1380.9787,0.143854
1382.8423,0.154442
1384.7060,0.161870
1386.5697,0.165955
1388.4333,0.166171
1390.2970,0.165187
1392.1607,0.166859
1394.0244,0.171483
1395.8880,0.175069
1397.7517,0.171513
1399.6154,0.165885
1401.4790,0.162379
1403.3427,0.161072
1405.2064,0.159062
1407.0700,0.152717
1408.9337,0.143831
1410.7974,0.135031
1412.6610,0.126445
1414.5247,0.117618
1416.3884,0.108706
1418.2520,0.101000
1420.1157,0.095136
1421.9794,0.091044
1423.8431,0.086767
1425.7067,0.081262
1427.5704,0.076299
1429.4341,0.072820
1431.2977,0.071110
1433.1614,0.071011
1435.0251,0.073795
1436.8887,0.081291
1438.7524,0.084041
1440.6161,0.080659
1442.4797,0.078187
1444.3434,0.077439
1446.2071,0.078867
1448.0707,0.083318
1449.9344,0.087617
1451.7981,0.089549
1453.6618,0.089742
1455.5254,0.089292
1457.3891,0.092678
1459.2528,0.093869
1461.1164,0.092211
1462.9801,0.093636
1464.8438,0.098949
1466.7074,0.101683
1468.5711,0.099051
1470.4348,0.096824
1472.2984,0.096512
1474.1621,0.095022
1476.0258,0.092221
1477.8895,0.090319
1479.7531,0.090999
1481.6168,0.094936
1483.4805,0.099379
1485.3441,0.102992
1487.2078,0.108673
1489.0715,0.118712
1490.9351,0.129665
1492.7988,0.132588
1494.6625,0.134702
1496.5261,0.144065
1498.3898,0.155696
1500.2535,0.161004
1502.1171,0.163063
1503.9808,0.163498
1505.8445,0.166923
1507.7082,0.181877
1509.5718,0.181420
1511.4355,0.175269
1513.2992,0.167702
1515.1628,0.158620
1517.0265,0.147162
1518.8902,0.135147
1520.7538,0.124604
1522.6175,0.112344
1524.4812,0.105039
1526.3448,0.098670
1528.2085,0.092929
1530.0722,0.088831
1531.9359,0.086865
1533.7995,0.087041
1535.6632,0.086524
1537.5269,0.085642
1539.3905,0.090321
1541.2542,0.103570
1543.1179,0.109656
1544.9815,0.116275
1546.8452,0.122165
1548.7089,0.127899
1550.5725,0.138179
1552.4362,0.145875
1554.2999,0.151483
1556.1635,0.157506
1558.0272,0.166524
1559.8909,0.196286
1561.7546,0.191641
1563.6182,0.186542
1565.4819,0.188662
1567.3456,0.190965
1569.2092,0.194758
1571.0729,0.200325
1572.9366,0.198503
1574.8002,0.196378
1576.6639,0.199544
1578.5276,0.200855
1580.3912,0.197636
1582.2549,0.194034
1584.1186,0.188920
1585.9822,0.181734
1587.8459,0.172795
1589.7096,0.163281
1591.5733,0.154203
1593.4369,0.146963
1595.3006,0.141586
1597.1643,0.138477
1599.0279,0.137495
1600.8916,0.138370
1602.7553,0.140509
1604.6189,0.142718
1606.4826,0.143099
1608.3463,0.140970
1610.2099,0.136047
1612.0736,0.129050
1613.9373,0.120687
1615.8010,0.112537
1617.6646,0.105868
1619.5283,0.102899
1621.3920,0.100041
1623.2556,0.096597
1625.1193,0.093330
1626.9830,0.089723
1628.8466,0.084676
1630.7103,0.079848
1632.5740,0.074453
1634.4376,0.067513
1636.3013,0.059238
1638.1650,0.055801
1640.0286,0.053348
1641.8923,0.049948
1643.7560,0.046103
1645.6197,0.042508
1647.4833,0.039498
1649.3470,0.038883
1651.2107,0.037908
1653.0743,0.036489
1654.9380,0.038712
1656.8017,0.039635
1658.6653,0.039474
1660.5290,0.039240
1662.3927,0.038756
1664.2563,0.038715
1666.1200,0.038148
1667.9837,0.037203
1669.8474,0.036718
1671.7110,0.036921
1673.5747,0.037122
1675.4384,0.037531
1677.3020,0.038344
1679.1657,0.038338
1681.0294,0.038094
1682.8930,0.037630
1684.7567,0.038141
1686.6204,0.040112
1688.4840,0.039431
1690.3477,0.038891
1692.2114,0.038120
1694.0750,0.036566
1695.9387,0.033890
1697.8024,0.032464
1699.6661,0.030996
1701.5297,0.030599
1703.3934,0.030726
1705.2571,0.029365
1707.1207,0.027955
1708.9844,0.027031
1710.8481,0.025990
1712.7117,0.024840
1714.5754,0.023268
1716.4391,0.021923
1718.3027,0.021798
1720.1664,0.022591
1722.0301,0.022131
1723.8937,0.021379
1725.7574,0.020669
1727.6211,0.019698
1729.4848,0.018474
1731.3484,0.017385
1733.2121,0.016324
1735.0758,0.016176
1736.9394,0.016980
1738.8031,0.016704
1740.6668,0.016543
1742.5304,0.016262
1744.3941,0.015861
1746.2578,0.015389
1748.1214,0.014512
1749.9851,0.014056
1751.8488,0.014061
1753.7125,0.013999
1755.5761,0.013331
1757.4398,0.012635
1759.3035,0.012274
1761.1671,0.011618
1763.0308,0.011359
1764.8945,0.011166
1766.7581,0.010510
1768.6218,0.009791
1770.4855,0.009235
1772.3491,0.008626
1774.2128,0.009073
1776.0765,0.009137
1777.9401,0.009047
1779.8038,0.008650
1781.6675,0.008619
1783.5312,0.009041
1785.3948,0.009047
1787.2585,0.008787
1789.1222,0.008379
1790.9858,0.007944
1792.8495,0.007966
1794.7132,0.008492
1796.5768,0.008474
1798.4405,0.008330
1800.3042,0.008099
1802.1678,0.008276
1804.0315,0.008503
1805.8952,0.008496
1807.7589,0.008348
1809.6225,0.008132
1811.4862,0.008172
1813.3499,0.008469
1815.2135,0.008315
1817.0772,0.008124
1818.9409,0.008250
1820.8045,0.008346
1822.6682,0.008147
1824.5319,0.007722
1826.3955,0.007737
1828.2592,0.007856
1830.1229,0.007680
1831.9865,0.007922
1833.8502,0.007827
1835.7139,0.007872
1837.5776,0.007862
1839.4412,0.007981
1841.3049,0.007972
1843.1686,0.007328
1845.0322,0.006994
1846.8959,0.007820
1848.7596,0.008015
1850.6232,0.007817
1852.4869,0.007731
1854.3506,0.007886
1856.2142,0.007912
1858.0779,0.007981
1859.9416,0.007853
1861.8052,0.007750
1863.6689,0.007799
1865.5326,0.007590
1867.3963,0.006745
1869.2599,0.006572
1871.1236,0.007372
1872.9873,0.007432
1874.8509,0.007210
1876.7146,0.007483
1878.5783,0.007746
1880.4419,0.007897
1882.3056,0.007745
1884.1693,0.007409
1886.0329,0.007265
1887.8966,0.007179
1889.7603,0.007212
1891.6240,0.007536
1893.4876,0.007508
1895.3513,0.007536
1897.2150,0.007438
1899.0786,0.007294
1900.9423,0.007235
1902.8060,0.007673
1904.6696,0.007922
1906.5333,0.007536
1908.3970,0.007243
1910.2606,0.007111
1912.1243,0.007132
1913.9880,0.007306
1915.8516,0.006816
1917.7153,0.006217
1919.5790,0.006833
1921.4427,0.007138
1923.3063,0.006596
1925.1700,0.006610
1927.0337,0.007155
1928.8973,0.007612
1930.7610,0.007290
1932.6247,0.006805
1934.4883,0.006335
1936.3520,0.006288
1938.2157,0.006215
1940.0793,0.006130
1941.9430,0.006130
1943.8067,0.006352
1945.6704,0.006199
1947.5340,0.005390
1949.3977,0.004602
1951.2614,0.004516
1953.1250,0.005219
1954.9887,0.005598
1956.8524,0.004410
1958.7160,0.003710
1960.5797,0.003844
1962.4434,0.003053
1964.3070,0.002489
1966.1707,0.003003
1968.0344,0.002305
1969.8980,0.001463
1971.7617,0.001125
1973.6254,0.001709
1975.4891,0.002695
1977.3527,0.003293
1979.2164,0.004410
1981.0801,0.004663
1982.9437,0.004322
1984.8074,0.004440
1986.6711,0.003705
1988.5347,0.003864
1990.3984,0.004262
1992.2621,0.003447
1994.1257,0.002775
1995.9894,0.003643
1997.8531,0.004499
1999.7167,0.004632
2001.5804,0.003535
2003.4441,0.002739
2005.3078,0.003179
2007.1714,0.003332
2009.0351,0.003160
2010.8988,0.002762
2012.7624,0.002115
2014.6261,0.001670
2016.4898,0.002148
2018.3534,0.002798
2020.2171,0.001288
2022.0808,0.000903
2023.9444,0.002558
2025.8081,0.003341
2027.6718,0.002733
2029.5355,0.003255
2031.3991,0.003904
2033.2628,0.003484
2035.1265,0.002895
2036.9901,0.003202
2038.8538,0.004344
2040.7175,0.005000
2042.5811,0.005754
2044.4448,0.006396
2046.3085,0.006338
2048.1721,0.007435
2050.0358,0.008626
2051.8995,0.008494
2053.7631,0.008458
2055.6268,0.009109
2057.4905,0.009332
2059.3542,0.009456
2061.2178,0.009585
2063.0815,0.009479
2064.9452,0.009697
2066.8088,0.010149
2068.6725,0.010453
2070.5362,0.010981
2072.3998,0.011309
2074.2635,0.011708
2076.1272,0.012445
2077.9908,0.012789
2079.8545,0.012661
2081.7182,0.013135
2083.5819,0.013302
2085.4455,0.013284
2087.3092,0.013836
2089.1729,0.014207
2091.0365,0.013970
2092.9002,0.014154
2094.7639,0.014834
2096.6275,0.014969
2098.4912,0.015229
2100.3549,0.015684
2102.2185,0.015506
2104.0822,0.015640
2105.9459,0.016077
2107.8095,0.016385
2109.6732,0.016004
2111.5369,0.015515
2113.4006,0.015979
2115.2642,0.016346
2117.1279,0.016478
2118.9916,0.016603
2120.8552,0.015833
2122.7189,0.015330
2124.5826,0.015217
2126.4462,0.014734
2128.3099,0.013776
2130.1736,0.012915
2132.0372,0.012792
2133.9009,0.012598
2135.7646,0.011894
2137.6282,0.011451
2139.4919,0.011593
2141.3556,0.011216
2143.2193,0.009872
2145.0829,0.009761
2146.9466,0.009503
2148.8103,0.008321
2150.6739,0.006819
2152.5376,0.005472
2154.4013,0.005062
2156.2649,0.003917
2158.1286,0.003150
2159.9923,0.003818
2161.8559,0.004302
2163.7196,0.005523
2165.5833,0.005939
2167.4470,0.006416
2169.3106,0.006502
2171.1743,0.004988
2173.0380,0.003905
2174.9016,0.004256
2176.7653,0.005207
2178.6290,0.006314
2180.4926,0.006679
2182.3563,0.007294
2184.2200,0.007986
2186.0836,0.007658
2187.9473,0.007607
2189.8110,0.007671
2191.6746,0.007499
2193.5383,0.007437
2195.4020,0.006948
2197.2657,0.007319
2199.1293,0.007855
2200.9930,0.008248
2202.8567,0.008232
2204.7203,0.007310
2206.5840,0.007234
2208.4477,0.008282
2210.3113,0.008349
2212.1750,0.007463
2214.0387,0.007555
2215.9023,0.008902
2217.7660,0.009678
2219.6297,0.009083
2221.4934,0.008280
2223.3570,0.008816
2225.2207,0.009659
2227.0844,0.009753
2228.9480,0.009986
2230.8117,0.009955
2232.6754,0.009113
2234.5390,0.009433
2236.4027,0.009890
2238.2664,0.009951
2240.1300,0.010295
2241.9937,0.010051
2243.8574,0.010310
2245.7210,0.011083
2247.5847,0.010897
2249.4484,0.010893
2251.3121,0.011096
2253.1757,0.011000
2255.0394,0.011528
2256.9031,0.012279
2258.7667,0.012030
2260.6304,0.011616
2262.4941,0.011727
2264.3577,0.011979
2266.2214,0.012580
2268.0851,0.013200
2269.9487,0.013208
2271.8124,0.012932
2273.6761,0.012741
2275.5397,0.012940
2277.4034,0.013406
2279.2671,0.013935
2281.1308,0.014529
2282.9944,0.015089
2284.8581,0.015094
2286.7218,0.014830
2288.5854,0.014924
2290.4491,0.014943
2292.3128,0.015071
2294.1764,0.015519
2296.0401,0.015403
2297.9038,0.015310
2299.7674,0.015275
2301.6311,0.015124
2303.4948,0.015231
2305.3585,0.015599
2307.2221,0.015866
2309.0858,0.015748
2310.9495,0.015603
2312.8131,0.015927
2314.6768,0.016345
2316.5405,0.016649
2318.4041,0.017042
2320.2678,0.017332
2322.1315,0.017405
2323.9951,0.017438
2325.8588,0.016895
2327.7225,0.016326
2329.5861,0.016635
2331.4498,0.016941
2333.3135,0.016593
2335.1772,0.016624
2337.0408,0.016985
2338.9045,0.017230
2340.7682,0.017545
2342.6318,0.017682
2344.4955,0.017691
2346.3592,0.017758
2348.2228,0.017385
2350.0865,0.016880
2351.9502,0.016822
2353.8138,0.017038
2355.6775,0.017141
2357.5412,0.017428
2359.4049,0.017636
2361.2685,0.017712
2363.1322,0.017905
2364.9959,0.017982
2366.8595,0.018073
2368.7232,0.018602
2370.5869,0.018617
2372.4505,0.018638
2374.3142,0.018950
2376.1779,0.019050
2378.0415,0.018977
2379.9052,0.018837
2381.7689,0.018792
2383.6325,0.019115
2385.4962,0.019455
2387.3599,0.019558
2389.2236,0.019591
2391.0872,0.019714
2392.9509,0.019821
2394.8146,0.020197
2396.6782,0.020516
2398.5419,0.020363
2400.4056,0.020189
2402.2692,0.020642
2404.1329,0.021305
2405.9966,0.021476
2407.8602,0.021750
2409.7239,0.022113
2411.5876,0.022048
2413.4512,0.021865
2415.3149,0.022200
2417.1786,0.022834
2419.0423,0.023203
2420.9059,0.023366
2422.7696,0.023277
2424.6333,0.023395
2426.4969,0.023774
2428.3606,0.024104
2430.2243,0.024077
2432.0879,0.023952
2433.9516,0.024248
2435.8153,0.024954
2437.6789,0.024866
2439.5426,0.024565
2441.4063,0.025066
2443.2700,0.025637
2445.1336,0.025724
2446.9973,0.025762
2448.8610,0.025857
2450.7246,0.026116
2452.5883,0.026450
2454.4520,0.026615
2456.3156,0.026551
2458.1793,0.026856
2460.0430,0.027198
2461.9066,0.027019
2463.7703,0.026846
2465.6340,0.027216
2467.4976,0.027752
2469.3613,0.028282
2471.2250,0.028451
2473.0887,0.028346
2474.9523,0.028310
2476.8160,0.028744
2478.6797,0.028910
2480.5433,0.029187
2482.4070,0.029444
2484.2707,0.029805
2486.1343,0.030489
2487.9980,0.030461
2489.8617,0.030259
2491.7253,0.030706
2493.5890,0.031378
2495.4527,0.031770
2497.3164,0.031904
2499.1800,0.031988
2501.0437,0.032174
2502.9074,0.032832
2504.7710,0.033628
2506.6347,0.034213
2508.4984,0.034151
2510.3620,0.034134
2512.2257,0.034600
2514.0894,0.035109
2515.9530,0.035577
2517.8167,0.035707
2519.6804,0.035841
2521.5440,0.036540
2523.4077,0.037011
2525.2714,0.037447
2527.1351,0.038249
2528.9987,0.038688
2530.8624,0.038790
2532.7261,0.039148
2534.5897,0.039770
2536.4534,0.040557
2538.3171,0.040502
2540.1807,0.040127
2542.0444,0.040319
2543.9081,0.040877
2545.7717,0.040809
2547.6354,0.040917
2549.4991,0.041786
2551.3627,0.042801
2553.2264,0.043093
2555.0901,0.042866
2556.9538,0.043062
2558.8174,0.043709
2560.6811,0.044167
2562.5448,0.044810
2564.4084,0.045537
2566.2721,0.045713
2568.1358,0.045940
2569.9994,0.046536
2571.8631,0.046347
2573.7268,0.046131
2575.5904,0.046559
2577.4541,0.047204
2579.3178,0.047515
2581.1815,0.047439
2583.0451,0.047360
2584.9088,0.047659
2586.7725,0.047929
2588.6361,0.048287
2590.4998,0.048539
2592.3635,0.048835
2594.2271,0.049239
2596.0908,0.049298
2597.9545,0.048823
2599.8181,0.049087
2601.6818,0.049923
2603.5455,0.050538
2605.4091,0.050698
2607.2728,0.050760
2609.1365,0.051206
2611.0002,0.051523
2612.8638,0.051592
2614.7275,0.051884
2616.5912,0.052022
2618.4548,0.051966
2620.3185,0.051997
2622.1822,0.052253
2624.0458,0.052171
2625.9095,0.051944
2627.7732,0.051885
2629.6368,0.051622
2631.5005,0.051299
2633.3642,0.051195
2635.2279,0.050853
2637.0915,0.050504
2638.9552,0.050132
2640.8189,0.049855
2642.6825,0.049432
2644.5462,0.048879
2646.4099,0.048586
2648.2735,0.048638
2650.1372,0.048758
2652.0009,0.048680
2653.8645,0.048522
2655.7282,0.048627
2657.5919,0.048641
2659.4555,0.048545
2661.3192,0.048759
2663.1829,0.049163
2665.0466,0.049285
2666.9102,0.049333
2668.7739,0.049721
2670.6376,0.050439
2672.5012,0.051062
2674.3649,0.051637
2676.2286,0.052178
2678.0922,0.052976
2679.9559,0.053470
2681.8196,0.053555
2683.6832,0.053864
2685.5469,0.054442
2687.4106,0.054605
2689.2742,0.054651
2691.1379,0.054882
2693.0016,0.054985
2694.8653,0.054961
2696.7289,0.055017
2698.5926,0.055234
2700.4563,0.055572
2702.3199,0.055597
2704.1836,0.055707
2706.0473,0.055961
2707.9109,0.056160
2709.7746,0.056264
2711.6383,0.056528
2713.5019,0.057080
2715.3656,0.057426
2717.2293,0.057343
2719.0930,0.057217
2720.9566,0.057258
2722.8203,0.057707
2724.6840,0.058003
2726.5476,0.058392
2728.4113,0.058825
2730.2750,0.059042
2732.1386,0.059397
2734.0023,0.059700
2735.8660,0.059697
2737.7296,0.059728
2739.5933,0.059762
2741.4570,0.059796
2743.3206,0.059968
2745.1843,0.060128
2747.0480,0.060248
2748.9117,0.060538
2750.7753,0.060758
2752.6390,0.061056
2754.5027,0.061088
2756.3663,0.061231
2758.2300,0.061529
2760.0937,0.061730
2761.9573,0.062118
2763.8210,0.062653
2765.6847,0.062885
2767.5483,0.063220
2769.4120,0.063593
2771.2757,0.063833
2773.1394,0.063890
2775.0030,0.064231
2776.8667,0.064839
2778.7304,0.065391
2780.5940,0.065813
2782.4577,0.066244
2784.3214,0.066685
2786.1850,0.067197
2788.0487,0.067344
2789.9124,0.067505
2791.7760,0.067999
2793.6397,0.068276
2795.5034,0.068082
2797.3670,0.068180
2799.2307,0.068424
2801.0944,0.068651
2802.9581,0.069058
2804.8217,0.069594
2806.6854,0.069641
2808.5491,0.069606
2810.4127,0.070063
2812.2764,0.070706
2814.1401,0.070954
2816.0037,0.071299
2817.8674,0.071631
2819.7311,0.071992
2821.5947,0.072452
2823.4584,0.072805
2825.3221,0.073057
2827.1857,0.073743
2829.0494,0.074318
2830.9131,0.074692
2832.7768,0.075119
2834.6404,0.076048
2836.5041,0.076919
2838.3678,0.077781
2840.2314,0.078859
2842.0951,0.079946
2843.9588,0.080994
2845.8224,0.082261
2847.6861,0.083520
2849.5498,0.084729
2851.4134,0.085454
2853.2771,0.086398
2855.1408,0.087833
2857.0045,0.089203
2858.8681,0.090517
2860.7318,0.092369
2862.5955,0.094247
2864.4591,0.095899
2866.3228,0.097298
2868.1865,0.098007
2870.0501,0.097692
2871.9138,0.097255
2873.7775,0.096767
2875.6411,0.096236
2877.5048,0.095261
2879.3685,0.094164
2881.2321,0.093271
2883.0958,0.092667
2884.9595,0.092843
2886.8232,0.093694
2888.6868,0.094322
2890.5505,0.095074
2892.4142,0.095445
2894.2778,0.096092
2896.1415,0.096577
2898.0052,0.096710
2899.8688,0.096902
2901.7325,0.097233
2903.5962,0.097756
2905.4598,0.098437
2907.3235,0.098843
2909.1872,0.099302
2911.0509,0.099932
2912.9145,0.100731
2914.7782,0.101242
2916.6419,0.101801
2918.5055,0.102304
2920.3692,0.103063
2922.2329,0.103712
2924.0965,0.103988
2925.9602,0.103990
2927.8239,0.104037
2929.6875,0.104072
2931.5512,0.103854
2933.4149,0.103157
2935.2785,0.102539
2937.1422,0.101959
2939.0059,0.101691
2940.8696,0.101236
2942.7332,0.100761
2944.5969,0.100436
2946.4606,0.100771
2948.3242,0.100885
2950.1879,0.100816
2952.0516,0.101018
2953.9152,0.101202
2955.7789,0.100914
2957.6426,0.100347
2959.5062,0.098768
2961.3699,0.096576
2963.2336,0.094488
2965.0972,0.093339
2966.9609,0.092616
2968.8246,0.091351
2970.6883,0.089181
2972.5519,0.086845
2974.4156,0.085174
2976.2793,0.084729
2978.1429,0.084374
2980.0066,0.083713
2981.8703,0.082954
2983.7339,0.082439
2985.5976,0.081469
2987.4613,0.080446
2989.3249,0.079903
2991.1886,0.079385
2993.0523,0.078576
2994.9160,0.078701
2996.7796,0.078871
2998.6433,0.078431
3000.5070,0.077276
3002.3706,0.076597
3004.2343,0.076260
3006.0980,0.076268
3007.9616,0.076498
3009.8253,0.076748
3011.6890,0.076793
3013.5526,0.076489
3015.4163,0.076026
3017.2800,0.076143
3019.1436,0.076392
3021.0073,0.076892
3022.8710,0.076756
3024.7347,0.076128
3026.5983,0.075893
3028.4620,0.075601
3030.3257,0.075418
3032.1893,0.075502
3034.0530,0.075483
3035.9167,0.075636
3037.7803,0.075332
3039.6440,0.075297
3041.5077,0.075262
3043.3713,0.075287
3045.2350,0.075653
3047.0987,0.075844
3048.9624,0.075647
3050.8260,0.075380
3052.6897,0.074784
3054.5534,0.074650
3056.4170,0.074156
3058.2807,0.073995
3060.1444,0.073869
3062.0080,0.073174
3063.8717,0.073023
3065.7354,0.072922
3067.5990,0.072042
3069.4627,0.071672
3071.3264,0.070623
3073.1900,0.070029
3075.0537,0.069783
3076.9174,0.068756
3078.7811,0.068374
3080.6447,0.068640
3082.5084,0.068209
3084.3721,0.067565
3086.2357,0.066587
3088.0994,0.066177
3089.9631,0.066002
3091.8267,0.065682
3093.6904,0.064874
3095.5541,0.063932
3097.4177,0.063190
3099.2814,0.062604
3101.1451,0.061819
3103.0087,0.061749
3104.8724,0.060909
3106.7361,0.059757
3108.5998,0.059405
3110.4634,0.059263
3112.3271,0.058761
3114.1908,0.058030
3116.0544,0.057393
3117.9181,0.057506
3119.7818,0.057425
3121.6454,0.057401
3123.5091,0.057671
3125.3728,0.057082
3127.2364,0.056132
3129.1001,0.055856
3130.9638,0.055424
3132.8275,0.055153
3134.6911,0.054654
3136.5548,0.054261
3138.4185,0.054365
3140.2821,0.054999
3142.1458,0.054072
3144.0095,0.052624
3145.8731,0.051701
3147.7368,0.050845
3149.6005,0.050362
3151.4641,0.050728
3153.3278,0.050742
3155.1915,0.050457
3157.0551,0.049292
3158.9188,0.048325
3160.7825,0.047885
3162.6462,0.047382
3164.5098,0.046641
3166.3735,0.046073
3168.2372,0.045226
3170.1008,0.044417
3171.9645,0.043727
3173.8282,0.043344
3175.6918,0.042550
3177.5555,0.041723
3179.4192,0.041404
3181.2828,0.041146
3183.1465,0.040822
3185.0102,0.040459
3186.8739,0.038853
3188.7375,0.038483
3190.6012,0.039078
3192.4649,0.038992
3194.3285,0.038725
3196.1922,0.038292
3198.0559,0.038000
3199.9195,0.037657
3201.7832,0.036616
3203.6469,0.036410
3205.5105,0.036716
3207.3742,0.036211
3209.2379,0.035716
3211.1015,0.035850
3212.9652,0.035800
3214.8289,0.035608
3216.6926,0.035073
3218.5562,0.035477
3220.4199,0.035460
3222.2836,0.034618
3224.1472,0.034935
3226.0109,0.035746
3227.8746,0.035082
3229.7382,0.034135
3231.6019,0.034222
3233.4656,0.034853
3235.3292,0.034853
3237.1929,0.034316
3239.0566,0.034067
3240.9202,0.034134
3242.7839,0.034650
3244.6476,0.034475
3246.5113,0.033755
3248.3749,0.034313
3250.2386,0.034564
3252.1023,0.034691
3253.9659,0.034276
3255.8296,0.034334
3257.6933,0.034550
3259.5569,0.034955
3261.4206,0.034737
3263.2843,0.033840
3265.1479,0.033984
3267.0116,0.035242
3268.8753,0.035101
3270.7390,0.034405
3272.6026,0.034617
3274.4663,0.034779
3276.3300,0.034506
3278.1936,0.034488
3280.0573,0.034763
3281.9210,0.035084
3283.7846,0.034562
3285.6483,0.034306
3287.5120,0.034286
3289.3756,0.034224
3291.2393,0.034411
3293.1030,0.034123
3294.9666,0.033474
3296.8303,0.033426
3298.6940,0.032923
3300.5577,0.032631
3302.4213,0.031574
3304.2850,0.030927
3306.1487,0.031085
3308.0123,0.030602
3309.8760,0.029863
3311.7397,0.029584
3313.6033,0.029462
3315.4670,0.030750
3317.3307,0.031773
3319.1943,0.030771
3321.0580,0.029281
3322.9217,0.028595
3324.7854,0.028456
3326.6490,0.028540
3328.5127,0.028432
3330.3764,0.029665
3332.2400,0.029945
3334.1037,0.028704
3335.9674,0.028489
3337.8310,0.028846
3339.6947,0.028599
3341.5584,0.028379
3343.4220,0.028146
3345.2857,0.027689
3347.1494,0.027418
3349.0130,0.026846
3350.8767,0.026127
3352.7404,0.026181
3354.6041,0.026229
3356.4677,0.026630
3358.3314,0.026012
3360.1951,0.025236
3362.0587,0.024724
3363.9224,0.024867
3365.7861,0.024539
3367.6497,0.024450
3369.5134,0.024683
3371.3771,0.024273
3373.2407,0.023373
3375.1044,0.023398
3376.9681,0.023321
3378.8317,0.022970
3380.6954,0.023231
3382.5591,0.023516
3384.4228,0.022603
3386.2864,0.021556
3388.1501,0.022130
3390.0138,0.023491
3391.8774,0.022864
3393.7411,0.021902
3395.6048,0.021411
3397.4684,0.021513
3399.3321,0.021806
3401.1958,0.021219
3403.0594,0.020098
3404.9231,0.021131
3406.7868,0.020887
3408.6505,0.019601
3410.5141,0.018798
3412.3778,0.019927
3414.2415,0.020911
3416.1051,0.019930
3417.9688,0.018163
3419.8325,0.016644
3421.6961,0.016190
3423.5598,0.016166
3425.4235,0.015507
3427.2871,0.014953
3429.1508,0.014764
3431.0145,0.015730
3432.8781,0.015629
3434.7418,0.015088
3436.6055,0.014847
3438.4692,0.015372
3440.3328,0.014791
3442.1965,0.013933
3444.0602,0.013755
3445.9238,0.014585
3447.7875,0.014255
3449.6512,0.013250
3451.5148,0.012469
3453.3785,0.012814
3455.2422,0.013156
3457.1058,0.013141
3458.9695,0.012593
3460.8332,0.011252
3462.6969,0.010135
3464.5605,0.010164
3466.4242,0.010881
3468.2879,0.011589
3470.1515,0.012067
3472.0152,0.012498
3473.8789,0.011505
3475.7425,0.009493
3477.6062,0.008630
3479.4699,0.010280
3481.3335,0.010792
3483.1972,0.009891
3485.0609,0.008665
3486.9245,0.009195
3488.7882,0.009950
3490.6519,0.010015
3492.5156,0.009969
3494.3792,0.008996
3496.2429,0.007826
3498.1066,0.008341
3499.9702,0.008440
3501.8339,0.007558
3503.6976,0.006154
3505.5612,0.006808
3507.4249,0.006988
3509.2886,0.006799
3511.1522,0.007327
3513.0159,0.007277
3514.8796,0.005692
3516.7432,0.004758
3518.6069,0.004600
3520.4706,0.005449
3522.3343,0.005909
3524.1979,0.005304
3526.0616,0.003914
3527.9253,0.004136
3529.7889,0.003954
3531.6526,0.003716
3533.5163,0.004257
3535.3799,0.004438
3537.2436,0.004056
3539.1073,0.004172
3540.9709,0.003981
3542.8346,0.004947
3544.6983,0.004777
3546.5620,0.002594
3548.4256,0.000943
3550.2893,0.002588
3552.1530,0.003463
3554.0166,0.003521
3555.8803,0.003477
3557.7440,0.003523
3559.6076,0.003670
3561.4713,0.003966
3563.3350,0.003119
3565.1986,0.001636
3567.0623,-0.000167
3568.9260,-0.001487
3570.7896,0.001076
3572.6533,0.002564
3574.5170,0.003008
3576.3807,0.003431
3578.2443,0.002756
3580.1080,0.002538
3581.9717,0.002352
3583.8353,0.002001
3585.6990,0.000714
3587.5627,-0.000795
3589.4263,-0.001066
3591.2900,0.000354
3593.1537,0.001056
3595.0173,0.000701
3596.8810,0.000746
3598.7447,0.001751
3600.6084,0.001468
3602.4720,0.001401
3604.3357,0.001059
3606.1994,0.000938
3608.0630,0.000430
3609.9267,-0.001174
3611.7904,-0.001776
3613.6540,-0.000749
3615.5177,-0.000553
3617.3814,-0.001113
3619.2450,-0.001796
3621.1087,-0.001588
3622.9724,-0.000159
3624.8360,0.000892
3626.6997,0.000856
3628.5634,0.000455
3630.4271,-0.000572
3632.2907,-0.000966
3634.1544,-0.000523
3636.0181,0.000578
3637.8817,0.001560
3639.7454,0.002336
3641.6091,0.002153
3643.4727,0.001593
3645.3364,0.000406
3647.2001,-0.000704
3649.0637,-0.003661
3650.9274,-0.006027
3652.7911,-0.003155
3654.6547,-0.000279
3656.5184,0.000003
3658.3821,0.000059
3660.2458,0.000453
3662.1094,0.000659
3663.9731,0.000495
3665.8368,0.000828
3667.7004,0.000594
3669.5641,-0.000429
3671.4278,-0.002458
3673.2914,-0.001685
3675.1551,-0.001712
3677.0188,-0.003127
3678.8824,-0.000976
3680.7461,0.000895
3682.6098,0.000389
3684.4735,0.000210
3686.3371,0.000784
3688.2008,0.000145
3690.0645,-0.001647
3691.9281,-0.001893
3693.7918,-0.000565
3695.6555,0.000500
3697.5191,0.001074
3699.3828,0.000886
3701.2465,0.000109
3703.1101,-0.000047
3704.9738,0.000614
3706.8375,0.001077
3708.7011,0.000334
3710.5648,-0.001782
3712.4285,-0.002409
3714.2922,-0.000727
3716.1558,-0.000368
3718.0195,0.000279
3719.8832,0.000879
3721.7468,0.000933
3723.6105,0.000489
3725.4742,0.000018
3727.3378,0.000352
3729.2015,0.000728
3731.0652,-0.000376
3732.9288,-0.001348
3734.7925,-0.001974
3736.6562,-0.002083
3738.5199,-0.002113
3740.3835,-0.001246
3742.2472,-0.001056
3744.1109,-0.002634
3745.9745,-0.004789
3747.8382,-0.003404
3749.7019,-0.001903
3751.5655,-0.003219
3753.4292,-0.003818
3755.2929,-0.000820
3757.1565,0.000357
3759.0202,0.000067
3760.8839,0.000186
3762.7475,0.001272
3764.6112,0.000864
3766.4749,0.000192
3768.3386,-0.000464
3770.2022,0.000297
3772.0659,0.000496
3773.9296,0.000906
3775.7932,0.001475
3777.6569,0.001304
3779.5206,0.000254
3781.3842,-0.000095
3783.2479,0.000404
3785.1116,0.001002
3786.9752,0.001415
3788.8389,0.001465
3790.7026,0.001601
3792.5662,0.002006
3794.4299,0.001608
3796.2936,0.000815
3798.1573,0.000243
3800.0209,-0.000356
3801.8846,-0.001576
3803.7483,-0.001505
3805.6119,-0.000512
3807.4756,0.000211
3809.3393,0.000939
3811.2029,0.001589
3813.0666,0.001472
3814.9303,0.001001
3816.7939,0.000193
3818.6576,-0.000784
3820.5213,-0.001365
3822.3850,-0.001145
3824.2486,-0.000469
3826.1123,0.000599
3827.9760,0.000899
3829.8396,0.000905
3831.7033,0.000294
3833.5670,-0.000018
3835.4306,-0.000407
3837.2943,-0.000913
3839.1580,-0.002201
3841.0216,-0.001985
3842.8853,-0.000790
3844.7490,0.000693
3846.6126,0.001298
3848.4763,0.001712
3850.3400,0.001165
3852.2037,-0.000528
3854.0673,-0.003930
3855.9310,-0.004101
3857.7947,-0.001060
3859.6583,0.000229
3861.5220,-0.000029
3863.3857,0.000330
3865.2493,-0.000090
3867.1130,0.000297
3868.9767,0.000212
3870.8403,0.000074
3872.7040,-0.000490
3874.5677,-0.000373
3876.4314,-0.000182
3878.2950,0.000335
3880.1587,0.000388
3882.0224,0.000244
3883.8860,0.000058
3885.7497,0.000123
3887.6134,-0.000392
3889.4770,0.000237
3891.3407,0.000868
3893.2044,0.000507
3895.0680,0.000540
3896.9317,0.001278
3898.7954,0.000982
3900.6590,-0.000648
3902.5227,-0.001933
3904.3864,-0.001520
3906.2501,-0.000381
3908.1137,0.001559
3909.9774,0.002012
3911.8411,0.001777
3913.7047,0.001823
3915.5684,0.001684
3917.4321,0.000885
3919.2957,0.000480
3921.1594,0.000437
3923.0231,0.001030
3924.8867,0.000975
3926.7504,0.000348
3928.6141,0.000583
3930.4777,0.001365
3932.3414,0.000931
3934.2051,0.000852
3936.0688,0.000958
3937.9324,0.001320
3939.7961,0.001803
3941.6598,0.002131
3943.5234,0.001222
3945.3871,0.001402
3947.2508,0.001777
3949.1144,0.001876
3950.9781,0.001558
3952.8418,0.001322
3954.7054,0.001496
3956.5691,0.001520
3958.4328,0.001294
3960.2965,0.001332
3962.1601,0.001078
3964.0238,0.001289
3965.8875,0.001691
3967.7511,0.001723
3969.6148,0.001426
3971.4785,0.001653
3973.3421,0.001449
3975.2058,0.001504
3977.0695,0.001154
3978.9331,0.001812
3980.7968,0.001931
3982.6605,0.001872
3984.5241,0.001999
3986.3878,0.001927
3988.2515,0.002040
3990.1152,0.002753
3991.9788,0.002531
3993.8425,0.001906
3995.7062,0.002149
3997.5698,0.002438
3999.4335,0.001730
