Wavenumber,Intensity
650.4205,0.142792
652.2841,0.144037
654.1478,0.147661
656.0115,0.145472
657.8751,0.134565
659.7388,0.121965
661.6025,0.122110
663.4661,0.125770
665.3298,0.125818
667.1935,0.126167
669.0571,0.130781
670.9208,0.130748
672.7845,0.131075
674.6481,0.132381
676.5118,0.133829
678.3755,0.134446
680.2392,0.134938
682.1028,0.133491
683.9665,0.133403
685.8302,0.132680
687.6938,0.130910
689.5575,0.128136
691.4212,0.123790
693.2848,0.120348
695.1485,0.119335
697.0122,0.115601
698.8758,0.108409
700.7395,0.101726
702.6032,0.096989
704.4669,0.093530
706.3305,0.089896
708.1942,0.085181
710.0579,0.080325
711.9215,0.075408
713.7852,0.071139
715.6489,0.067011
717.5125,0.062519
719.3762,0.057593
721.2399,0.053511
723.1035,0.051031
724.9672,0.048679
726.8309,0.046883
728.6945,0.045861
730.5582,0.044359
732.4219,0.043840
734.2856,0.043933
736.1492,0.043707
738.0129,0.043561
739.8766,0.043659
741.7402,0.044565
743.6039,0.045599
745.4676,0.046710
747.3312,0.047868
749.1949,0.048832
751.0586,0.049314
752.9222,0.050030
754.7859,0.051266
756.6496,0.051583
758.5132,0.052187
760.3769,0.053324
762.2406,0.054224
764.1043,0.055558
765.9679,0.056891
767.8316,0.058441
769.6953,0.060006
771.5589,0.061247
773.4226,0.062865
775.2863,0.064585
777.1499,0.066339
779.0136,0.068207
780.8773,0.070049
782.7409,0.071880
784.6046,0.073820
786.4683,0.075474
788.3320,0.077521
790.1956,0.079691
792.0593,0.081748
793.9230,0.083922
795.7866,0.086336
797.6503,0.088672
799.5140,0.090840
801.3776,0.093082
803.2413,0.094999
805.1050,0.096789
806.9686,0.098962
808.8323,0.100948
810.6960,0.102359
812.5596,0.102393
814.4233,0.102002
816.2870,0.102635
818.1507,0.104259
820.0143,0.106424
821.8780,0.108907
823.7417,0.111144
825.6053,0.113668
827.4690,0.116284
829.3327,0.117514
831.1963,0.114306
833.0600,0.106186
834.9237,0.096576
836.7873,0.088542
838.6510,0.082552
840.5147,0.078125
842.3784,0.074824
844.2420,0.073359
846.1057,0.073164
847.9694,0.072880
849.8330,0.070362
851.6967,0.065506
853.5604,0.060810
855.4240,0.058072
857.2877,0.056864
859.1514,0.056286
861.0150,0.056055
862.8787,0.056327
864.7424,0.056812
866.6060,0.057208
868.4697,0.057606
870.3334,0.058116
872.1971,0.058738
874.0607,0.059461
875.9244,0.060110
877.7881,0.060683
879.6517,0.061570
881.5154,0.062480
883.3791,0.062994
885.2427,0.063491
887.1064,0.064141
888.9701,0.064668
890.8337,0.064980
892.6974,0.065693
894.5611,0.066582
896.4247,0.067480
898.2884,0.068156
900.1521,0.068986
902.0158,0.069956
903.8794,0.071016
905.7431,0.072347
907.6068,0.073950
909.4704,0.075837
911.3341,0.077803
913.1978,0.079658
915.0614,0.080473
916.9251,0.078984
918.7888,0.075991
920.6524,0.073637
922.5161,0.072966
924.3798,0.073176
926.2435,0.073712
928.1071,0.074405
929.9708,0.075071
931.8345,0.075765
933.6981,0.076657
935.5618,0.077492
937.4255,0.078293
939.2891,0.079135
941.1528,0.080058
943.0165,0.081249
944.8801,0.082392
946.7438,0.083370
948.6075,0.084602
950.4711,0.085984
952.3348,0.087382
954.1985,0.088796
956.0622,0.090346
957.9258,0.092022
959.7895,0.093767
961.6532,0.095467
963.5168,0.097230
965.3805,0.099038
967.2442,0.101064
969.1078,0.103129
970.9715,0.105184
972.8352,0.107329
974.6988,0.109673
976.5625,0.112522
978.4262,0.116664
980.2899,0.121599
982.1535,0.122963
984.0172,0.116451
985.8809,0.108128
987.7445,0.103999
989.6082,0.102473
991.4719,0.101360
993.3355,0.100317
995.1992,0.099011
997.0629,0.097345
998.9265,0.095538
1000.7902,0.093655
1002.6539,0.091744
1004.5175,0.089933
1006.3812,0.088253
1008.2449,0.086683
1010.1086,0.085170
1011.9722,0.083715
1013.8359,0.082667
1015.6996,0.082159
1017.5632,0.082061
1019.4269,0.082540
1021.2906,0.083464
1023.1542,0.084665
1025.0179,0.086230
1026.8816,0.088412
1028.7452,0.090678
1030.6089,0.091285
1032.4726,0.087505
1034.3362,0.079974
1036.1999,0.074392
1038.0636,0.073550
1039.9273,0.075615
1041.7909,0.078700
1043.6546,0.081703
1045.5183,0.082595
1047.3819,0.079358
1049.2456,0.074113
1051.1093,0.070550
1052.9729,0.069244
1054.8366,0.068972
1056.7003,0.069150
1058.5639,0.069464
1060.4276,0.069997
1062.2913,0.070740
1064.1550,0.071531
1066.0186,0.072301
1067.8823,0.073088
1069.7460,0.073972
1071.6096,0.074873
1073.4733,0.075623
1075.3370,0.076404
1077.2006,0.077435
1079.0643,0.078431
1080.9280,0.079273
1082.7916,0.080244
1084.6553,0.081224
1086.5190,0.082248
1088.3826,0.083515
1090.2463,0.084768
1092.1100,0.085884
1093.9737,0.087258
1095.8373,0.088769
1097.7010,0.090344
1099.5647,0.091908
1101.4283,0.093415
1103.2920,0.094739
1105.1557,0.095567
1107.0193,0.095667
1108.8830,0.094685
1110.7467,0.092438
1112.6103,0.089669
1114.4740,0.087027
1116.3377,0.084798
1118.2014,0.082979
1120.0650,0.081677
1121.9287,0.080889
1123.7924,0.080362
1125.6560,0.079963
1127.5197,0.079712
1129.3834,0.079479
1131.2470,0.079124
1133.1107,0.078763
1134.9744,0.078535
1136.8380,0.078316
1138.7017,0.078104
1140.5654,0.078023
1142.4290,0.078020
1144.2927,0.078077
1146.1564,0.078160
1148.0201,0.078173
1149.8837,0.078290
1151.7474,0.078683
1153.6111,0.079108
1155.4747,0.079443
1157.3384,0.079834
1159.2021,0.080361
1161.0657,0.080955
1162.9294,0.081639
1164.7931,0.082489
1166.6567,0.083483
1168.5204,0.084481
1170.3841,0.085353
1172.2477,0.085949
1174.1114,0.086047
1175.9751,0.085498
1177.8388,0.084615
1179.7024,0.083985
1181.5661,0.083678
1183.4298,0.083588
1185.2934,0.083668
1187.1571,0.083690
1189.0208,0.083735
1190.8844,0.083742
1192.7481,0.083572
1194.6118,0.083461
1196.4754,0.083493
1198.3391,0.083635
1200.2028,0.083804
1202.0665,0.083862
1203.9301,0.083780
1205.7938,0.083672
1207.6575,0.083647
1209.5211,0.083686
1211.3848,0.083708
1213.2485,0.083820
1215.1121,0.084025
1216.9758,0.084248
1218.8395,0.084449
1220.7031,0.084501
1222.5668,0.084397
1224.4305,0.084465
1226.2941,0.084673
1228.1578,0.084798
1230.0215,0.084924
1231.8852,0.085111
1233.7488,0.085287
1235.6125,0.085531
1237.4762,0.085658
1239.3398,0.085684
1241.2035,0.085853
1243.0672,0.086050
1244.9308,0.086293
1246.7945,0.086566
1248.6582,0.086805
1250.5218,0.087017
1252.3855,0.087304
1254.2492,0.087613
1256.1129,0.087874
1257.9765,0.088115
1259.8402,0.088387
1261.7039,0.088498
1263.5675,0.088525
1265.4312,0.088557
1267.2949,0.088422
1269.1585,0.088160
1271.0222,0.087898
1272.8859,0.087726
1274.7495,0.087592
1276.6132,0.087537
1278.4769,0.087514
1280.3405,0.087611
1282.2042,0.087582
1284.0679,0.087485
1285.9316,0.087619
1287.7952,0.087733
1289.6589,0.087897
1291.5226,0.088305
1293.3862,0.088917
1295.2499,0.089726
1297.1136,0.090613
1298.9772,0.091666
1300.8409,0.092892
1302.7046,0.094098
1304.5682,0.094467
1306.4319,0.093003
1308.2956,0.089205
1310.1592,0.083828
1312.0229,0.078904
1313.8866,0.075872
1315.7503,0.074885
1317.6139,0.075092
1319.4776,0.075684
1321.3413,0.076186
1323.2049,0.076639
1325.0686,0.077195
1326.9323,0.077671
1328.7959,0.078055
1330.6596,0.078380
1332.5233,0.078394
1334.3869,0.077783
1336.2506,0.076916
1338.1143,0.076458
1339.9780,0.076551
1341.8416,0.076386
1343.7053,0.076160
1345.5690,0.076206
1347.4326,0.076373
1349.2963,0.076646
1351.1600,0.077058
1353.0236,0.077477
1354.8873,0.077892
1356.7510,0.078043
1358.6146,0.078041
1360.4783,0.078218
1362.3420,0.079266
1364.2056,0.080449
1366.0693,0.080793
1367.9330,0.081545
1369.7967,0.082549
1371.6603,0.083076
1373.5240,0.084135
1375.3877,0.085650
1377.2513,0.086230
1379.1150,0.086681
1380.9787,0.087154
1382.8423,0.087502
1384.7060,0.087984
1386.5697,0.089031
1388.4333,0.090397
1390.2970,0.090333
1392.1607,0.089334
1394.0244,0.087693
1395.8880,0.084906
1397.7517,0.081508
1399.6154,0.077455
1401.4790,0.073471
1403.3427,0.069931
1405.2064,0.065600
1407.0700,0.060675
1408.9337,0.055716
1410.7974,0.050774
1412.6610,0.047064
1414.5247,0.044887
1416.3884,0.043947
1418.2520,0.044233
1420.1157,0.045641
1421.9794,0.045794
1423.8431,0.044757
1425.7067,0.042570
1427.5704,0.040740
1429.4341,0.039806
1431.2977,0.039722
1433.1614,0.040082
1435.0251,0.041048
1436.8887,0.043649
1438.7524,0.046024
1440.6161,0.047459
1442.4797,0.049666
1444.3434,0.051852
1446.2071,0.053582
1448.0707,0.054786
1449.9344,0.054393
1451.7981,0.052026
1453.6618,0.048663
1455.5254,0.045327
1457.3891,0.042494
1459.2528,0.041082
1461.1164,0.040221
1462.9801,0.039472
1464.8438,0.039240
1466.7074,0.038870
1468.5711,0.038283
1470.4348,0.037738
1472.2984,0.037804
1474.1621,0.038079
1476.0258,0.038047
1477.8895,0.037514
1479.7531,0.036876
1481.6168,0.036436
1483.4805,0.036012
1485.3441,0.035688
1487.2078,0.035693
1489.0715,0.036291
1490.9351,0.036830
1492.7988,0.036087
1494.6625,0.035663
1496.5261,0.036129
1498.3898,0.036828
1500.2535,0.036967
1502.1171,0.036601
1503.9808,0.035903
1505.8445,0.036284
1507.7082,0.039695
1509.5718,0.039713
1511.4355,0.039017
1513.2992,0.038970
1515.1628,0.039180
1517.0265,0.039968
1518.8902,0.040124
1520.7538,0.040871
1522.6175,0.042621
1524.4812,0.042840
1526.3448,0.043370
1528.2085,0.044166
1530.0722,0.044324
1531.9359,0.044977
1533.7995,0.046750
1535.6632,0.046774
1537.5269,0.045859
1539.3905,0.046716
1541.2542,0.050586
1543.1179,0.051449
1544.9815,0.052011
1546.8452,0.052456
1548.7089,0.053049
1550.5725,0.054482
1552.4362,0.055183
1554.2999,0.055740
1556.1635,0.055941
1558.0272,0.057139
1559.8909,0.063302
1561.7546,0.062420
1563.6182,0.061712
1565.4819,0.062470
1567.3456,0.063281
1569.2092,0.065135
1571.0729,0.067460
1572.9366,0.067532
1574.8002,0.068412
1576.6639,0.071739
1578.5276,0.073365
1580.3912,0.073709
1582.2549,0.075128
1584.1186,0.076842
1585.9822,0.078381
1587.8459,0.079797
1589.7096,0.081281
1591.5733,0.082567
1593.4369,0.083906
1595.3006,0.085459
1597.1643,0.086640
1599.0279,0.087313
1600.8916,0.088290
1602.7553,0.089109
1604.6189,0.089658
1606.4826,0.089997
1608.3463,0.090145
1610.2099,0.089751
1612.0736,0.088854
1613.9373,0.086811
1615.8010,0.084400
1617.6646,0.081038
1619.5283,0.078040
1621.3920,0.075321
1623.2556,0.071923
1625.1193,0.068176
1626.9830,0.065446
1628.8466,0.062050
1630.7103,0.058870
1632.5740,0.055974
1634.4376,0.052787
1636.3013,0.048345
1638.1650,0.046818
1640.0286,0.046757
1641.8923,0.046490
1643.7560,0.046135
1645.6197,0.046127
1647.4833,0.046208
1649.3470,0.046376
1651.2107,0.046309
1653.0743,0.046333
1654.9380,0.047091
1656.8017,0.047258
1658.6653,0.047076
1660.5290,0.046684
1662.3927,0.046092
1664.2563,0.045346
1666.1200,0.044590
1667.9837,0.043724
1669.8474,0.042738
1671.7110,0.042303
1673.5747,0.041957
1675.4384,0.041727
1677.3020,0.041764
1679.1657,0.041758
1681.0294,0.041362
1682.8930,0.040623
1684.7567,0.040328
1686.6204,0.040709
1688.4840,0.040718
1690.3477,0.040842
1692.2114,0.040581
1694.0750,0.039783
1695.9387,0.038173
1697.8024,0.036073
1699.6661,0.034075
1701.5297,0.030814
1703.3934,0.029120
1705.2571,0.027004
1707.1207,0.024018
1708.9844,0.022188
1710.8481,0.020878
1712.7117,0.019620
1714.5754,0.018457
1716.4391,0.017658
1718.3027,0.017353
1720.1664,0.017284
1722.0301,0.017173
1723.8937,0.016942
1725.7574,0.016684
1727.6211,0.016452
1729.4848,0.016122
1731.3484,0.015704
1733.2121,0.015200
1735.0758,0.014430
1736.9394,0.014094
1738.8031,0.013827
1740.6668,0.013279
1742.5304,0.013030
1744.3941,0.012867
1746.2578,0.012556
1748.1214,0.012344
1749.9851,0.012325
1751.8488,0.012164
1753.7125,0.011815
1755.5761,0.011494
1757.4398,0.011376
1759.3035,0.011400
1761.1671,0.011345
1763.0308,0.011294
1764.8945,0.011225
1766.7581,0.011118
1768.6218,0.011007
1770.4855,0.010910
1772.3491,0.010894
1774.2128,0.010982
1776.0765,0.010967
1777.9401,0.010897
1779.8038,0.010871
1781.6675,0.010951
1783.5312,0.011039
1785.3948,0.011142
1787.2585,0.011321
1789.1222,0.011316
1790.9858,0.011191
1792.8495,0.011260
1794.7132,0.011345
1796.5768,0.011266
1798.4405,0.011331
1800.3042,0.011569
1802.1678,0.011672
1804.0315,0.011769
1805.8952,0.011802
1807.7589,0.011815
1809.6225,0.012016
1811.4862,0.012194
1813.3499,0.012362
1815.2135,0.012350
1817.0772,0.012302
1818.9409,0.012552
1820.8045,0.013014
1822.6682,0.013267
1824.5319,0.013249
1826.3955,0.013150
1828.2592,0.012993
1830.1229,0.013129
1831.9865,0.013082
1833.8502,0.013032
1835.7139,0.013281
1837.5776,0.013340
1839.4412,0.013065
1841.3049,0.012800
1843.1686,0.012853
1845.0322,0.012912
1846.8959,0.012994
1848.7596,0.013052
1850.6232,0.012882
1852.4869,0.012795
1854.3506,0.012614
1856.2142,0.012635
1858.0779,0.012810
1859.9416,0.012799
1861.8052,0.012773
1863.6689,0.012661
1865.5326,0.012560
1867.3963,0.012626
1869.2599,0.012814
1871.1236,0.012882
1872.9873,0.013116
1874.8509,0.013609
1876.7146,0.014123
1878.5783,0.014272
1880.4419,0.014368
1882.3056,0.014473
1884.1693,0.014675
1886.0329,0.015160
1887.8966,0.015425
1889.7603,0.015351
1891.6240,0.015514
1893.4876,0.015909
1895.3513,0.016403
1897.2150,0.017010
1899.0786,0.017230
1900.9423,0.017239
1902.8060,0.017594
1904.6696,0.017975
1906.5333,0.018546
1908.3970,0.018593
1910.2606,0.017668
1912.1243,0.017693
1913.9880,0.018102
1915.8516,0.017734
1917.7153,0.017415
1919.5790,0.017424
1921.4427,0.016922
1923.3063,0.016268
1925.1700,0.015640
1927.0337,0.015316
1928.8973,0.015566
1930.7610,0.015243
1932.6247,0.014665
1934.4883,0.014351
1936.3520,0.013251
1938.2157,0.012230
1940.0793,0.012362
1941.9430,0.012602
1943.8067,0.010930
1945.6704,0.009867
1947.5340,0.010142
1949.3977,0.009558
1951.2614,0.008633
1953.1250,0.009058
1954.9887,0.009864
1956.8524,0.008878
1958.7160,0.007070
1960.5797,0.006717
1962.4434,0.007244
1964.3070,0.006281
1966.1707,0.005661
1968.0344,0.005576
1969.8980,0.005325
1971.7617,0.005875
1973.6254,0.005694
1975.4891,0.004662
1977.3527,0.004679
1979.2164,0.006368
1981.0801,0.007707
1982.9437,0.007179
1984.8074,0.006271
1986.6711,0.006908
1988.5347,0.007946
1990.3984,0.006940
1992.2621,0.006505
1994.1257,0.007117
1995.9894,0.007243
1997.8531,0.006846
1999.7167,0.006973
2001.5804,0.006917
2003.4441,0.005349
2005.3078,0.004177
2007.1714,0.005188
2009.0351,0.007002
2010.8988,0.007114
2012.7624,0.005466
2014.6261,0.004363
2016.4898,0.004860
2018.3534,0.006182
2020.2171,0.006362
2022.0808,0.004979
2023.9444,0.004449
2025.8081,0.005346
2027.6718,0.005787
2029.5355,0.005219
2031.3991,0.005601
2033.2628,0.006088
2035.1265,0.006063
2036.9901,0.006264
2038.8538,0.006916
2040.7175,0.007396
2042.5811,0.006522
2044.4448,0.007457
2046.3085,0.009765
2048.1721,0.010014
2050.0358,0.009457
2051.8995,0.009224
2053.7631,0.009206
2055.6268,0.009519
2057.4905,0.009446
2059.3542,0.009184
2061.2178,0.009554
2063.0815,0.009711
2064.9452,0.009338
2066.8088,0.009096
2068.6725,0.009256
2070.5362,0.009893
2072.3998,0.010402
2074.2635,0.010900
2076.1272,0.011005
2077.9908,0.011068
2079.8545,0.011010
2081.7182,0.010392
2083.5819,0.010051
2085.4455,0.010294
2087.3092,0.010189
2089.1729,0.009834
2091.0365,0.009847
2092.9002,0.010027
2094.7639,0.009888
2096.6275,0.009542
2098.4912,0.009482
2100.3549,0.009855
2102.2185,0.010021
2104.0822,0.009818
2105.9459,0.009830
2107.8095,0.010146
2109.6732,0.010786
2111.5369,0.010675
2113.4006,0.009964
2115.2642,0.010087
2117.1279,0.010560
2118.9916,0.010358
2120.8552,0.010050
2122.7189,0.010155
2124.5826,0.009435
2126.4462,0.008459
2128.3099,0.008362
2130.1736,0.008807
2132.0372,0.008746
2133.9009,0.008234
2135.7646,0.007943
2137.6282,0.007489
2139.4919,0.006554
2141.3556,0.006026
2143.2193,0.005528
2145.0829,0.005335
2146.9466,0.005351
2148.8103,0.005146
2150.6739,0.004606
2152.5376,0.003880
2154.4013,0.003017
2156.2649,0.000918
2158.1286,0.000056
2159.9923,0.002658
2161.8559,0.004739
2163.7196,0.006036
2165.5833,0.006780
2167.4470,0.006312
2169.3106,0.005594
2171.1743,0.005758
2173.0380,0.006060
2174.9016,0.005232
2176.7653,0.005437
2178.6290,0.005966
2180.4926,0.005728
2182.3563,0.005789
2184.2200,0.005584
2186.0836,0.005954
2187.9473,0.007082
2189.8110,0.007435
2191.6746,0.007733
2193.5383,0.009084
2195.4020,0.009568
2197.2657,0.008748
2199.1293,0.009046
2200.9930,0.009487
2202.8567,0.008618
2204.7203,0.008440
2206.5840,0.009599
2208.4477,0.010264
2210.3113,0.010247
2212.1750,0.010200
2214.0387,0.009823
2215.9023,0.009450
2217.7660,0.009671
2219.6297,0.010264
2221.4934,0.010774
2223.3570,0.010973
2225.2207,0.011106
2227.0844,0.011884
2228.9480,0.012496
2230.8117,0.012254
2232.6754,0.012479
2234.5390,0.013202
2236.4027,0.012868
2238.2664,0.012556
2240.1300,0.013224
2241.9937,0.013234
2243.8574,0.013373
2245.7210,0.014098
2247.5847,0.014045
2249.4484,0.013700
2251.3121,0.013361
2253.1757,0.013790
2255.0394,0.014581
2256.9031,0.014308
2258.7667,0.014271
2260.6304,0.014472
2262.4941,0.014635
2264.3577,0.015091
2266.2214,0.014707
2268.0851,0.014672
2269.9487,0.015359
2271.8124,0.015113
2273.6761,0.015002
2275.5397,0.015710
2277.4034,0.016119
2279.2671,0.016061
2281.1308,0.016389
2282.9944,0.016889
2284.8581,0.017192
2286.7218,0.017439
2288.5854,0.017242
2290.4491,0.017022
2292.3128,0.017251
2294.1764,0.017443
2296.0401,0.017563
2297.9038,0.017648
2299.7674,0.017473
2301.6311,0.017417
2303.4948,0.017469
2305.3585,0.017274
2307.2221,0.017295
2309.0858,0.017548
2310.9495,0.017702
2312.8131,0.017616
2314.6768,0.017881
2316.5405,0.018119
2318.4041,0.018326
2320.2678,0.019013
2322.1315,0.019365
2323.9951,0.019273
2325.8588,0.018811
2327.7225,0.018093
2329.5861,0.017911
2331.4498,0.017775
2333.3135,0.017638
2335.1772,0.018065
2337.0408,0.018245
2338.9045,0.017986
2340.7682,0.018073
2342.6318,0.018582
2344.4955,0.018693
2346.3592,0.018287
2348.2228,0.018179
2350.0865,0.018395
2351.9502,0.018496
2353.8138,0.018406
2355.6775,0.018171
2357.5412,0.017643
2359.4049,0.017380
2361.2685,0.018018
2363.1322,0.018592
2364.9959,0.018457
2366.8595,0.018449
2368.7232,0.018687
2370.5869,0.018954
2372.4505,0.018911
2374.3142,0.018808
2376.1779,0.019213
2378.0415,0.019552
2379.9052,0.019657
2381.7689,0.019485
2383.6325,0.019340
2385.4962,0.019481
2387.3599,0.019622
2389.2236,0.019919
2391.0872,0.019998
2392.9509,0.019845
2394.8146,0.020119
2396.6782,0.020309
2398.5419,0.019931
2400.4056,0.019776
2402.2692,0.020110
2404.1329,0.020234
2405.9966,0.020013
2407.8602,0.020204
2409.7239,0.020684
2411.5876,0.020865
2413.4512,0.020632
2415.3149,0.020419
2417.1786,0.020675
2419.0423,0.021131
2420.9059,0.021126
2422.7696,0.020666
2424.6333,0.020790
2426.4969,0.021249
2428.3606,0.021123
2430.2243,0.020877
2432.0879,0.020758
2433.9516,0.021007
2435.8153,0.021200
2437.6789,0.021139
2439.5426,0.021240
2441.4063,0.021180
2443.2700,0.021151
2445.1336,0.021278
2446.9973,0.021334
2448.8610,0.021289
2450.7246,0.021467
2452.5883,0.021854
2454.4520,0.021996
2456.3156,0.021560
2458.1793,0.021023
2460.0430,0.021054
2461.9066,0.021331
2463.7703,0.021329
2465.6340,0.021121
2467.4976,0.021112
2469.3613,0.021377
2471.2250,0.021578
2473.0887,0.021302
2474.9523,0.020806
2476.8160,0.020828
2478.6797,0.021247
2480.5433,0.021274
2482.4070,0.021162
2484.2707,0.021486
2486.1343,0.021680
2487.9980,0.021131
2489.8617,0.020560
2491.7253,0.020693
2493.5890,0.021152
2495.4527,0.021308
2497.3164,0.021135
2499.1800,0.021343
2501.0437,0.021454
2502.9074,0.021207
2504.7710,0.021345
2506.6347,0.021406
2508.4984,0.021195
2510.3620,0.021154
2512.2257,0.021406
2514.0894,0.021558
2515.9530,0.021460
2517.8167,0.021416
2519.6804,0.021567
2521.5440,0.021877
2523.4077,0.021929
2525.2714,0.021633
2527.1351,0.021306
2528.9987,0.021078
2530.8624,0.020853
2532.7261,0.020797
2534.5897,0.021194
2536.4534,0.021260
2538.3171,0.020960
2540.1807,0.021182
2542.0444,0.021756
2543.9081,0.021896
2545.7717,0.021276
2547.6354,0.020735
2549.4991,0.020612
2551.3627,0.020617
2553.2264,0.020854
2555.0901,0.020958
2556.9538,0.020797
2558.8174,0.020534
2560.6811,0.020285
2562.5448,0.020135
2564.4084,0.020076
2566.2721,0.019641
2568.1358,0.019449
2569.9994,0.019742
2571.8631,0.019892
2573.7268,0.020001
2575.5904,0.019937
2577.4541,0.019883
2579.3178,0.020064
2581.1815,0.020110
2583.0451,0.019903
2584.9088,0.019772
2586.7725,0.019747
2588.6361,0.020021
2590.4998,0.020102
2592.3635,0.019845
2594.2271,0.019711
2596.0908,0.019369
2597.9545,0.019133
2599.8181,0.019282
2601.6818,0.019672
2603.5455,0.019944
2605.4091,0.019812
2607.2728,0.019725
2609.1365,0.019727
2611.0002,0.019638
2612.8638,0.019784
2614.7275,0.019980
2616.5912,0.019965
2618.4548,0.019951
2620.3185,0.020009
2622.1822,0.020000
2624.0458,0.019799
2625.9095,0.019764
2627.7732,0.020199
2629.6368,0.020517
2631.5005,0.020559
2633.3642,0.020454
2635.2279,0.020312
2637.0915,0.020252
2638.9552,0.020137
2640.8189,0.020246
2642.6825,0.020418
2644.5462,0.020254
2646.4099,0.020042
2648.2735,0.020113
2650.1372,0.020272
2652.0009,0.020386
2653.8645,0.020304
2655.7282,0.020005
2657.5919,0.019814
2659.4555,0.019971
2661.3192,0.020123
2663.1829,0.019688
2665.0466,0.019288
2666.9102,0.019384
2668.7739,0.019429
2670.6376,0.019198
2672.5012,0.019054
2674.3649,0.019122
2676.2286,0.019134
2678.0922,0.019271
2679.9559,0.019535
2681.8196,0.019610
2683.6832,0.019551
2685.5469,0.019197
2687.4106,0.018885
2689.2742,0.019053
2691.1379,0.019095
2693.0016,0.018973
2694.8653,0.019026
2696.7289,0.018988
2698.5926,0.018893
2700.4563,0.018935
2702.3199,0.018930
2704.1836,0.018848
2706.0473,0.018816
2707.9109,0.019081
2709.7746,0.019424
2711.6383,0.019318
2713.5019,0.019064
2715.3656,0.019086
2717.2293,0.019084
2719.0930,0.018910
2720.9566,0.018937
2722.8203,0.019224
2724.6840,0.019550
2726.5476,0.019700
2728.4113,0.019576
2730.2750,0.019562
2732.1386,0.019770
2734.0023,0.019831
2735.8660,0.019739
2737.7296,0.019964
2739.5933,0.020262
2741.4570,0.020279
2743.3206,0.020083
2745.1843,0.019788
2747.0480,0.020051
2748.9117,0.020811
2750.7753,0.021151
2752.6390,0.020900
2754.5027,0.020713
2756.3663,0.020828
2758.2300,0.020947
2760.0937,0.020991
2761.9573,0.020988
2763.8210,0.021050
2765.6847,0.021215
2767.5483,0.021369
2769.4120,0.021273
2771.2757,0.021227
2773.1394,0.021476
2775.0030,0.021820
2776.8667,0.022139
2778.7304,0.022107
2780.5940,0.021917
2782.4577,0.021942
2784.3214,0.021821
2786.1850,0.021656
2788.0487,0.021679
2789.9124,0.021604
2791.7760,0.021524
2793.6397,0.021653
2795.5034,0.021668
2797.3670,0.021624
2799.2307,0.021562
2801.0944,0.021233
2802.9581,0.021174
2804.8217,0.021477
2806.6854,0.021454
2808.5491,0.021129
2810.4127,0.021101
2812.2764,0.021225
2814.1401,0.021069
2816.0037,0.020908
2817.8674,0.021128
2819.7311,0.021426
2821.5947,0.021482
2823.4584,0.021599
2825.3221,0.021865
2827.1857,0.021941
2829.0494,0.021611
2830.9131,0.021342
2832.7768,0.021633
2834.6404,0.022005
2836.5041,0.022042
2838.3678,0.022127
2840.2314,0.022285
2842.0951,0.022478
2843.9588,0.022744
2845.8224,0.022877
2847.6861,0.022880
2849.5498,0.023054
2851.4134,0.023437
2853.2771,0.023695
2855.1408,0.023774
2857.0045,0.023947
2858.8681,0.024229
2860.7318,0.024344
2862.5955,0.024352
2864.4591,0.024411
2866.3228,0.024478
2868.1865,0.024647
2870.0501,0.024612
2871.9138,0.024486
2873.7775,0.024962
2875.6411,0.025480
2877.5048,0.025389
2879.3685,0.025212
2881.2321,0.025222
2883.0958,0.025209
2884.9595,0.025283
2886.8232,0.025423
2888.6868,0.025466
2890.5505,0.025555
2892.4142,0.025857
2894.2778,0.026128
2896.1415,0.026226
2898.0052,0.026294
2899.8688,0.026303
2901.7325,0.026009
2903.5962,0.025805
2905.4598,0.026176
2907.3235,0.026562
2909.1872,0.026713
2911.0509,0.026622
2912.9145,0.026704
2914.7782,0.026885
2916.6419,0.027000
2918.5055,0.027292
2920.3692,0.027376
2922.2329,0.027400
2924.0965,0.027585
2925.9602,0.027517
2927.8239,0.027396
2929.6875,0.027319
2931.5512,0.027346
2933.4149,0.027901
2935.2785,0.028374
2937.1422,0.028093
2939.0059,0.027423
2940.8696,0.027172
2942.7332,0.027199
2944.5969,0.027368
2946.4606,0.027733
2948.3242,0.027673
2950.1879,0.027703
2952.0516,0.027782
2953.9152,0.027506
2955.7789,0.027222
2957.6426,0.026778
2959.5062,0.027027
2961.3699,0.027965
2963.2336,0.028106
2965.0972,0.027627
2966.9609,0.027435
2968.8246,0.027742
2970.6883,0.028171
2972.5519,0.028367
2974.4156,0.028392
2976.2793,0.028438
2978.1429,0.028605
2980.0066,0.028730
2981.8703,0.028695
2983.7339,0.028692
2985.5976,0.028868
2987.4613,0.028947
2989.3249,0.028809
2991.1886,0.028763
2993.0523,0.028968
2994.9160,0.029026
2996.7796,0.029004
2998.6433,0.029265
3000.5070,0.029304
3002.3706,0.029380
3004.2343,0.030030
3006.0980,0.030379
3007.9616,0.030098
3009.8253,0.029831
3011.6890,0.030227
3013.5526,0.030910
3015.4163,0.030962
3017.2800,0.031050
3019.1436,0.031593
3021.0073,0.031707
3022.8710,0.031267
3024.7347,0.031002
3026.5983,0.030893
3028.4620,0.030617
3030.3257,0.030560
3032.1893,0.031051
3034.0530,0.031360
3035.9167,0.031543
3037.7803,0.031516
3039.6440,0.031232
3041.5077,0.031083
3043.3713,0.031331
3045.2350,0.031625
3047.0987,0.031553
3048.9624,0.031436
3050.8260,0.031570
3052.6897,0.031573
3054.5534,0.031376
3056.4170,0.031606
3058.2807,0.031888
3060.1444,0.031723
3062.0080,0.031842
3063.8717,0.031518
3065.7354,0.030613
3067.5990,0.030219
3069.4627,0.030090
3071.3264,0.030034
3073.1900,0.030384
3075.0537,0.030579
3076.9174,0.030572
3078.7811,0.030645
3080.6447,0.030488
3082.5084,0.030431
3084.3721,0.030735
3086.2357,0.030528
3088.0994,0.029675
3089.9631,0.029195
3091.8267,0.029310
3093.6904,0.029226
3095.5541,0.029009
3097.4177,0.029001
3099.2814,0.028659
3101.1451,0.028478
3103.0087,0.028449
3104.8724,0.027897
3106.7361,0.027610
3108.5998,0.027696
3110.4634,0.027894
3112.3271,0.027692
3114.1908,0.027300
3116.0544,0.027171
3117.9181,0.026850
3119.7818,0.026592
3121.6454,0.026754
3123.5091,0.026342
3125.3728,0.025672
3127.2364,0.025438
3129.1001,0.025440
3130.9638,0.025630
3132.8275,0.025457
3134.6911,0.025192
3136.5548,0.025193
3138.4185,0.024553
3140.2821,0.024271
3142.1458,0.024681
3144.0095,0.024641
3145.8731,0.024214
3147.7368,0.024386
3149.6005,0.024272
3151.4641,0.023729
3153.3278,0.023688
3155.1915,0.023953
3157.0551,0.024025
3158.9188,0.023354
3160.7825,0.022416
3162.6462,0.022379
3164.5098,0.022847
3166.3735,0.022521
3168.2372,0.021938
3170.1008,0.021932
3171.9645,0.021925
3173.8282,0.021878
3175.6918,0.021648
3177.5555,0.021928
3179.4192,0.022137
3181.2828,0.021699
3183.1465,0.021801
3185.0102,0.021808
3186.8739,0.021357
3188.7375,0.021580
3190.6012,0.021738
3192.4649,0.021273
3194.3285,0.021143
3196.1922,0.020961
3198.0559,0.020466
3199.9195,0.020388
3201.7832,0.020272
3203.6469,0.020504
3205.5105,0.020983
3207.3742,0.020867
3209.2379,0.021303
3211.1015,0.021760
3212.9652,0.021072
3214.8289,0.020613
3216.6926,0.020649
3218.5562,0.020885
3220.4199,0.020593
3222.2836,0.020121
3224.1472,0.020219
3226.0109,0.020727
3227.8746,0.021293
3229.7382,0.021302
3231.6019,0.020230
3233.4656,0.019944
3235.3292,0.020140
3237.1929,0.020296
3239.0566,0.021271
3240.9202,0.021695
3242.7839,0.021644
3244.6476,0.021343
3246.5113,0.020672
3248.3749,0.020870
3250.2386,0.021648
3252.1023,0.021768
3253.9659,0.021158
3255.8296,0.020920
3257.6933,0.020879
3259.5569,0.020877
3261.4206,0.021015
3263.2843,0.021004
3265.1479,0.021183
3267.0116,0.021207
3268.8753,0.021296
3270.7390,0.021291
3272.6026,0.020470
3274.4663,0.019892
3276.3300,0.020397
3278.1936,0.020775
3280.0573,0.020301
3281.9210,0.019639
3283.7846,0.019882
3285.6483,0.020762
3287.5120,0.020358
3289.3756,0.019282
3291.2393,0.019448
3293.1030,0.020171
3294.9666,0.019989
3296.8303,0.019254
3298.6940,0.019006
3300.5577,0.019172
3302.4213,0.018909
3304.2850,0.018547
3306.1487,0.018682
3308.0123,0.018703
3309.8760,0.018516
3311.7397,0.018827
3313.6033,0.018984
3315.4670,0.018196
3317.3307,0.018027
3319.1943,0.018571
3321.0580,0.018160
3322.9217,0.017776
3324.7854,0.018397
3326.6490,0.018860
3328.5127,0.018943
3330.3764,0.019117
3332.2400,0.018446
3334.1037,0.017749
3335.9674,0.017610
3337.8310,0.017648
3339.6947,0.017311
3341.5584,0.017288
3343.4220,0.017411
3345.2857,0.016954
3347.1494,0.016801
3349.0130,0.016463
3350.8767,0.016113
3352.7404,0.016782
3354.6041,0.016735
3356.4677,0.015576
3358.3314,0.014499
3360.1951,0.014235
3362.0587,0.015440
3363.9224,0.015330
3365.7861,0.014055
3367.6497,0.014502
3369.5134,0.014869
3371.3771,0.015009
3373.2407,0.014510
3375.1044,0.014484
3376.9681,0.015062
3378.8317,0.015341
3380.6954,0.015339
3382.5591,0.015276
3384.4228,0.015602
3386.2864,0.015354
3388.1501,0.014185
3390.0138,0.014077
3391.8774,0.014363
3393.7411,0.015274
3395.6048,0.015416
3397.4684,0.014616
3399.3321,0.014182
3401.1958,0.014600
3403.0594,0.013704
3404.9231,0.012146
3406.7868,0.012206
3408.6505,0.013040
3410.5141,0.012951
3412.3778,0.012285
3414.2415,0.012673
3416.1051,0.013309
3417.9688,0.012821
3419.8325,0.012825
3421.6961,0.013204
3423.5598,0.013007
3425.4235,0.012331
3427.2871,0.012122
3429.1508,0.012089
3431.0145,0.011180
3432.8781,0.010952
3434.7418,0.011025
3436.6055,0.011434
3438.4692,0.013206
3440.3328,0.012923
3442.1965,0.011192
3444.0602,0.010845
3445.9238,0.011392
3447.7875,0.011914
3449.6512,0.011892
3451.5148,0.011367
3453.3785,0.011873
3455.2422,0.012558
3457.1058,0.011659
3458.9695,0.010997
3460.8332,0.011272
3462.6969,0.011145
3464.5605,0.011081
3466.4242,0.011076
3468.2879,0.011082
3470.1515,0.011538
3472.0152,0.010857
3473.8789,0.009478
3475.7425,0.009225
3477.6062,0.010059
3479.4699,0.009682
3481.3335,0.008239
3483.1972,0.009055
3485.0609,0.009863
3486.9245,0.009073
3488.7882,0.007955
3490.6519,0.008335
3492.5156,0.009267
3494.3792,0.008611
3496.2429,0.007808
3498.1066,0.007327
3499.9702,0.006506
3501.8339,0.007393
3503.6976,0.008136
3505.5612,0.006953
3507.4249,0.006114
3509.2886,0.006708
3511.1522,0.006649
3513.0159,0.006152
3514.8796,0.006017
3516.7432,0.005919
3518.6069,0.005073
3520.4706,0.004350
3522.3343,0.004694
3524.1979,0.005088
3526.0616,0.004342
3527.9253,0.003667
3529.7889,0.004068
3531.6526,0.004545
3533.5163,0.005479
3535.3799,0.005256
3537.2436,0.004473
3539.1073,0.004592
3540.9709,0.004735
3542.8346,0.004573
3544.6983,0.004085
3546.5620,0.003114
3548.4256,0.003440
3550.2893,0.003887
3552.1530,0.003449
3554.0166,0.004112
3555.8803,0.004189
3557.7440,0.003507
3559.6076,0.003766
3561.4713,0.003463
3563.3350,0.002718
3565.1986,0.003447
3567.0623,0.003306
3568.9260,0.000730
3570.7896,-0.000232
3572.6533,0.001434
3574.5170,0.003057
3576.3807,0.004143
3578.2443,0.003802
3580.1080,0.003150
3581.9717,0.002689
3583.8353,0.003453
3585.6990,0.004088
3587.5627,0.002144
3589.4263,-0.000558
3591.2900,0.000251
3593.1537,0.001435
3595.0173,0.002450
3596.8810,0.003725
3598.7447,0.003466
3600.6084,0.003106
3602.4720,0.003137
3604.3357,0.002988
3606.1994,0.002184
3608.0630,0.001234
3609.9267,0.002203
3611.7904,0.002723
3613.6540,0.001620
3615.5177,0.000838
3617.3814,0.000929
3619.2450,0.001031
3621.1087,0.001073
3622.9724,0.002368
3624.8360,0.003244
3626.6997,0.002573
3628.5634,0.001726
3630.4271,0.000554
3632.2907,0.000825
3634.1544,0.002405
3636.0181,0.003046
3637.8817,0.003485
3639.7454,0.003937
3641.6091,0.003405
3643.4727,0.003200
3645.3364,0.003653
3647.2001,0.003267
3649.0637,0.000313
3650.9274,-0.002043
3652.7911,0.000258
3654.6547,0.002364
3656.5184,0.002411
3658.3821,0.001804
3660.2458,0.002380
3662.1094,0.003181
3663.9731,0.003414
3665.8368,0.003585
3667.7004,0.003441
3669.5641,0.002572
3671.4278,0.002053
3673.2914,0.001919
3675.1551,0.001364
3677.0188,0.000052
3678.8824,0.000829
3680.7461,0.003188
3682.6098,0.003883
3684.4735,0.003550
3686.3371,0.002860
3688.2008,0.002345
3690.0645,0.001182
3691.9281,-0.000197
3693.7918,0.001462
3695.6555,0.003437
3697.5191,0.003718
3699.3828,0.004093
3701.2465,0.004142
3703.1101,0.003278
3704.9738,0.003094
3706.8375,0.003298
3708.7011,0.002718
3710.5648,0.002542
3712.4285,0.002790
3714.2922,0.002398
3716.1558,0.002474
3718.0195,0.003112
3719.8832,0.003665
3721.7468,0.004078
3723.6105,0.003752
3725.4742,0.003387
3727.3378,0.002975
3729.2015,0.002190
3731.0652,0.002175
3732.9288,0.002526
3734.7925,0.001484
3736.6562,0.000515
3738.5199,0.002233
3740.3835,0.003581
3742.2472,0.003135
3744.1109,0.002624
3745.9745,0.001052
3747.8382,0.000672
3749.7019,0.002412
3751.5655,0.002240
3753.4292,0.001624
3755.2929,0.002412
3757.1565,0.003775
3759.0202,0.003815
3760.8839,0.002977
3762.7475,0.003306
3764.6112,0.003327
3766.4749,0.003283
3768.3386,0.003697
3770.2022,0.004208
3772.0659,0.004202
3773.9296,0.003505
3775.7932,0.003720
3777.6569,0.004060
3779.5206,0.004314
3781.3842,0.003939
3783.2479,0.003229
3785.1116,0.004220
3786.9752,0.004708
3788.8389,0.004407
3790.7026,0.004236
3792.5662,0.004137
3794.4299,0.003902
3796.2936,0.003520
3798.1573,0.003598
3800.0209,0.003805
3801.8846,0.003711
3803.7483,0.002753
3805.6119,0.002320
3807.4756,0.002824
3809.3393,0.003267
3811.2029,0.004125
3813.0666,0.005101
3814.9303,0.005252
3816.7939,0.004114
3818.6576,0.002148
3820.5213,0.001962
3822.3850,0.002528
3824.2486,0.003082
3826.1123,0.004118
3827.9760,0.004103
3829.8396,0.004091
3831.7033,0.004115
3833.5670,0.004173
3835.4306,0.003908
3837.2943,0.003164
3839.1580,0.002675
3841.0216,0.002310
3842.8853,0.003221
3844.7490,0.004056
3846.6126,0.003811
3848.4763,0.004147
3850.3400,0.003799
3852.2037,0.003310
3854.0673,0.002967
3855.9310,0.002059
3857.7947,0.002458
3859.6583,0.003698
3861.5220,0.004291
3863.3857,0.003982
3865.2493,0.003628
3867.1130,0.004276
3868.9767,0.004110
3870.8403,0.003586
3872.7040,0.002965
3874.5677,0.003227
3876.4314,0.003658
3878.2950,0.004533
3880.1587,0.004771
3882.0224,0.004235
3883.8860,0.003835
3885.7497,0.004437
3887.6134,0.004377
3889.4770,0.004197
3891.3407,0.004430
3893.2044,0.004222
3895.0680,0.004710
3896.9317,0.005065
3898.7954,0.004338
3900.6590,0.003272
3902.5227,0.001880
3904.3864,0.002018
3906.2501,0.002641
3908.1137,0.003233
3909.9774,0.004465
3911.8411,0.005255
3913.7047,0.004566
3915.5684,0.004165
3917.4321,0.004434
3919.2957,0.004521
3921.1594,0.004425
3923.0231,0.004473
3924.8867,0.004716
3926.7504,0.004891
3928.6141,0.004944
3930.4777,0.005248
3932.3414,0.004702
3934.2051,0.003808
3936.0688,0.003925
3937.9324,0.004513
3939.7961,0.004651
3941.6598,0.005414
3943.5234,0.005658
3945.3871,0.005021
3947.2508,0.004787
3949.1144,0.004521
3950.9781,0.004398
3952.8418,0.004672
3954.7054,0.005427
3956.5691,0.006236
3958.4328,0.005574
3960.2965,0.004352
3962.1601,0.004135
3964.0238,0.003885
3965.8875,0.003643
3967.7511,0.004345
3969.6148,0.004912
3971.4785,0.004726
3973.3421,0.004830
3975.2058,0.004848
3977.0695,0.004558
3978.9331,0.004832
3980.7968,0.004989
3982.6605,0.005075
3984.5241,0.005321
3986.3878,0.005178
3988.2515,0.004793
3990.1152,0.004946
3991.9788,0.005264
3993.8425,0.005395
3995.7062,0.005453
3997.5698,0.005216
3999.4335,0.005006
