Wavenumber,Intensity
650.4205,0.127132
652.2841,0.128212
654.1478,0.129975
656.0115,0.129545
657.8751,0.130744
659.7388,0.133264
661.6025,0.138514
663.4661,0.143321
665.3298,0.146976
667.1935,0.151374
669.0571,0.149615
670.9208,0.139344
672.7845,0.132520
674.6481,0.128880
676.5118,0.127477
678.3755,0.124185
680.2392,0.120251
682.1028,0.117203
683.9665,0.115157
685.8302,0.113559
687.6938,0.113024
689.5575,0.111394
691.4212,0.109335
693.2848,0.107072
695.1485,0.105392
697.0122,0.104267
698.8758,0.102664
700.7395,0.100995
702.6032,0.100148
704.4669,0.098652
706.3305,0.096158
708.1942,0.094170
710.0579,0.092695
711.9215,0.090881
713.7852,0.088780
715.6489,0.086443
717.5125,0.085402
719.3762,0.084483
721.2399,0.081868
723.1035,0.079712
724.9672,0.079635
726.8309,0.078703
728.6945,0.077360
730.5582,0.076332
732.4219,0.075454
734.2856,0.074703
736.1492,0.074339
738.0129,0.074794
739.8766,0.075767
741.7402,0.075290
743.6039,0.074638
745.4676,0.075365
747.3312,0.074790
749.1949,0.073483
751.0586,0.072802
752.9222,0.072609
754.7859,0.072623
756.6496,0.072028
758.5132,0.071139
760.3769,0.070291
762.2406,0.069884
764.1043,0.070194
765.9679,0.070342
767.8316,0.069965
769.6953,0.069704
771.5589,0.069603
773.4226,0.069562
775.2863,0.069992
777.1499,0.070385
779.0136,0.070412
780.8773,0.070595
782.7409,0.070717
784.6046,0.070427
786.4683,0.070231
788.3320,0.070514
790.1956,0.070679
792.0593,0.070358
793.9230,0.070116
795.7866,0.070282
797.6503,0.070295
799.5140,0.069981
801.3776,0.069809
803.2413,0.069816
805.1050,0.069749
806.9686,0.069682
808.8323,0.069169
810.6960,0.068206
812.5596,0.067265
814.4233,0.066769
816.2870,0.065948
818.1507,0.065073
820.0143,0.064312
821.8780,0.063401
823.7417,0.062852
825.6053,0.062761
827.4690,0.062896
829.3327,0.063177
831.1963,0.062624
833.0600,0.061317
834.9237,0.060016
836.7873,0.059511
838.6510,0.059496
840.5147,0.059323
842.3784,0.059305
844.2420,0.059534
846.1057,0.059947
847.9694,0.060378
849.8330,0.060022
851.6967,0.059182
853.5604,0.058388
855.4240,0.058034
857.2877,0.058085
859.1514,0.057995
861.0150,0.057834
862.8787,0.057809
864.7424,0.058029
866.6060,0.058477
868.4697,0.058741
870.3334,0.058618
872.1971,0.059016
874.0607,0.059814
875.9244,0.060063
877.7881,0.060148
879.6517,0.060250
881.5154,0.060551
883.3791,0.061001
885.2427,0.061269
887.1064,0.061258
888.9701,0.061236
890.8337,0.061470
892.6974,0.061907
894.5611,0.062536
896.4247,0.063304
898.2884,0.064235
900.1521,0.065217
902.0158,0.066191
903.8794,0.067359
905.7431,0.068447
907.6068,0.069593
909.4704,0.071301
911.3341,0.073206
913.1978,0.074971
915.0614,0.076498
916.9251,0.076721
918.7888,0.075476
920.6524,0.074221
922.5161,0.073739
924.3798,0.074009
926.2435,0.074578
928.1071,0.075028
929.9708,0.075392
931.8345,0.075949
933.6981,0.076671
935.5618,0.077498
937.4255,0.078415
939.2891,0.079184
941.1528,0.080133
943.0165,0.081184
944.8801,0.082182
946.7438,0.083077
948.6075,0.084017
950.4711,0.085058
952.3348,0.086260
954.1985,0.087593
956.0622,0.089210
957.9258,0.090864
959.7895,0.092466
961.6532,0.094160
963.5168,0.095999
965.3805,0.097829
967.2442,0.099671
969.1078,0.101622
970.9715,0.103631
972.8352,0.105513
974.6988,0.107549
976.5625,0.109956
978.4262,0.113192
980.2899,0.117075
982.1535,0.119162
984.0172,0.116777
985.8809,0.113336
987.7445,0.112929
989.6082,0.114839
991.4719,0.116998
993.3355,0.118811
995.1992,0.120536
997.0629,0.122546
998.9265,0.124757
1000.7902,0.127354
1002.6539,0.130184
1004.5175,0.133098
1006.3812,0.135972
1008.2449,0.138253
1010.1086,0.139471
1011.9722,0.139648
1013.8359,0.138999
1015.6996,0.137787
1017.5632,0.136294
1019.4269,0.134643
1021.2906,0.132829
1023.1542,0.131135
1025.0179,0.129256
1026.8816,0.127519
1028.7452,0.126141
1030.6089,0.124865
1032.4726,0.123648
1034.3362,0.122602
1036.1999,0.121603
1038.0636,0.120475
1039.9273,0.118971
1041.7909,0.117492
1043.6546,0.116008
1045.5183,0.114108
1047.3819,0.111567
1049.2456,0.108424
1051.1093,0.104857
1052.9729,0.101615
1054.8366,0.099261
1056.7003,0.097973
1058.5639,0.097475
1060.4276,0.097418
1062.2913,0.097576
1064.1550,0.097798
1066.0186,0.097901
1067.8823,0.098158
1069.7460,0.098726
1071.6096,0.099510
1073.4733,0.100269
1075.3370,0.101023
1077.2006,0.101692
1079.0643,0.102184
1080.9280,0.102391
1082.7916,0.102208
1084.6553,0.101887
1086.5190,0.101497
1088.3826,0.100982
1090.2463,0.100569
1092.1100,0.100511
1093.9737,0.100712
1095.8373,0.100987
1097.7010,0.101275
1099.5647,0.101436
1101.4283,0.101508
1103.2920,0.101441
1105.1557,0.100897
1107.0193,0.099672
1108.8830,0.097876
1110.7467,0.095588
1112.6103,0.092919
1114.4740,0.090225
1116.3377,0.087824
1118.2014,0.085762
1120.0650,0.083917
1121.9287,0.082342
1123.7924,0.081189
1125.6560,0.080263
1127.5197,0.079361
1129.3834,0.078476
1131.2470,0.077583
1133.1107,0.076578
1134.9744,0.075685
1136.8380,0.074954
1138.7017,0.074263
1140.5654,0.073591
1142.4290,0.073061
1144.2927,0.072668
1146.1564,0.072362
1148.0201,0.072155
1149.8837,0.072022
1151.7474,0.072051
1153.6111,0.072133
1155.4747,0.072201
1157.3384,0.072311
1159.2021,0.072237
1161.0657,0.071959
1162.9294,0.071708
1164.7931,0.071479
1166.6567,0.071231
1168.5204,0.071095
1170.3841,0.070967
1172.2477,0.070935
1174.1114,0.070792
1175.9751,0.070343
1177.8388,0.069802
1179.7024,0.069489
1181.5661,0.069505
1183.4298,0.069738
1185.2934,0.070042
1187.1571,0.070212
1189.0208,0.070167
1190.8844,0.070109
1192.7481,0.070058
1194.6118,0.069995
1196.4754,0.069984
1198.3391,0.070015
1200.2028,0.070011
1202.0665,0.069845
1203.9301,0.069380
1205.7938,0.068740
1207.6575,0.068130
1209.5211,0.067715
1211.3848,0.067668
1213.2485,0.067961
1215.1121,0.068436
1216.9758,0.069016
1218.8395,0.069616
1220.7031,0.070242
1222.5668,0.070878
1224.4305,0.071459
1226.2941,0.071943
1228.1578,0.072317
1230.0215,0.072456
1231.8852,0.072365
1233.7488,0.072170
1235.6125,0.071882
1237.4762,0.071575
1239.3398,0.071310
1241.2035,0.070928
1243.0672,0.070393
1244.9308,0.069884
1246.7945,0.069401
1248.6582,0.068795
1250.5218,0.068193
1252.3855,0.067596
1254.2492,0.067028
1256.1129,0.066556
1257.9765,0.066071
1259.8402,0.065583
1261.7039,0.065230
1263.5675,0.064889
1265.4312,0.064443
1267.2949,0.063892
1269.1585,0.063388
1271.0222,0.063118
1272.8859,0.063031
1274.7495,0.063103
1276.6132,0.063226
1278.4769,0.063367
1280.3405,0.063503
1282.2042,0.063526
1284.0679,0.063373
1285.9316,0.063190
1287.7952,0.063303
1289.6589,0.063633
1291.5226,0.064163
1293.3862,0.064956
1295.2499,0.066111
1297.1136,0.067310
1298.9772,0.068337
1300.8409,0.069532
1302.7046,0.071101
1304.5682,0.072728
1306.4319,0.073506
1308.2956,0.072500
1310.1592,0.069952
1312.0229,0.067468
1313.8866,0.066193
1315.7503,0.066011
1317.6139,0.066644
1319.4776,0.067536
1321.3413,0.068028
1323.2049,0.068385
1325.0686,0.068985
1326.9323,0.069719
1328.7959,0.070393
1330.6596,0.070863
1332.5233,0.070972
1334.3869,0.070445
1336.2506,0.069400
1338.1143,0.068569
1339.9780,0.068285
1341.8416,0.067316
1343.7053,0.066056
1345.5690,0.065263
1347.4326,0.064903
1349.2963,0.064977
1351.1600,0.065241
1353.0236,0.065519
1354.8873,0.066089
1356.7510,0.066714
1358.6146,0.067054
1360.4783,0.067550
1362.3420,0.069098
1364.2056,0.070315
1366.0693,0.070659
1367.9330,0.071989
1369.7967,0.073726
1371.6603,0.074947
1373.5240,0.077606
1375.3877,0.080803
1377.2513,0.082205
1379.1150,0.083608
1380.9787,0.085058
1382.8423,0.086052
1384.7060,0.087036
1386.5697,0.089469
1388.4333,0.092484
1390.2970,0.092989
1392.1607,0.092883
1394.0244,0.093826
1395.8880,0.094387
1397.7517,0.093460
1399.6154,0.092263
1401.4790,0.089973
1403.3427,0.088174
1405.2064,0.086757
1407.0700,0.083657
1408.9337,0.079779
1410.7974,0.076384
1412.6610,0.073687
1414.5247,0.071647
1416.3884,0.070433
1418.2520,0.071524
1420.1157,0.073521
1421.9794,0.072719
1423.8431,0.071954
1425.7067,0.070624
1427.5704,0.069222
1429.4341,0.069378
1431.2977,0.070009
1433.1614,0.069857
1435.0251,0.070787
1436.8887,0.074158
1438.7524,0.075171
1440.6161,0.074574
1442.4797,0.074712
1444.3434,0.074642
1446.2071,0.074853
1448.0707,0.075821
1449.9344,0.075409
1451.7981,0.073498
1453.6618,0.070984
1455.5254,0.069746
1457.3891,0.072076
1459.2528,0.071646
1461.1164,0.068748
1462.9801,0.067381
1464.8438,0.067723
1466.7074,0.066824
1468.5711,0.064550
1470.4348,0.063066
1472.2984,0.063785
1474.1621,0.064783
1476.0258,0.064536
1477.8895,0.063732
1479.7531,0.063319
1481.6168,0.064146
1483.4805,0.064661
1485.3441,0.064873
1487.2078,0.066487
1489.0715,0.070461
1490.9351,0.074329
1492.7988,0.073791
1494.6625,0.073694
1496.5261,0.077166
1498.3898,0.081158
1500.2535,0.082122
1502.1171,0.081559
1503.9808,0.081015
1505.8445,0.083857
1507.7082,0.092526
1509.5718,0.091827
1511.4355,0.090489
1513.2992,0.089978
1515.1628,0.089689
1517.0265,0.090698
1518.8902,0.090697
1520.7538,0.091424
1522.6175,0.093216
1524.4812,0.092755
1526.3448,0.092978
1528.2085,0.092974
1530.0722,0.091798
1531.9359,0.091626
1533.7995,0.093097
1535.6632,0.091894
1537.5269,0.090332
1539.3905,0.092072
1541.2542,0.095749
1543.1179,0.095333
1544.9815,0.095023
1546.8452,0.093521
1548.7089,0.092597
1550.5725,0.092613
1552.4362,0.091799
1554.2999,0.090643
1556.1635,0.088965
1558.0272,0.090148
1559.8909,0.095943
1561.7546,0.091881
1563.6182,0.089453
1565.4819,0.088401
1567.3456,0.087399
1569.2092,0.087825
1571.0729,0.087689
1572.9366,0.085617
1574.8002,0.085010
1576.6639,0.086883
1578.5276,0.086659
1580.3912,0.085447
1582.2549,0.085242
1584.1186,0.085353
1585.9822,0.085550
1587.8459,0.085774
1589.7096,0.086024
1591.5733,0.086407
1593.4369,0.087027
1595.3006,0.087764
1597.1643,0.088382
1599.0279,0.088876
1600.8916,0.089494
1602.7553,0.090400
1604.6189,0.091347
1606.4826,0.092347
1608.3463,0.093776
1610.2099,0.095131
1612.0736,0.095844
1613.9373,0.096088
1615.8010,0.097573
1617.6646,0.099358
1619.5283,0.097797
1621.3920,0.096476
1623.2556,0.096642
1625.1193,0.095867
1626.9830,0.094251
1628.8466,0.092548
1630.7103,0.089807
1632.5740,0.086692
1634.4376,0.084358
1636.3013,0.082546
1638.1650,0.080630
1640.0286,0.078894
1641.8923,0.077064
1643.7560,0.075314
1645.6197,0.074421
1647.4833,0.073680
1649.3470,0.071794
1651.2107,0.070349
1653.0743,0.070360
1654.9380,0.069833
1656.8017,0.068313
1658.6653,0.066850
1660.5290,0.065273
1662.3927,0.063897
1664.2563,0.061828
1666.1200,0.059414
1667.9837,0.057453
1669.8474,0.055560
1671.7110,0.053670
1673.5747,0.052255
1675.4384,0.051064
1677.3020,0.049315
1679.1657,0.047824
1681.0294,0.046179
1682.8930,0.044681
1684.7567,0.042719
1686.6204,0.040593
1688.4840,0.039387
1690.3477,0.037455
1692.2114,0.034890
1694.0750,0.032631
1695.9387,0.029475
1697.8024,0.026274
1699.6661,0.025053
1701.5297,0.022301
1703.3934,0.020364
1705.2571,0.018873
1707.1207,0.016724
1708.9844,0.015564
1710.8481,0.014701
1712.7117,0.013736
1714.5754,0.012990
1716.4391,0.012337
1718.3027,0.011513
1720.1664,0.011158
1722.0301,0.011195
1723.8937,0.010850
1725.7574,0.010290
1727.6211,0.009975
1729.4848,0.009631
1731.3484,0.009297
1733.2121,0.009005
1735.0758,0.008299
1736.9394,0.008121
1738.8031,0.008361
1740.6668,0.008275
1742.5304,0.008017
1744.3941,0.007897
1746.2578,0.007952
1748.1214,0.008000
1749.9851,0.007743
1751.8488,0.007439
1753.7125,0.007429
1755.5761,0.007579
1757.4398,0.007692
1759.3035,0.007724
1761.1671,0.007799
1763.0308,0.007708
1764.8945,0.007696
1766.7581,0.007741
1768.6218,0.007572
1770.4855,0.007515
1772.3491,0.007658
1774.2128,0.007639
1776.0765,0.007531
1777.9401,0.007622
1779.8038,0.007879
1781.6675,0.007872
1783.5312,0.007700
1785.3948,0.007570
1787.2585,0.007425
1789.1222,0.007341
1790.9858,0.007506
1792.8495,0.007706
1794.7132,0.007674
1796.5768,0.007631
1798.4405,0.007739
1800.3042,0.007991
1802.1678,0.008046
1804.0315,0.007947
1805.8952,0.007895
1807.7589,0.007787
1809.6225,0.007774
1811.4862,0.007810
1813.3499,0.007829
1815.2135,0.007827
1817.0772,0.007793
1818.9409,0.007997
1820.8045,0.008186
1822.6682,0.008019
1824.5319,0.007944
1826.3955,0.007839
1828.2592,0.007784
1830.1229,0.007755
1831.9865,0.007700
1833.8502,0.007978
1835.7139,0.008238
1837.5776,0.008043
1839.4412,0.007703
1841.3049,0.007703
1843.1686,0.007949
1845.0322,0.008074
1846.8959,0.007956
1848.7596,0.007802
1850.6232,0.007745
1852.4869,0.008002
1854.3506,0.008404
1856.2142,0.008426
1858.0779,0.008292
1859.9416,0.008237
1861.8052,0.008241
1863.6689,0.008326
1865.5326,0.008197
1867.3963,0.007978
1869.2599,0.007832
1871.1236,0.007803
1872.9873,0.007995
1874.8509,0.008005
1876.7146,0.007988
1878.5783,0.007959
1880.4419,0.007789
1882.3056,0.007859
1884.1693,0.007907
1886.0329,0.008002
1887.8966,0.008267
1889.7603,0.008553
1891.6240,0.008650
1893.4876,0.008371
1895.3513,0.008132
1897.2150,0.008007
1899.0786,0.007893
1900.9423,0.007860
1902.8060,0.007923
1904.6696,0.008112
1906.5333,0.008209
1908.3970,0.008263
1910.2606,0.008162
1912.1243,0.007558
1913.9880,0.007288
1915.8516,0.007550
1917.7153,0.007734
1919.5790,0.007608
1921.4427,0.007455
1923.3063,0.007291
1925.1700,0.007402
1927.0337,0.007575
1928.8973,0.007594
1930.7610,0.007582
1932.6247,0.007363
1934.4883,0.007695
1936.3520,0.008044
1938.2157,0.007786
1940.0793,0.008042
1941.9430,0.007950
1943.8067,0.006817
1945.6704,0.006865
1947.5340,0.007173
1949.3977,0.006505
1951.2614,0.006168
1953.1250,0.006816
1954.9887,0.007068
1956.8524,0.006713
1958.7160,0.006388
1960.5797,0.005330
1962.4434,0.004601
1964.3070,0.005306
1966.1707,0.005968
1968.0344,0.005157
1969.8980,0.004638
1971.7617,0.004795
1973.6254,0.004493
1975.4891,0.004196
1977.3527,0.003447
1979.2164,0.003772
1981.0801,0.005017
1982.9437,0.005108
1984.8074,0.005133
1986.6711,0.005590
1988.5347,0.005716
1990.3984,0.005978
1992.2621,0.006298
1994.1257,0.006146
1995.9894,0.004959
1997.8531,0.004063
1999.7167,0.004965
2001.5804,0.005847
2003.4441,0.005712
2005.3078,0.005015
2007.1714,0.005546
2009.0351,0.006262
2010.8988,0.005535
2012.7624,0.004721
2014.6261,0.003794
2016.4898,0.003284
2018.3534,0.003687
2020.2171,0.004333
2022.0808,0.005068
2023.9444,0.005221
2025.8081,0.003577
2027.6718,0.003255
2029.5355,0.004187
2031.3991,0.004343
2033.2628,0.005234
2035.1265,0.005237
2036.9901,0.005155
2038.8538,0.006635
2040.7175,0.006563
2042.5811,0.005799
2044.4448,0.006267
2046.3085,0.006900
2048.1721,0.007012
2050.0358,0.007147
2051.8995,0.007812
2053.7631,0.007919
2055.6268,0.008146
2057.4905,0.008285
2059.3542,0.007943
2061.2178,0.007802
2063.0815,0.008172
2064.9452,0.008021
2066.8088,0.007444
2068.6725,0.008343
2070.5362,0.009323
2072.3998,0.009284
2074.2635,0.009233
2076.1272,0.009239
2077.9908,0.009320
2079.8545,0.009540
2081.7182,0.009400
2083.5819,0.009247
2085.4455,0.009593
2087.3092,0.009933
2089.1729,0.009864
2091.0365,0.009886
2092.9002,0.009906
2094.7639,0.009694
2096.6275,0.009954
2098.4912,0.010029
2100.3549,0.009581
2102.2185,0.009515
2104.0822,0.009514
2105.9459,0.010082
2107.8095,0.010921
2109.6732,0.010769
2111.5369,0.010154
2113.4006,0.009628
2115.2642,0.009747
2117.1279,0.010123
2118.9916,0.010106
2120.8552,0.009953
2122.7189,0.009749
2124.5826,0.009593
2126.4462,0.009326
2128.3099,0.008817
2130.1736,0.007982
2132.0372,0.007914
2133.9009,0.008488
2135.7646,0.008045
2137.6282,0.007857
2139.4919,0.008191
2141.3556,0.007583
2143.2193,0.007048
2145.0829,0.006788
2146.9466,0.005591
2148.8103,0.004979
2150.6739,0.005421
2152.5376,0.005277
2154.4013,0.004843
2156.2649,0.004610
2158.1286,0.003934
2159.9923,0.003498
2161.8559,0.004507
2163.7196,0.005353
2165.5833,0.006384
2167.4470,0.007240
2169.3106,0.006759
2171.1743,0.006049
2173.0380,0.006431
2174.9016,0.006175
2176.7653,0.004669
2178.6290,0.005207
2180.4926,0.007446
2182.3563,0.007866
2184.2200,0.006709
2186.0836,0.006623
2187.9473,0.007679
2189.8110,0.008162
2191.6746,0.007951
2193.5383,0.008145
2195.4020,0.007957
2197.2657,0.007796
2199.1293,0.008698
2200.9930,0.008938
2202.8567,0.009240
2204.7203,0.008939
2206.5840,0.008247
2208.4477,0.009206
2210.3113,0.010412
2212.1750,0.010545
2214.0387,0.010225
2215.9023,0.009916
2217.7660,0.010019
2219.6297,0.009867
2221.4934,0.009295
2223.3570,0.009188
2225.2207,0.009470
2227.0844,0.010433
2228.9480,0.011027
2230.8117,0.010436
2232.6754,0.009973
2234.5390,0.010067
2236.4027,0.010606
2238.2664,0.011580
2240.1300,0.011857
2241.9937,0.011562
2243.8574,0.011754
2245.7210,0.011949
2247.5847,0.011846
2249.4484,0.011558
2251.3121,0.011544
2253.1757,0.011991
2255.0394,0.012161
2256.9031,0.011850
2258.7667,0.011913
2260.6304,0.012484
2262.4941,0.012685
2264.3577,0.012317
2266.2214,0.012356
2268.0851,0.012506
2269.9487,0.012548
2271.8124,0.012947
2273.6761,0.013339
2275.5397,0.013428
2277.4034,0.013322
2279.2671,0.013915
2281.1308,0.014678
2282.9944,0.014612
2284.8581,0.014568
2286.7218,0.014222
2288.5854,0.013889
2290.4491,0.014404
2292.3128,0.014795
2294.1764,0.014577
2296.0401,0.014209
2297.9038,0.014283
2299.7674,0.014559
2301.6311,0.014442
2303.4948,0.014316
2305.3585,0.014340
2307.2221,0.014522
2309.0858,0.014888
2310.9495,0.015005
2312.8131,0.014805
2314.6768,0.014978
2316.5405,0.015062
2318.4041,0.015036
2320.2678,0.015435
2322.1315,0.015742
2323.9951,0.016002
2325.8588,0.015869
2327.7225,0.015248
2329.5861,0.014895
2331.4498,0.014461
2333.3135,0.014196
2335.1772,0.014392
2337.0408,0.014500
2338.9045,0.014656
2340.7682,0.014785
2342.6318,0.015138
2344.4955,0.015441
2346.3592,0.015188
2348.2228,0.014677
2350.0865,0.014412
2351.9502,0.014537
2353.8138,0.014584
2355.6775,0.014648
2357.5412,0.014730
2359.4049,0.014307
2361.2685,0.014175
2363.1322,0.014466
2364.9959,0.014624
2366.8595,0.014546
2368.7232,0.014620
2370.5869,0.015030
2372.4505,0.014926
2374.3142,0.014650
2376.1779,0.014854
2378.0415,0.015349
2379.9052,0.015517
2381.7689,0.015312
2383.6325,0.015035
2385.4962,0.014989
2387.3599,0.014993
2389.2236,0.014840
2391.0872,0.014754
2392.9509,0.014903
2394.8146,0.014733
2396.6782,0.014660
2398.5419,0.015175
2400.4056,0.015402
2402.2692,0.015060
2404.1329,0.014883
2405.9966,0.015077
2407.8602,0.015401
2409.7239,0.015388
2411.5876,0.015234
2413.4512,0.015523
2415.3149,0.015787
2417.1786,0.015721
2419.0423,0.015743
2420.9059,0.015771
2422.7696,0.015571
2424.6333,0.015521
2426.4969,0.015412
2428.3606,0.015511
2430.2243,0.015789
2432.0879,0.015913
2433.9516,0.016191
2435.8153,0.016202
2437.6789,0.016162
2439.5426,0.016191
2441.4063,0.016023
2443.2700,0.016100
2445.1336,0.016279
2446.9973,0.016263
2448.8610,0.016403
2450.7246,0.016815
2452.5883,0.016954
2454.4520,0.016408
2456.3156,0.016313
2458.1793,0.016542
2460.0430,0.016509
2461.9066,0.016700
2463.7703,0.016975
2465.6340,0.017012
2467.4976,0.017173
2469.3613,0.017332
2471.2250,0.017168
2473.0887,0.016964
2474.9523,0.016574
2476.8160,0.016588
2478.6797,0.017120
2480.5433,0.017397
2482.4070,0.017433
2484.2707,0.017180
2486.1343,0.016968
2487.9980,0.017153
2489.8617,0.017626
2491.7253,0.018025
2493.5890,0.017698
2495.4527,0.017237
2497.3164,0.017453
2499.1800,0.017980
2501.0437,0.018192
2502.9074,0.017957
2504.7710,0.017790
2506.6347,0.018022
2508.4984,0.018078
2510.3620,0.017756
2512.2257,0.017887
2514.0894,0.018429
2515.9530,0.018779
2517.8167,0.018731
2519.6804,0.018262
2521.5440,0.017922
2523.4077,0.018172
2525.2714,0.018523
2527.1351,0.018462
2528.9987,0.018251
2530.8624,0.018466
2532.7261,0.018663
2534.5897,0.018779
2536.4534,0.019101
2538.3171,0.019106
2540.1807,0.018939
2542.0444,0.019269
2543.9081,0.019362
2545.7717,0.019187
2547.6354,0.019117
2549.4991,0.019087
2551.3627,0.019397
2553.2264,0.019822
2555.0901,0.019944
2556.9538,0.019992
2558.8174,0.020101
2560.6811,0.019921
2562.5448,0.019934
2564.4084,0.020100
2566.2721,0.020266
2568.1358,0.020546
2569.9994,0.020627
2571.8631,0.020680
2573.7268,0.020636
2575.5904,0.020678
2577.4541,0.020624
2579.3178,0.020480
2581.1815,0.020560
2583.0451,0.020768
2584.9088,0.021264
2586.7725,0.021499
2588.6361,0.021269
2590.4998,0.021438
2592.3635,0.021637
2594.2271,0.021888
2596.0908,0.022054
2597.9545,0.021760
2599.8181,0.021608
2601.6818,0.022072
2603.5455,0.022514
2605.4091,0.022659
2607.2728,0.022505
2609.1365,0.022433
2611.0002,0.022662
2612.8638,0.022906
2614.7275,0.023094
2616.5912,0.023158
2618.4548,0.022901
2620.3185,0.022894
2622.1822,0.023565
2624.0458,0.023950
2625.9095,0.023850
2627.7732,0.023721
2629.6368,0.023831
2631.5005,0.024031
2633.3642,0.024029
2635.2279,0.024299
2637.0915,0.024609
2638.9552,0.024374
2640.8189,0.024215
2642.6825,0.024349
2644.5462,0.024451
2646.4099,0.024419
2648.2735,0.024495
2650.1372,0.024609
2652.0009,0.024685
2653.8645,0.024746
2655.7282,0.024880
2657.5919,0.024984
2659.4555,0.024800
2661.3192,0.024553
2663.1829,0.024455
2665.0466,0.024414
2666.9102,0.024327
2668.7739,0.024369
2670.6376,0.024410
2672.5012,0.024512
2674.3649,0.024602
2676.2286,0.024736
2678.0922,0.025108
2679.9559,0.025154
2681.8196,0.025095
2683.6832,0.025044
2685.5469,0.025123
2687.4106,0.025523
2689.2742,0.025578
2691.1379,0.025371
2693.0016,0.025634
2694.8653,0.025890
2696.7289,0.025729
2698.5926,0.025788
2700.4563,0.026119
2702.3199,0.026241
2704.1836,0.026227
2706.0473,0.026326
2707.9109,0.026651
2709.7746,0.026789
2711.6383,0.026902
2713.5019,0.027323
2715.3656,0.027411
2717.2293,0.027148
2719.0930,0.027255
2720.9566,0.027560
2722.8203,0.027561
2724.6840,0.027551
2726.5476,0.027972
2728.4113,0.028336
2730.2750,0.028364
2732.1386,0.028325
2734.0023,0.028324
2735.8660,0.028454
2737.7296,0.028694
2739.5933,0.028874
2741.4570,0.029102
2743.3206,0.029285
2745.1843,0.029423
2747.0480,0.029545
2748.9117,0.029652
2750.7753,0.029747
2752.6390,0.030026
2754.5027,0.030068
2756.3663,0.029988
2758.2300,0.030032
2760.0937,0.030120
2761.9573,0.030330
2763.8210,0.030607
2765.6847,0.030981
2767.5483,0.031347
2769.4120,0.031579
2771.2757,0.031667
2773.1394,0.031481
2775.0030,0.031562
2776.8667,0.032177
2778.7304,0.032595
2780.5940,0.032726
2782.4577,0.032879
2784.3214,0.032577
2786.1850,0.032439
2788.0487,0.032643
2789.9124,0.032716
2791.7760,0.032793
2793.6397,0.032995
2795.5034,0.032931
2797.3670,0.032858
2799.2307,0.032818
2801.0944,0.032948
2802.9581,0.033113
2804.8217,0.033016
2806.6854,0.033019
2808.5491,0.033197
2810.4127,0.033048
2812.2764,0.032935
2814.1401,0.033009
2816.0037,0.033390
2817.8674,0.033732
2819.7311,0.033947
2821.5947,0.034100
2823.4584,0.034064
2825.3221,0.034073
2827.1857,0.034308
2829.0494,0.034312
2830.9131,0.034220
2832.7768,0.034535
2834.6404,0.034778
2836.5041,0.034971
2838.3678,0.035423
2840.2314,0.035860
2842.0951,0.036159
2843.9588,0.035874
2845.8224,0.035764
2847.6861,0.036241
2849.5498,0.036930
2851.4134,0.037427
2853.2771,0.037335
2855.1408,0.037336
2857.0045,0.038072
2858.8681,0.038394
2860.7318,0.038432
2862.5955,0.038888
2864.4591,0.039143
2866.3228,0.039253
2868.1865,0.039553
2870.0501,0.039290
2871.9138,0.039196
2873.7775,0.039704
2875.6411,0.039908
2877.5048,0.039898
2879.3685,0.039903
2881.2321,0.039633
2883.0958,0.039414
2884.9595,0.039778
2886.8232,0.040128
2888.6868,0.039859
2890.5505,0.039666
2892.4142,0.039981
2894.2778,0.040212
2896.1415,0.040223
2898.0052,0.040537
2899.8688,0.040899
2901.7325,0.040791
2903.5962,0.040681
2905.4598,0.040715
2907.3235,0.040951
2909.1872,0.041260
2911.0509,0.041349
2912.9145,0.041816
2914.7782,0.042572
2916.6419,0.043133
2918.5055,0.043232
2920.3692,0.043402
2922.2329,0.043786
2924.0965,0.044276
2925.9602,0.044372
2927.8239,0.044632
2929.6875,0.044987
2931.5512,0.045057
2933.4149,0.045019
2935.2785,0.045036
2937.1422,0.044824
2939.0059,0.044636
2940.8696,0.044269
2942.7332,0.043951
2944.5969,0.044077
2946.4606,0.044500
2948.3242,0.044467
2950.1879,0.044172
2952.0516,0.044192
2953.9152,0.044509
2955.7789,0.044717
2957.6426,0.044307
2959.5062,0.043892
2961.3699,0.044058
2963.2336,0.044190
2965.0972,0.044228
2966.9609,0.043891
2968.8246,0.043605
2970.6883,0.043813
2972.5519,0.043973
2974.4156,0.043997
2976.2793,0.044030
2978.1429,0.043839
2980.0066,0.043754
2981.8703,0.043507
2983.7339,0.043616
2985.5976,0.043842
2987.4613,0.043767
2989.3249,0.043572
2991.1886,0.043399
2993.0523,0.043411
2994.9160,0.043807
2996.7796,0.043809
2998.6433,0.043501
3000.5070,0.043849
3002.3706,0.044312
3004.2343,0.044130
3006.0980,0.044128
3007.9616,0.044338
3009.8253,0.044356
3011.6890,0.044144
3013.5526,0.044193
3015.4163,0.044716
3017.2800,0.045197
3019.1436,0.045034
3021.0073,0.045021
3022.8710,0.045504
3024.7347,0.045794
3026.5983,0.045850
3028.4620,0.045597
3030.3257,0.045549
3032.1893,0.046011
3034.0530,0.046392
3035.9167,0.046682
3037.7803,0.046615
3039.6440,0.046393
3041.5077,0.046336
3043.3713,0.047244
3045.2350,0.047365
3047.0987,0.046879
3048.9624,0.046870
3050.8260,0.047541
3052.6897,0.047990
3054.5534,0.047720
3056.4170,0.047254
3058.2807,0.047272
3060.1444,0.047248
3062.0080,0.047158
3063.8717,0.047318
3065.7354,0.047307
3067.5990,0.047405
3069.4627,0.047282
3071.3264,0.046838
3073.1900,0.046553
3075.0537,0.045895
3076.9174,0.045803
3078.7811,0.046489
3080.6447,0.046529
3082.5084,0.046148
3084.3721,0.046208
3086.2357,0.046234
3088.0994,0.045995
3089.9631,0.045497
3091.8267,0.045634
3093.6904,0.045479
3095.5541,0.045065
3097.4177,0.044710
3099.2814,0.044294
3101.1451,0.044318
3103.0087,0.044207
3104.8724,0.043968
3106.7361,0.044060
3108.5998,0.044101
3110.4634,0.043729
3112.3271,0.043220
3114.1908,0.043615
3116.0544,0.044248
3117.9181,0.043892
3119.7818,0.043596
3121.6454,0.043936
3123.5091,0.044247
3125.3728,0.044382
3127.2364,0.043531
3129.1001,0.042787
3130.9638,0.043089
3132.8275,0.044013
3134.6911,0.044049
3136.5548,0.043498
3138.4185,0.043071
3140.2821,0.043363
3142.1458,0.043741
3144.0095,0.044040
3145.8731,0.043883
3147.7368,0.043995
3149.6005,0.043985
3151.4641,0.043464
3153.3278,0.043537
3155.1915,0.043937
3157.0551,0.043609
3158.9188,0.043681
3160.7825,0.043846
3162.6462,0.043753
3164.5098,0.043710
3166.3735,0.043563
3168.2372,0.043443
3170.1008,0.043492
3171.9645,0.043930
3173.8282,0.043984
3175.6918,0.043881
3177.5555,0.044236
3179.4192,0.044359
3181.2828,0.044200
3183.1465,0.043989
3185.0102,0.043927
3186.8739,0.043308
3188.7375,0.043005
3190.6012,0.043305
3192.4649,0.043657
3194.3285,0.043690
3196.1922,0.044174
3198.0559,0.045012
3199.9195,0.044794
3201.7832,0.043828
3203.6469,0.044123
3205.5105,0.044305
3207.3742,0.044280
3209.2379,0.044129
3211.1015,0.043551
3212.9652,0.043621
3214.8289,0.043827
3216.6926,0.044190
3218.5562,0.044841
3220.4199,0.044508
3222.2836,0.044168
3224.1472,0.043714
3226.0109,0.043813
3227.8746,0.044012
3229.7382,0.043749
3231.6019,0.044505
3233.4656,0.045607
3235.3292,0.045359
3237.1929,0.044975
3239.0566,0.044701
3240.9202,0.044657
3242.7839,0.045185
3244.6476,0.044862
3246.5113,0.044104
3248.3749,0.044659
3250.2386,0.045191
3252.1023,0.045082
3253.9659,0.044906
3255.8296,0.045535
3257.6933,0.045829
3259.5569,0.045431
3261.4206,0.045029
3263.2843,0.045166
3265.1479,0.045193
3267.0116,0.045617
3268.8753,0.045272
3270.7390,0.044618
3272.6026,0.045115
3274.4663,0.045696
3276.3300,0.045452
3278.1936,0.044933
3280.0573,0.044736
3281.9210,0.044745
3283.7846,0.044011
3285.6483,0.043549
3287.5120,0.043607
3289.3756,0.043787
3291.2393,0.043720
3293.1030,0.043728
3294.9666,0.042901
3296.8303,0.042320
3298.6940,0.043039
3300.5577,0.043413
3302.4213,0.042648
3304.2850,0.041622
3306.1487,0.041553
3308.0123,0.041962
3309.8760,0.041573
3311.7397,0.040951
3313.6033,0.040704
3315.4670,0.040788
3317.3307,0.040476
3319.1943,0.040166
3321.0580,0.040085
3322.9217,0.039951
3324.7854,0.039766
3326.6490,0.038842
3328.5127,0.038213
3330.3764,0.038128
3332.2400,0.038096
3334.1037,0.038399
3335.9674,0.038745
3337.8310,0.037792
3339.6947,0.037625
3341.5584,0.038145
3343.4220,0.037995
3345.2857,0.037915
3347.1494,0.037512
3349.0130,0.036442
3350.8767,0.035981
3352.7404,0.036037
3354.6041,0.035352
3356.4677,0.035284
3358.3314,0.034938
3360.1951,0.034361
3362.0587,0.034807
3363.9224,0.034648
3365.7861,0.033801
3367.6497,0.033815
3369.5134,0.032639
3371.3771,0.032574
3373.2407,0.032865
3375.1044,0.032858
3376.9681,0.032767
3378.8317,0.032236
3380.6954,0.032126
3382.5591,0.032448
3384.4228,0.032496
3386.2864,0.031904
3388.1501,0.031896
3390.0138,0.033276
3391.8774,0.033134
3393.7411,0.031931
3395.6048,0.031467
3397.4684,0.031896
3399.3321,0.031866
3401.1958,0.031805
3403.0594,0.031080
3404.9231,0.029392
3406.7868,0.028672
3408.6505,0.027076
3410.5141,0.026711
3412.3778,0.026901
3414.2415,0.026841
3416.1051,0.027094
3417.9688,0.026673
3419.8325,0.026712
3421.6961,0.026546
3423.5598,0.026021
3425.4235,0.025476
3427.2871,0.024745
3429.1508,0.024247
3431.0145,0.023888
3432.8781,0.023914
3434.7418,0.024746
3436.6055,0.024302
3438.4692,0.023698
3440.3328,0.024173
3442.1965,0.023760
3444.0602,0.022548
3445.9238,0.022724
3447.7875,0.022123
3449.6512,0.022217
3451.5148,0.021942
3453.3785,0.021958
3455.2422,0.021258
3457.1058,0.020788
3458.9695,0.020852
3460.8332,0.020179
3462.6969,0.020265
3464.5605,0.021563
3466.4242,0.022424
3468.2879,0.020987
3470.1515,0.019926
3472.0152,0.020973
3473.8789,0.020705
3475.7425,0.019937
3477.6062,0.019657
3479.4699,0.019236
3481.3335,0.018399
3483.1972,0.018827
3485.0609,0.020057
3486.9245,0.018911
3488.7882,0.017446
3490.6519,0.018359
3492.5156,0.019210
3494.3792,0.018849
3496.2429,0.017381
3498.1066,0.015929
3499.9702,0.015481
3501.8339,0.015978
3503.6976,0.016604
3505.5612,0.016778
3507.4249,0.016244
3509.2886,0.016149
3511.1522,0.015141
3513.0159,0.014962
3514.8796,0.016232
3516.7432,0.016343
3518.6069,0.014891
3520.4706,0.013288
3522.3343,0.014279
3524.1979,0.015217
3526.0616,0.014598
3527.9253,0.013912
3529.7889,0.013942
3531.6526,0.014569
3533.5163,0.014872
3535.3799,0.014586
3537.2436,0.013563
3539.1073,0.013058
3540.9709,0.013230
3542.8346,0.013334
3544.6983,0.014291
3546.5620,0.014195
3548.4256,0.012166
3550.2893,0.010735
3552.1530,0.011478
3554.0166,0.012386
3555.8803,0.012070
3557.7440,0.012464
3559.6076,0.012931
3561.4713,0.012598
3563.3350,0.011319
3565.1986,0.010040
3567.0623,0.008812
3568.9260,0.008022
3570.7896,0.008689
3572.6533,0.010518
3574.5170,0.011382
3576.3807,0.010894
3578.2443,0.010382
3580.1080,0.010160
3581.9717,0.009952
3583.8353,0.010264
3585.6990,0.010600
3587.5627,0.009643
3589.4263,0.009046
3591.2900,0.009107
3593.1537,0.008953
3595.0173,0.008849
3596.8810,0.008749
3598.7447,0.009165
3600.6084,0.009287
3602.4720,0.008807
3604.3357,0.009088
3606.1994,0.008953
3608.0630,0.008350
3609.9267,0.008342
3611.7904,0.008552
3613.6540,0.009144
3615.5177,0.009056
3617.3814,0.008348
3619.2450,0.007858
3621.1087,0.007208
3622.9724,0.006707
3624.8360,0.007448
3626.6997,0.008689
3628.5634,0.008289
3630.4271,0.007740
3632.2907,0.007088
3634.1544,0.007360
3636.0181,0.008221
3637.8817,0.008102
3639.7454,0.007863
3641.6091,0.007902
3643.4727,0.007358
3645.3364,0.007267
3647.2001,0.007392
3649.0637,0.006916
3650.9274,0.007709
3652.7911,0.007663
3654.6547,0.007006
3656.5184,0.006889
3658.3821,0.006697
3660.2458,0.007421
3662.1094,0.008260
3663.9731,0.007640
3665.8368,0.007762
3667.7004,0.008648
3669.5641,0.009376
3671.4278,0.009973
3673.2914,0.011444
3675.1551,0.012344
3677.0188,0.012522
3678.8824,0.009445
3680.7461,0.006927
3682.6098,0.005358
3684.4735,0.005473
3686.3371,0.005892
3688.2008,0.006071
3690.0645,0.006986
3691.9281,0.007749
3693.7918,0.008022
3695.6555,0.008188
3697.5191,0.008433
3699.3828,0.007984
3701.2465,0.006993
3703.1101,0.006274
3704.9738,0.006251
3706.8375,0.005965
3708.7011,0.005978
3710.5648,0.006654
3712.4285,0.006331
3714.2922,0.006158
3716.1558,0.006092
3718.0195,0.006043
3719.8832,0.005758
3721.7468,0.005770
3723.6105,0.005955
3725.4742,0.006214
3727.3378,0.006023
3729.2015,0.006018
3731.0652,0.006103
3732.9288,0.005667
3734.7925,0.004299
3736.6562,0.003906
3738.5199,0.005045
3740.3835,0.005696
3742.2472,0.005741
3744.1109,0.005180
3745.9745,0.004416
3747.8382,0.004213
3749.7019,0.004875
3751.5655,0.005858
3753.4292,0.005560
3755.2929,0.005560
3757.1565,0.005653
3759.0202,0.005810
3760.8839,0.005708
3762.7475,0.006355
3764.6112,0.006778
3766.4749,0.006519
3768.3386,0.006131
3770.2022,0.006225
3772.0659,0.006181
3773.9296,0.006384
3775.7932,0.006943
3777.6569,0.006624
3779.5206,0.007005
3781.3842,0.007672
3783.2479,0.006944
3785.1116,0.006742
3786.9752,0.006908
3788.8389,0.007034
3790.7026,0.006735
3792.5662,0.006237
3794.4299,0.005988
3796.2936,0.006244
3798.1573,0.006655
3800.0209,0.006125
3801.8846,0.005763
3803.7483,0.005214
3805.6119,0.005361
3807.4756,0.006695
3809.3393,0.006871
3811.2029,0.006276
3813.0666,0.006276
3814.9303,0.006438
3816.7939,0.005835
3818.6576,0.005224
3820.5213,0.006045
3822.3850,0.006149
3824.2486,0.005906
3826.1123,0.007170
3827.9760,0.007446
3829.8396,0.007042
3831.7033,0.006595
3833.5670,0.006284
3835.4306,0.006518
3837.2943,0.006347
3839.1580,0.005173
3841.0216,0.005580
3842.8853,0.006808
3844.7490,0.007447
3846.6126,0.006972
3848.4763,0.006754
3850.3400,0.006660
3852.2037,0.006339
3854.0673,0.005970
3855.9310,0.005502
3857.7947,0.006341
3859.6583,0.007141
3861.5220,0.007056
3863.3857,0.006509
3865.2493,0.006113
3867.1130,0.006544
3868.9767,0.006930
3870.8403,0.007444
3872.7040,0.008063
3874.5677,0.007651
3876.4314,0.006929
3878.2950,0.006458
3880.1587,0.006710
3882.0224,0.006864
3883.8860,0.006488
3885.7497,0.007032
3887.6134,0.007884
3889.4770,0.007466
3891.3407,0.007559
3893.2044,0.007793
3895.0680,0.007376
3896.9317,0.007117
3898.7954,0.007610
3900.6590,0.007158
3902.5227,0.006679
3904.3864,0.007709
3906.2501,0.008461
3908.1137,0.008062
3909.9774,0.007502
3911.8411,0.007131
3913.7047,0.007285
3915.5684,0.007709
3917.4321,0.007122
3919.2957,0.007035
3921.1594,0.007636
3923.0231,0.008259
3924.8867,0.008543
3926.7504,0.008434
3928.6141,0.007952
3930.4777,0.007743
3932.3414,0.007438
3934.2051,0.007475
3936.0688,0.007911
3937.9324,0.008112
3939.7961,0.008275
3941.6598,0.008024
3943.5234,0.007924
3945.3871,0.008252
3947.2508,0.007963
3949.1144,0.007219
3950.9781,0.007206
3952.8418,0.007590
3954.7054,0.007769
3956.5691,0.008011
3958.4328,0.007522
3960.2965,0.006974
3962.1601,0.007598
3964.0238,0.008496
3965.8875,0.008589
3967.7511,0.008584
3969.6148,0.008358
3971.4785,0.008306
3973.3421,0.008035
3975.2058,0.007825
3977.0695,0.007794
3978.9331,0.008106
3980.7968,0.008167
3982.6605,0.008141
3984.5241,0.008646
3986.3878,0.009051
3988.2515,0.008735
3990.1152,0.008742
3991.9788,0.008605
3993.8425,0.007778
3995.7062,0.007476
3997.5698,0.007703
3999.4335,0.007732
