Wavenumber,Intensity
650.4205,0.108987
652.2841,0.116183
654.1478,0.125605
656.0115,0.135522
657.8751,0.145695
659.7388,0.154663
661.6025,0.168084
663.4661,0.182539
665.3298,0.192925
667.1935,0.201402
669.0571,0.203010
670.9208,0.190058
672.7845,0.175962
674.6481,0.162324
676.5118,0.152069
678.3755,0.142760
680.2392,0.134690
682.1028,0.126353
683.9665,0.118001
685.8302,0.111004
687.6938,0.104917
689.5575,0.099678
691.4212,0.094772
693.2848,0.089507
695.1485,0.084653
697.0122,0.081251
698.8758,0.079000
700.7395,0.078268
702.6032,0.078682
704.4669,0.077564
706.3305,0.075083
708.1942,0.071587
710.0579,0.068410
711.9215,0.066124
713.7852,0.063716
715.6489,0.061547
717.5125,0.060266
719.3762,0.059490
721.2399,0.058667
723.1035,0.057726
724.9672,0.056601
726.8309,0.056204
728.6945,0.056881
730.5582,0.057353
732.4219,0.057521
734.2856,0.056658
736.1492,0.054728
738.0129,0.053565
739.8766,0.054431
741.7402,0.055864
743.6039,0.056294
745.4676,0.055716
747.3312,0.054881
749.1949,0.054442
751.0586,0.054510
752.9222,0.054420
754.7859,0.054497
756.6496,0.055113
758.5132,0.056099
760.3769,0.056841
762.2406,0.057321
764.1043,0.057654
765.9679,0.057867
767.8316,0.057871
769.6953,0.058270
771.5589,0.058630
773.4226,0.059312
775.2863,0.060594
777.1499,0.062093
779.0136,0.063834
780.8773,0.065211
782.7409,0.066148
784.6046,0.067391
786.4683,0.068577
788.3320,0.068833
790.1956,0.068751
792.0593,0.068814
793.9230,0.069209
795.7866,0.070403
797.6503,0.071733
799.5140,0.072968
801.3776,0.074339
803.2413,0.075034
805.1050,0.074510
806.9686,0.073750
808.8323,0.073388
810.6960,0.073622
812.5596,0.073826
814.4233,0.074220
816.2870,0.074986
818.1507,0.075410
820.0143,0.075096
821.8780,0.074738
823.7417,0.074937
825.6053,0.075839
827.4690,0.076962
829.3327,0.078033
831.1963,0.078025
833.0600,0.076596
834.9237,0.075470
836.7873,0.075613
838.6510,0.076296
840.5147,0.077151
842.3784,0.078302
844.2420,0.079767
846.1057,0.081266
847.9694,0.083016
849.8330,0.085121
851.6967,0.088074
853.5604,0.091729
855.4240,0.095214
857.2877,0.097112
859.1514,0.096730
861.0150,0.095257
862.8787,0.094341
864.7424,0.094184
866.6060,0.094485
868.4697,0.095062
870.3334,0.096327
872.1971,0.097570
874.0607,0.098530
875.9244,0.099700
877.7881,0.101001
879.6517,0.102250
881.5154,0.103549
883.3791,0.104810
885.2427,0.106203
887.1064,0.107635
888.9701,0.109489
890.8337,0.111536
892.6974,0.113533
894.5611,0.115518
896.4247,0.117697
898.2884,0.120371
900.1521,0.123529
902.0158,0.126708
903.8794,0.129621
905.7431,0.131824
907.6068,0.133508
909.4704,0.135451
911.3341,0.138094
913.1978,0.140726
915.0614,0.142121
916.9251,0.141179
918.7888,0.139183
920.6524,0.138408
922.5161,0.139333
924.3798,0.141210
926.2435,0.143535
928.1071,0.146077
929.9708,0.149019
931.8345,0.152407
933.6981,0.155931
935.5618,0.158636
937.4255,0.159857
939.2891,0.160167
941.1528,0.160923
943.0165,0.162316
944.8801,0.164099
946.7438,0.166275
948.6075,0.168888
950.4711,0.171626
952.3348,0.174409
954.1985,0.177450
956.0622,0.180695
957.9258,0.183054
959.7895,0.184580
961.6532,0.186551
963.5168,0.189182
965.3805,0.191868
967.2442,0.194987
969.1078,0.198573
970.9715,0.202198
972.8352,0.205758
974.6988,0.209796
976.5625,0.214631
978.4262,0.220761
980.2899,0.227689
982.1535,0.231506
984.0172,0.228816
985.8809,0.224762
987.7445,0.224236
989.6082,0.226112
991.4719,0.228565
993.3355,0.231424
995.1992,0.234572
997.0629,0.238036
998.9265,0.241237
1000.7902,0.243654
1002.6539,0.245259
1004.5175,0.246818
1006.3812,0.248270
1008.2449,0.248631
1010.1086,0.246612
1011.9722,0.241973
1013.8359,0.235395
1015.6996,0.227637
1017.5632,0.219426
1019.4269,0.211686
1021.2906,0.204296
1023.1542,0.197168
1025.0179,0.190424
1026.8816,0.184085
1028.7452,0.177582
1030.6089,0.170588
1032.4726,0.163611
1034.3362,0.157309
1036.1999,0.151557
1038.0636,0.146290
1039.9273,0.141335
1041.7909,0.136735
1043.6546,0.132533
1045.5183,0.128515
1047.3819,0.124435
1049.2456,0.120390
1051.1093,0.116557
1052.9729,0.113496
1054.8366,0.111508
1056.7003,0.110337
1058.5639,0.109488
1060.4276,0.108809
1062.2913,0.108267
1064.1550,0.107858
1066.0186,0.107570
1067.8823,0.107376
1069.7460,0.107341
1071.6096,0.107367
1073.4733,0.107186
1075.3370,0.106691
1077.2006,0.105844
1079.0643,0.104950
1080.9280,0.104189
1082.7916,0.103590
1084.6553,0.103020
1086.5190,0.102564
1088.3826,0.102363
1090.2463,0.102389
1092.1100,0.102505
1093.9737,0.102797
1095.8373,0.103181
1097.7010,0.103511
1099.5647,0.103751
1101.4283,0.103773
1103.2920,0.103437
1105.1557,0.102755
1107.0193,0.101443
1108.8830,0.099301
1110.7467,0.096260
1112.6103,0.092522
1114.4740,0.088671
1116.3377,0.085390
1118.2014,0.082773
1120.0650,0.080552
1121.9287,0.078649
1123.7924,0.076892
1125.6560,0.074951
1127.5197,0.072729
1129.3834,0.070452
1131.2470,0.068477
1133.1107,0.066867
1134.9744,0.065560
1136.8380,0.064346
1138.7017,0.063118
1140.5654,0.062065
1142.4290,0.061070
1144.2927,0.059833
1146.1564,0.058310
1148.0201,0.056712
1149.8837,0.055446
1151.7474,0.054774
1153.6111,0.054442
1155.4747,0.054110
1157.3384,0.053507
1159.2021,0.052293
1161.0657,0.050814
1162.9294,0.049639
1164.7931,0.048913
1166.6567,0.048578
1168.5204,0.048532
1170.3841,0.048621
1172.2477,0.048624
1174.1114,0.048259
1175.9751,0.047474
1177.8388,0.046598
1179.7024,0.046000
1181.5661,0.045754
1183.4298,0.045822
1185.2934,0.046284
1187.1571,0.046867
1189.0208,0.047229
1190.8844,0.047092
1192.7481,0.046209
1194.6118,0.045144
1196.4754,0.044515
1198.3391,0.044258
1200.2028,0.044099
1202.0665,0.043849
1203.9301,0.043540
1205.7938,0.043251
1207.6575,0.042935
1209.5211,0.042582
1211.3848,0.042233
1213.2485,0.041880
1215.1121,0.041515
1216.9758,0.041146
1218.8395,0.040785
1220.7031,0.040461
1222.5668,0.040097
1224.4305,0.039640
1226.2941,0.039098
1228.1578,0.038590
1230.0215,0.038238
1231.8852,0.037999
1233.7488,0.037875
1235.6125,0.037818
1237.4762,0.037738
1239.3398,0.037780
1241.2035,0.037749
1243.0672,0.037292
1244.9308,0.036697
1246.7945,0.036281
1248.6582,0.035908
1250.5218,0.035560
1252.3855,0.035376
1254.2492,0.035309
1256.1129,0.035187
1257.9765,0.034971
1259.8402,0.034840
1261.7039,0.034927
1263.5675,0.035110
1265.4312,0.035051
1267.2949,0.034702
1269.1585,0.034411
1271.0222,0.034340
1272.8859,0.034398
1274.7495,0.034524
1276.6132,0.034860
1278.4769,0.035468
1280.3405,0.036261
1282.2042,0.037305
1284.0679,0.038488
1285.9316,0.039287
1287.7952,0.039369
1289.6589,0.039123
1291.5226,0.039101
1293.3862,0.039376
1295.2499,0.039945
1297.1136,0.040919
1298.9772,0.042384
1300.8409,0.044346
1302.7046,0.046482
1304.5682,0.048205
1306.4319,0.048732
1308.2956,0.047429
1310.1592,0.044623
1312.0229,0.041709
1313.8866,0.039989
1315.7503,0.039508
1317.6139,0.039753
1319.4776,0.040434
1321.3413,0.040946
1323.2049,0.041125
1325.0686,0.041361
1326.9323,0.041741
1328.7959,0.042138
1330.6596,0.042486
1332.5233,0.042626
1334.3869,0.042476
1336.2506,0.042478
1338.1143,0.043042
1339.9780,0.043376
1341.8416,0.042321
1343.7053,0.040777
1345.5690,0.039932
1347.4326,0.040101
1349.2963,0.040862
1351.1600,0.041425
1353.0236,0.041593
1354.8873,0.041894
1356.7510,0.042589
1358.6146,0.043441
1360.4783,0.044009
1362.3420,0.043969
1364.2056,0.043414
1366.0693,0.043124
1367.9330,0.043463
1369.7967,0.044035
1371.6603,0.044682
1373.5240,0.045972
1375.3877,0.047473
1377.2513,0.048334
1379.1150,0.049251
1380.9787,0.050194
1382.8423,0.050986
1384.7060,0.052114
1386.5697,0.054086
1388.4333,0.056420
1390.2970,0.057663
1392.1607,0.058585
1394.0244,0.059707
1395.8880,0.059941
1397.7517,0.059140
1399.6154,0.058132
1401.4790,0.056913
1403.3427,0.056047
1405.2064,0.054844
1407.0700,0.052293
1408.9337,0.049374
1410.7974,0.046825
1412.6610,0.045043
1414.5247,0.044250
1416.3884,0.044317
1418.2520,0.045372
1420.1157,0.046658
1421.9794,0.046432
1423.8431,0.045085
1425.7067,0.042115
1427.5704,0.038945
1429.4341,0.036819
1431.2977,0.035598
1433.1614,0.035121
1435.0251,0.035667
1436.8887,0.037507
1438.7524,0.038407
1440.6161,0.038167
1442.4797,0.038360
1444.3434,0.038849
1446.2071,0.039693
1448.0707,0.040942
1449.9344,0.041392
1451.7981,0.040776
1453.6618,0.039971
1455.5254,0.040229
1457.3891,0.042906
1459.2528,0.044351
1461.1164,0.044162
1462.9801,0.044574
1464.8438,0.044813
1466.7074,0.043431
1468.5711,0.041783
1470.4348,0.041091
1472.2984,0.041341
1474.1621,0.041016
1476.0258,0.040150
1477.8895,0.039726
1479.7531,0.039781
1481.6168,0.040456
1483.4805,0.041179
1485.3441,0.041721
1487.2078,0.042467
1489.0715,0.043536
1490.9351,0.043975
1492.7988,0.043396
1494.6625,0.043434
1496.5261,0.044551
1498.3898,0.045129
1500.2535,0.044256
1502.1171,0.042871
1503.9808,0.041462
1505.8445,0.040850
1507.7082,0.040975
1509.5718,0.039766
1511.4355,0.038805
1513.2992,0.038179
1515.1628,0.037872
1517.0265,0.038045
1518.8902,0.038461
1520.7538,0.039547
1522.6175,0.041102
1524.4812,0.041394
1526.3448,0.041875
1528.2085,0.041864
1530.0722,0.040930
1531.9359,0.040352
1533.7995,0.040243
1535.6632,0.039464
1537.5269,0.038860
1539.3905,0.039551
1541.2542,0.041385
1543.1179,0.041898
1544.9815,0.042007
1546.8452,0.041494
1548.7089,0.041048
1550.5725,0.041045
1552.4362,0.040884
1554.2999,0.040626
1556.1635,0.040649
1558.0272,0.042388
1559.8909,0.046124
1561.7546,0.045249
1563.6182,0.045051
1565.4819,0.045989
1567.3456,0.047163
1569.2092,0.048945
1571.0729,0.050593
1572.9366,0.050873
1574.8002,0.052114
1576.6639,0.054756
1578.5276,0.055691
1580.3912,0.055760
1582.2549,0.056379
1584.1186,0.056929
1585.9822,0.057383
1587.8459,0.057977
1589.7096,0.058749
1591.5733,0.059379
1593.4369,0.059803
1595.3006,0.060011
1597.1643,0.059890
1599.0279,0.059263
1600.8916,0.058404
1602.7553,0.057321
1604.6189,0.056080
1606.4826,0.055051
1608.3463,0.054303
1610.2099,0.053746
1612.0736,0.053223
1613.9373,0.052949
1615.8010,0.053309
1617.6646,0.053477
1619.5283,0.052380
1621.3920,0.051529
1623.2556,0.050731
1625.1193,0.049019
1626.9830,0.047234
1628.8466,0.044935
1630.7103,0.042070
1632.5740,0.039713
1634.4376,0.037854
1636.3013,0.035762
1638.1650,0.034010
1640.0286,0.033323
1641.8923,0.032477
1643.7560,0.031470
1645.6197,0.030645
1647.4833,0.029378
1649.3470,0.028237
1651.2107,0.028176
1653.0743,0.028673
1654.9380,0.028592
1656.8017,0.028332
1658.6653,0.028339
1660.5290,0.028142
1662.3927,0.027887
1664.2563,0.027350
1666.1200,0.026732
1667.9837,0.026250
1669.8474,0.025857
1671.7110,0.025442
1673.5747,0.025258
1675.4384,0.025357
1677.3020,0.025256
1679.1657,0.025210
1681.0294,0.025675
1682.8930,0.026373
1684.7567,0.027454
1686.6204,0.027399
1688.4840,0.027098
1690.3477,0.026826
1692.2114,0.026246
1694.0750,0.025785
1695.9387,0.025260
1697.8024,0.024027
1699.6661,0.023394
1701.5297,0.022256
1703.3934,0.020777
1705.2571,0.019374
1707.1207,0.017610
1708.9844,0.016366
1710.8481,0.015454
1712.7117,0.014591
1714.5754,0.013921
1716.4391,0.013360
1718.3027,0.012968
1720.1664,0.012702
1722.0301,0.012592
1723.8937,0.012286
1725.7574,0.011910
1727.6211,0.011606
1729.4848,0.011305
1731.3484,0.011045
1733.2121,0.010801
1735.0758,0.010609
1736.9394,0.010536
1738.8031,0.010545
1740.6668,0.010475
1742.5304,0.010433
1744.3941,0.010642
1746.2578,0.010616
1748.1214,0.010785
1749.9851,0.011373
1751.8488,0.011515
1753.7125,0.011361
1755.5761,0.011401
1757.4398,0.011357
1759.3035,0.011172
1761.1671,0.010896
1763.0308,0.010369
1764.8945,0.009845
1766.7581,0.009674
1768.6218,0.009484
1770.4855,0.009201
1772.3491,0.009029
1774.2128,0.008677
1776.0765,0.008387
1777.9401,0.008454
1779.8038,0.008544
1781.6675,0.008633
1783.5312,0.008664
1785.3948,0.008657
1787.2585,0.008558
1789.1222,0.008520
1790.9858,0.008537
1792.8495,0.008541
1794.7132,0.008400
1796.5768,0.008359
1798.4405,0.008591
1800.3042,0.008846
1802.1678,0.008714
1804.0315,0.008551
1805.8952,0.008724
1807.7589,0.008917
1809.6225,0.008726
1811.4862,0.008661
1813.3499,0.008730
1815.2135,0.008659
1817.0772,0.008633
1818.9409,0.008911
1820.8045,0.008975
1822.6682,0.008850
1824.5319,0.008670
1826.3955,0.008456
1828.2592,0.008313
1830.1229,0.008107
1831.9865,0.008036
1833.8502,0.008331
1835.7139,0.008406
1837.5776,0.008324
1839.4412,0.008277
1841.3049,0.008296
1843.1686,0.008240
1845.0322,0.008065
1846.8959,0.007944
1848.7596,0.008040
1850.6232,0.008010
1852.4869,0.007993
1854.3506,0.008100
1856.2142,0.008140
1858.0779,0.008228
1859.9416,0.008360
1861.8052,0.008343
1863.6689,0.008360
1865.5326,0.008363
1867.3963,0.008085
1869.2599,0.007633
1871.1236,0.007733
1872.9873,0.008099
1874.8509,0.008107
1876.7146,0.008094
1878.5783,0.008315
1880.4419,0.008193
1882.3056,0.007999
1884.1693,0.007781
1886.0329,0.007674
1887.8966,0.007680
1889.7603,0.007625
1891.6240,0.007524
1893.4876,0.007671
1895.3513,0.007954
1897.2150,0.008152
1899.0786,0.008022
1900.9423,0.007815
1902.8060,0.007780
1904.6696,0.007603
1906.5333,0.007300
1908.3970,0.007423
1910.2606,0.007310
1912.1243,0.007005
1913.9880,0.006995
1915.8516,0.007388
1917.7153,0.007532
1919.5790,0.006890
1921.4427,0.006490
1923.3063,0.006670
1925.1700,0.007515
1927.0337,0.008023
1928.8973,0.007551
1930.7610,0.007404
1932.6247,0.006828
1934.4883,0.006252
1936.3520,0.006476
1938.2157,0.006709
1940.0793,0.006526
1941.9430,0.006207
1943.8067,0.005234
1945.6704,0.004502
1947.5340,0.004405
1949.3977,0.005129
1951.2614,0.005973
1953.1250,0.005872
1954.9887,0.005404
1956.8524,0.004757
1958.7160,0.004141
1960.5797,0.003855
1962.4434,0.003358
1964.3070,0.002367
1966.1707,0.001561
1968.0344,0.001982
1969.8980,0.002262
1971.7617,0.002017
1973.6254,0.001456
1975.4891,0.000685
1977.3527,-0.000155
1979.2164,0.000311
1981.0801,0.001748
1982.9437,0.002920
1984.8074,0.002332
1986.6711,0.002610
1988.5347,0.003147
1990.3984,0.002848
1992.2621,0.001668
1994.1257,0.001180
1995.9894,0.002461
1997.8531,0.002544
1999.7167,0.001555
2001.5804,0.002407
2003.4441,0.002909
2005.3078,0.001938
2007.1714,0.001070
2009.0351,0.000176
2010.8988,0.000786
2012.7624,0.001806
2014.6261,0.000301
2016.4898,-0.000735
2018.3534,-0.000598
2020.2171,0.000050
2022.0808,0.000451
2023.9444,0.000143
2025.8081,-0.000155
2027.6718,0.000670
2029.5355,0.000270
2031.3991,-0.000534
2033.2628,-0.000512
2035.1265,0.000330
2036.9901,0.000810
2038.8538,0.001604
2040.7175,0.002094
2042.5811,0.002768
2044.4448,0.003112
2046.3085,0.003563
2048.1721,0.003286
2050.0358,0.003525
2051.8995,0.004610
2053.7631,0.004758
2055.6268,0.004832
2057.4905,0.004932
2059.3542,0.005239
2061.2178,0.005502
2063.0815,0.005846
2064.9452,0.006428
2066.8088,0.005780
2068.6725,0.005626
2070.5362,0.006514
2072.3998,0.006586
2074.2635,0.006681
2076.1272,0.006777
2077.9908,0.006766
2079.8545,0.007579
2081.7182,0.008299
2083.5819,0.007901
2085.4455,0.007113
2087.3092,0.007777
2089.1729,0.008050
2091.0365,0.007946
2092.9002,0.007671
2094.7639,0.007436
2096.6275,0.007546
2098.4912,0.007766
2100.3549,0.007676
2102.2185,0.007935
2104.0822,0.008195
2105.9459,0.008567
2107.8095,0.008559
2109.6732,0.008285
2111.5369,0.007901
2113.4006,0.007711
2115.2642,0.008183
2117.1279,0.008735
2118.9916,0.008275
2120.8552,0.007522
2122.7189,0.007228
2124.5826,0.007276
2126.4462,0.007783
2128.3099,0.007451
2130.1736,0.006514
2132.0372,0.005859
2133.9009,0.005376
2135.7646,0.005650
2137.6282,0.006038
2139.4919,0.005298
2141.3556,0.004694
2143.2193,0.004851
2145.0829,0.003534
2146.9466,0.002268
2148.8103,0.002205
2150.6739,0.002326
2152.5376,0.001631
2154.4013,0.000424
2156.2649,-0.001393
2158.1286,-0.002702
2159.9923,-0.003138
2161.8559,-0.001062
2163.7196,0.000759
2165.5833,0.000645
2167.4470,0.001097
2169.3106,0.001032
2171.1743,0.000974
2173.0380,0.001764
2174.9016,0.001344
2176.7653,0.002148
2178.6290,0.003299
2180.4926,0.002541
2182.3563,0.001967
2184.2200,0.002883
2186.0836,0.003191
2187.9473,0.003978
2189.8110,0.004455
2191.6746,0.003475
2193.5383,0.002829
2195.4020,0.003395
2197.2657,0.004539
2199.1293,0.005063
2200.9930,0.004672
2202.8567,0.004838
2204.7203,0.005659
2206.5840,0.005924
2208.4477,0.005054
2210.3113,0.004932
2212.1750,0.005334
2214.0387,0.005762
2215.9023,0.006451
2217.7660,0.006684
2219.6297,0.005706
2221.4934,0.004779
2223.3570,0.005556
2225.2207,0.005831
2227.0844,0.005574
2228.9480,0.006566
2230.8117,0.007150
2232.6754,0.007625
2234.5390,0.007421
2236.4027,0.007133
2238.2664,0.007485
2240.1300,0.007513
2241.9937,0.007704
2243.8574,0.007891
2245.7210,0.007824
2247.5847,0.008061
2249.4484,0.008161
2251.3121,0.008182
2253.1757,0.008459
2255.0394,0.008673
2256.9031,0.008808
2258.7667,0.009069
2260.6304,0.009013
2262.4941,0.009151
2264.3577,0.009555
2266.2214,0.009883
2268.0851,0.009730
2269.9487,0.009877
2271.8124,0.009747
2273.6761,0.009899
2275.5397,0.010039
2277.4034,0.010125
2279.2671,0.010396
2281.1308,0.010791
2282.9944,0.010837
2284.8581,0.010769
2286.7218,0.011202
2288.5854,0.011544
2290.4491,0.011638
2292.3128,0.011631
2294.1764,0.011535
2296.0401,0.011564
2297.9038,0.011537
2299.7674,0.011653
2301.6311,0.011976
2303.4948,0.011949
2305.3585,0.011992
2307.2221,0.012227
2309.0858,0.012114
2310.9495,0.012051
2312.8131,0.012186
2314.6768,0.012272
2316.5405,0.012498
2318.4041,0.012533
2320.2678,0.012191
2322.1315,0.012691
2323.9951,0.012913
2325.8588,0.012803
2327.7225,0.012625
2329.5861,0.012502
2331.4498,0.012358
2333.3135,0.012084
2335.1772,0.012081
2337.0408,0.012175
2338.9045,0.012109
2340.7682,0.012136
2342.6318,0.012519
2344.4955,0.012683
2346.3592,0.012298
2348.2228,0.012009
2350.0865,0.012204
2351.9502,0.012146
2353.8138,0.011778
2355.6775,0.011496
2357.5412,0.011632
2359.4049,0.012015
2361.2685,0.011957
2363.1322,0.011899
2364.9959,0.011719
2366.8595,0.011661
2368.7232,0.012159
2370.5869,0.012646
2372.4505,0.012740
2374.3142,0.012537
2376.1779,0.012804
2378.0415,0.013149
2379.9052,0.013090
2381.7689,0.013051
2383.6325,0.013190
2385.4962,0.013046
2387.3599,0.013082
2389.2236,0.013019
2391.0872,0.012907
2392.9509,0.013230
2394.8146,0.013263
2396.6782,0.013334
2398.5419,0.013341
2400.4056,0.013455
2402.2692,0.013437
2404.1329,0.013450
2405.9966,0.013590
2407.8602,0.013634
2409.7239,0.013478
2411.5876,0.013433
2413.4512,0.013487
2415.3149,0.013236
2417.1786,0.013319
2419.0423,0.013888
2420.9059,0.014074
2422.7696,0.014011
2424.6333,0.013851
2426.4969,0.013829
2428.3606,0.013775
2430.2243,0.013789
2432.0879,0.014084
2433.9516,0.014337
2435.8153,0.014413
2437.6789,0.014188
2439.5426,0.014043
2441.4063,0.014113
2443.2700,0.014350
2445.1336,0.014321
2446.9973,0.014290
2448.8610,0.014514
2450.7246,0.014598
2452.5883,0.014247
2454.4520,0.014327
2456.3156,0.014544
2458.1793,0.014642
2460.0430,0.014570
2461.9066,0.014758
2463.7703,0.014774
2465.6340,0.014692
2467.4976,0.014930
2469.3613,0.015057
2471.2250,0.015153
2473.0887,0.014852
2474.9523,0.014947
2476.8160,0.015308
2478.6797,0.015458
2480.5433,0.015340
2482.4070,0.015227
2484.2707,0.015275
2486.1343,0.015456
2487.9980,0.015852
2489.8617,0.016058
2491.7253,0.015663
2493.5890,0.015315
2495.4527,0.015608
2497.3164,0.015941
2499.1800,0.016212
2501.0437,0.016169
2502.9074,0.016026
2504.7710,0.015970
2506.6347,0.015871
2508.4984,0.015997
2510.3620,0.016063
2512.2257,0.016143
2514.0894,0.016132
2515.9530,0.016078
2517.8167,0.016536
2519.6804,0.016788
2521.5440,0.016671
2523.4077,0.016763
2525.2714,0.016858
2527.1351,0.016974
2528.9987,0.017152
2530.8624,0.017053
2532.7261,0.017279
2534.5897,0.017534
2536.4534,0.017161
2538.3171,0.017230
2540.1807,0.017606
2542.0444,0.017574
2543.9081,0.017281
2545.7717,0.017220
2547.6354,0.017402
2549.4991,0.017145
2551.3627,0.016970
2553.2264,0.017575
2555.0901,0.017813
2556.9538,0.017311
2558.8174,0.017229
2560.6811,0.017374
2562.5448,0.017321
2564.4084,0.017419
2566.2721,0.017503
2568.1358,0.017941
2569.9994,0.018257
2571.8631,0.018159
2573.7268,0.018340
2575.5904,0.018725
2577.4541,0.019108
2579.3178,0.018917
2581.1815,0.018750
2583.0451,0.018706
2584.9088,0.018744
2586.7725,0.018994
2588.6361,0.019434
2590.4998,0.019400
2592.3635,0.019415
2594.2271,0.019534
2596.0908,0.019729
2597.9545,0.019941
2599.8181,0.019746
2601.6818,0.019667
2603.5455,0.019998
2605.4091,0.020115
2607.2728,0.020015
2609.1365,0.019901
2611.0002,0.019898
2612.8638,0.020332
2614.7275,0.020506
2616.5912,0.020300
2618.4548,0.020249
2620.3185,0.020406
2622.1822,0.020478
2624.0458,0.020559
2625.9095,0.020649
2627.7732,0.020808
2629.6368,0.020957
2631.5005,0.021008
2633.3642,0.021179
2635.2279,0.021300
2637.0915,0.021434
2638.9552,0.021632
2640.8189,0.021716
2642.6825,0.021665
2644.5462,0.021361
2646.4099,0.021378
2648.2735,0.021547
2650.1372,0.021391
2652.0009,0.021450
2653.8645,0.021552
2655.7282,0.021502
2657.5919,0.021408
2659.4555,0.021372
2661.3192,0.021433
2663.1829,0.021446
2665.0466,0.021455
2666.9102,0.021647
2668.7739,0.021830
2670.6376,0.021840
2672.5012,0.021904
2674.3649,0.021990
2676.2286,0.021866
2678.0922,0.021853
2679.9559,0.022195
2681.8196,0.022514
2683.6832,0.022572
2685.5469,0.022781
2687.4106,0.022951
2689.2742,0.022852
2691.1379,0.022739
2693.0016,0.022692
2694.8653,0.022906
2696.7289,0.023134
2698.5926,0.023244
2700.4563,0.023331
2702.3199,0.023270
2704.1836,0.023339
2706.0473,0.023370
2707.9109,0.023379
2709.7746,0.023540
2711.6383,0.023766
2713.5019,0.023538
2715.3656,0.023600
2717.2293,0.023975
2719.0930,0.024170
2720.9566,0.024064
2722.8203,0.024212
2724.6840,0.024525
2726.5476,0.024633
2728.4113,0.024723
2730.2750,0.024715
2732.1386,0.024895
2734.0023,0.024991
2735.8660,0.024894
2737.7296,0.024940
2739.5933,0.024946
2741.4570,0.025115
2743.3206,0.025292
2745.1843,0.025453
2747.0480,0.025561
2748.9117,0.025846
2750.7753,0.026141
2752.6390,0.026155
2754.5027,0.026101
2756.3663,0.026303
2758.2300,0.026437
2760.0937,0.026558
2761.9573,0.026724
2763.8210,0.026932
2765.6847,0.027031
2767.5483,0.027163
2769.4120,0.027284
2771.2757,0.027314
2773.1394,0.027243
2775.0030,0.027470
2776.8667,0.027848
2778.7304,0.027996
2780.5940,0.027922
2782.4577,0.028178
2784.3214,0.028366
2786.1850,0.028206
2788.0487,0.028148
2789.9124,0.028391
2791.7760,0.028257
2793.6397,0.028115
2795.5034,0.028269
2797.3670,0.028360
2799.2307,0.028354
2801.0944,0.028148
2802.9581,0.028199
2804.8217,0.028333
2806.6854,0.028188
2808.5491,0.028088
2810.4127,0.028096
2812.2764,0.028241
2814.1401,0.028433
2816.0037,0.028524
2817.8674,0.028426
2819.7311,0.028528
2821.5947,0.028915
2823.4584,0.029162
2825.3221,0.029079
2827.1857,0.029049
2829.0494,0.029132
2830.9131,0.029209
2832.7768,0.029370
2834.6404,0.029622
2836.5041,0.029844
2838.3678,0.030002
2840.2314,0.030358
2842.0951,0.030966
2843.9588,0.031357
2845.8224,0.031691
2847.6861,0.031847
2849.5498,0.032227
2851.4134,0.032610
2853.2771,0.032827
2855.1408,0.032943
2857.0045,0.033016
2858.8681,0.033210
2860.7318,0.033373
2862.5955,0.033151
2864.4591,0.033197
2866.3228,0.033500
2868.1865,0.033670
2870.0501,0.033485
2871.9138,0.033258
2873.7775,0.033262
2875.6411,0.033576
2877.5048,0.033854
2879.3685,0.033671
2881.2321,0.033603
2883.0958,0.033701
2884.9595,0.033787
2886.8232,0.033952
2888.6868,0.034241
2890.5505,0.034494
2892.4142,0.034810
2894.2778,0.034977
2896.1415,0.034967
2898.0052,0.035014
2899.8688,0.034907
2901.7325,0.034944
2903.5962,0.035182
2905.4598,0.035067
2907.3235,0.035095
2909.1872,0.035681
2911.0509,0.036087
2912.9145,0.036492
2914.7782,0.036898
2916.6419,0.037370
2918.5055,0.037632
2920.3692,0.037633
2922.2329,0.037614
2924.0965,0.037710
2925.9602,0.037911
2927.8239,0.037627
2929.6875,0.037226
2931.5512,0.036986
2933.4149,0.036788
2935.2785,0.036471
2937.1422,0.036036
2939.0059,0.035981
2940.8696,0.036246
2942.7332,0.036400
2944.5969,0.036460
2946.4606,0.036478
2948.3242,0.036444
2950.1879,0.036151
2952.0516,0.035854
2953.9152,0.036074
2955.7789,0.036064
2957.6426,0.035684
2959.5062,0.035456
2961.3699,0.035464
2963.2336,0.035553
2965.0972,0.035518
2966.9609,0.035036
2968.8246,0.034951
2970.6883,0.034890
2972.5519,0.034578
2974.4156,0.034326
2976.2793,0.034243
2978.1429,0.034340
2980.0066,0.034510
2981.8703,0.034397
2983.7339,0.034576
2985.5976,0.034598
2987.4613,0.034250
2989.3249,0.034063
2991.1886,0.034050
2993.0523,0.033956
2994.9160,0.034066
2996.7796,0.034378
2998.6433,0.034491
3000.5070,0.034399
3002.3706,0.034136
3004.2343,0.034056
3006.0980,0.034370
3007.9616,0.034632
3009.8253,0.034882
3011.6890,0.035087
3013.5526,0.035476
3015.4163,0.035668
3017.2800,0.035356
3019.1436,0.035177
3021.0073,0.035252
3022.8710,0.035359
3024.7347,0.035458
3026.5983,0.035056
3028.4620,0.034799
3030.3257,0.034841
3032.1893,0.035115
3034.0530,0.035024
3035.9167,0.034652
3037.7803,0.034565
3039.6440,0.035103
3041.5077,0.035274
3043.3713,0.035247
3045.2350,0.035132
3047.0987,0.034826
3048.9624,0.034725
3050.8260,0.034646
3052.6897,0.034286
3054.5534,0.034324
3056.4170,0.034537
3058.2807,0.034664
3060.1444,0.034462
3062.0080,0.034407
3063.8717,0.034529
3065.7354,0.034403
3067.5990,0.034431
3069.4627,0.034484
3071.3264,0.034282
3073.1900,0.034308
3075.0537,0.034188
3076.9174,0.033780
3078.7811,0.033852
3080.6447,0.033746
3082.5084,0.033601
3084.3721,0.033678
3086.2357,0.033494
3088.0994,0.033427
3089.9631,0.033357
3091.8267,0.033288
3093.6904,0.033172
3095.5541,0.032744
3097.4177,0.032275
3099.2814,0.032278
3101.1451,0.032120
3103.0087,0.032196
3104.8724,0.032060
3106.7361,0.031751
3108.5998,0.031873
3110.4634,0.031897
3112.3271,0.031478
3114.1908,0.031253
3116.0544,0.031077
3117.9181,0.031068
3119.7818,0.031425
3121.6454,0.031442
3123.5091,0.031243
3125.3728,0.031336
3127.2364,0.030932
3129.1001,0.030354
3130.9638,0.030223
3132.8275,0.030518
3134.6911,0.030295
3136.5548,0.029777
3138.4185,0.029561
3140.2821,0.029985
3142.1458,0.030107
3144.0095,0.029618
3145.8731,0.029228
3147.7368,0.028874
3149.6005,0.028710
3151.4641,0.028758
3153.3278,0.029052
3155.1915,0.029201
3157.0551,0.029005
3158.9188,0.028850
3160.7825,0.028384
3162.6462,0.027671
3164.5098,0.027692
3166.3735,0.027994
3168.2372,0.027861
3170.1008,0.027948
3171.9645,0.027841
3173.8282,0.027640
3175.6918,0.027447
3177.5555,0.027384
3179.4192,0.027151
3181.2828,0.026519
3183.1465,0.026318
3185.0102,0.026964
3186.8739,0.027263
3188.7375,0.026577
3190.6012,0.026353
3192.4649,0.026409
3194.3285,0.026055
3196.1922,0.025928
3198.0559,0.026125
3199.9195,0.026076
3201.7832,0.025882
3203.6469,0.025541
3205.5105,0.025763
3207.3742,0.026142
3209.2379,0.025959
3211.1015,0.025647
3212.9652,0.025500
3214.8289,0.025654
3216.6926,0.025882
3218.5562,0.026072
3220.4199,0.025911
3222.2836,0.025509
3224.1472,0.025377
3226.0109,0.025310
3227.8746,0.025286
3229.7382,0.025537
3231.6019,0.025749
3233.4656,0.026072
3235.3292,0.025987
3237.1929,0.026067
3239.0566,0.025968
3240.9202,0.025788
3242.7839,0.025648
3244.6476,0.025675
3246.5113,0.025936
3248.3749,0.025849
3250.2386,0.025647
3252.1023,0.025591
3253.9659,0.025887
3255.8296,0.025797
3257.6933,0.026082
3259.5569,0.026746
3261.4206,0.026739
3263.2843,0.026761
3265.1479,0.026713
3267.0116,0.026138
3268.8753,0.026089
3270.7390,0.025989
3272.6026,0.025579
3274.4663,0.025827
3276.3300,0.026409
3278.1936,0.026400
3280.0573,0.025948
3281.9210,0.025895
3283.7846,0.025638
3285.6483,0.025319
3287.5120,0.025054
3289.3756,0.025110
3291.2393,0.025457
3293.1030,0.025214
3294.9666,0.025163
3296.8303,0.025065
3298.6940,0.024609
3300.5577,0.024751
3302.4213,0.024593
3304.2850,0.024030
3306.1487,0.023898
3308.0123,0.024191
3309.8760,0.024200
3311.7397,0.023865
3313.6033,0.023658
3315.4670,0.023992
3317.3307,0.024284
3319.1943,0.024429
3321.0580,0.024137
3322.9217,0.023739
3324.7854,0.023468
3326.6490,0.023610
3328.5127,0.023293
3330.3764,0.022889
3332.2400,0.022982
3334.1037,0.023333
3335.9674,0.023357
3337.8310,0.023183
3339.6947,0.023039
3341.5584,0.022687
3343.4220,0.022437
3345.2857,0.022245
3347.1494,0.021972
3349.0130,0.021967
3350.8767,0.022229
3352.7404,0.021505
3354.6041,0.020525
3356.4677,0.020827
3358.3314,0.021228
3360.1951,0.021302
3362.0587,0.020922
3363.9224,0.020549
3365.7861,0.020190
3367.6497,0.020604
3369.5134,0.020687
3371.3771,0.019516
3373.2407,0.019081
3375.1044,0.019621
3376.9681,0.019412
3378.8317,0.018946
3380.6954,0.019446
3382.5591,0.019473
3384.4228,0.019245
3386.2864,0.019761
3388.1501,0.019886
3390.0138,0.019393
3391.8774,0.019246
3393.7411,0.020326
3395.6048,0.021192
3397.4684,0.020659
3399.3321,0.019577
3401.1958,0.019137
3403.0594,0.019576
3404.9231,0.019759
3406.7868,0.019540
3408.6505,0.019415
3410.5141,0.019696
3412.3778,0.019281
3414.2415,0.018336
3416.1051,0.018024
3417.9688,0.017808
3419.8325,0.017628
3421.6961,0.017280
3423.5598,0.016727
3425.4235,0.016551
3427.2871,0.016801
3429.1508,0.016478
3431.0145,0.015741
3432.8781,0.014963
3434.7418,0.014709
3436.6055,0.015020
3438.4692,0.015188
3440.3328,0.014868
3442.1965,0.014838
3444.0602,0.014166
3445.9238,0.013541
3447.7875,0.013435
3449.6512,0.013656
3451.5148,0.014174
3453.3785,0.013921
3455.2422,0.013744
3457.1058,0.013642
3458.9695,0.013188
3460.8332,0.013455
3462.6969,0.013482
3464.5605,0.012765
3466.4242,0.012610
3468.2879,0.013083
3470.1515,0.012760
3472.0152,0.012155
3473.8789,0.012276
3475.7425,0.012303
3477.6062,0.011635
3479.4699,0.011498
3481.3335,0.011511
3483.1972,0.011627
3485.0609,0.012009
3486.9245,0.011209
3488.7882,0.010625
3490.6519,0.010875
3492.5156,0.011016
3494.3792,0.010778
3496.2429,0.010697
3498.1066,0.011070
3499.9702,0.011213
3501.8339,0.011364
3503.6976,0.011540
3505.5612,0.012453
3507.4249,0.012013
3509.2886,0.010471
3511.1522,0.010486
3513.0159,0.009968
3514.8796,0.010451
3516.7432,0.011276
3518.6069,0.010757
3520.4706,0.010551
3522.3343,0.009971
3524.1979,0.010333
3526.0616,0.010759
3527.9253,0.009431
3529.7889,0.008866
3531.6526,0.010521
3533.5163,0.010638
3535.3799,0.009178
3537.2436,0.008689
3539.1073,0.008936
3540.9709,0.008901
3542.8346,0.009038
3544.6983,0.009510
3546.5620,0.009498
3548.4256,0.008771
3550.2893,0.008942
3552.1530,0.008946
3554.0166,0.008463
3555.8803,0.008407
3557.7440,0.008837
3559.6076,0.009275
3561.4713,0.008442
3563.3350,0.008060
3565.1986,0.009132
3567.0623,0.008966
3568.9260,0.007758
3570.7896,0.007453
3572.6533,0.008054
3574.5170,0.008870
3576.3807,0.008726
3578.2443,0.008815
3580.1080,0.009181
3581.9717,0.009288
3583.8353,0.008875
3585.6990,0.008518
3587.5627,0.008429
3589.4263,0.007746
3591.2900,0.007028
3593.1537,0.008046
3595.0173,0.009243
3596.8810,0.008783
3598.7447,0.008592
3600.6084,0.008304
3602.4720,0.007578
3604.3357,0.008074
3606.1994,0.008737
3608.0630,0.008549
3609.9267,0.008016
3611.7904,0.007625
3613.6540,0.007734
3615.5177,0.007545
3617.3814,0.007968
3619.2450,0.008481
3621.1087,0.008072
3622.9724,0.007851
3624.8360,0.008020
3626.6997,0.008099
3628.5634,0.008352
3630.4271,0.009293
3632.2907,0.009750
3634.1544,0.009518
3636.0181,0.009022
3637.8817,0.008656
3639.7454,0.008950
3641.6091,0.008938
3643.4727,0.008752
3645.3364,0.008965
3647.2001,0.009056
3649.0637,0.009465
3650.9274,0.010393
3652.7911,0.010256
3654.6547,0.010174
3656.5184,0.010338
3658.3821,0.010774
3660.2458,0.011311
3662.1094,0.011650
3663.9731,0.011594
3665.8368,0.011765
3667.7004,0.013230
3669.5641,0.015415
3671.4278,0.017509
3673.2914,0.020820
3675.1551,0.024740
3677.0188,0.025711
3678.8824,0.018005
3680.7461,0.010592
3682.6098,0.007470
3684.4735,0.007190
3686.3371,0.007095
3688.2008,0.006340
3690.0645,0.006345
3691.9281,0.007620
3693.7918,0.007912
3695.6555,0.007029
3697.5191,0.006559
3699.3828,0.007320
3701.2465,0.008044
3703.1101,0.007951
3704.9738,0.007417
3706.8375,0.007154
3708.7011,0.007697
3710.5648,0.008584
3712.4285,0.008613
3714.2922,0.007714
3716.1558,0.007293
3718.0195,0.007879
3719.8832,0.008265
3721.7468,0.008297
3723.6105,0.007667
3725.4742,0.007374
3727.3378,0.008144
3729.2015,0.008210
3731.0652,0.007913
3732.9288,0.007784
3734.7925,0.006879
3736.6562,0.006675
3738.5199,0.007471
3740.3835,0.007301
3742.2472,0.006922
3744.1109,0.006726
3745.9745,0.007268
3747.8382,0.007853
3749.7019,0.007741
3751.5655,0.008253
3753.4292,0.009515
3755.2929,0.009117
3757.1565,0.008284
3759.0202,0.008059
3760.8839,0.007883
3762.7475,0.007761
3764.6112,0.007864
3766.4749,0.008226
3768.3386,0.008825
3770.2022,0.008811
3772.0659,0.008573
3773.9296,0.009106
3775.7932,0.009248
3777.6569,0.008935
3779.5206,0.008913
3781.3842,0.009244
3783.2479,0.009663
3785.1116,0.009393
3786.9752,0.009011
3788.8389,0.009070
3790.7026,0.009045
3792.5662,0.008747
3794.4299,0.008482
3796.2936,0.008734
3798.1573,0.009001
3800.0209,0.008701
3801.8846,0.008474
3803.7483,0.008451
3805.6119,0.008520
3807.4756,0.009295
3809.3393,0.009724
3811.2029,0.008907
3813.0666,0.008579
3814.9303,0.008820
3816.7939,0.009313
3818.6576,0.009299
3820.5213,0.008596
3822.3850,0.008933
3824.2486,0.009265
3826.1123,0.009117
3827.9760,0.009305
3829.8396,0.009031
3831.7033,0.008380
3833.5670,0.008658
3835.4306,0.009549
3837.2943,0.009494
3839.1580,0.009600
3841.0216,0.009893
3842.8853,0.009547
3844.7490,0.009158
3846.6126,0.008769
3848.4763,0.008861
3850.3400,0.009005
3852.2037,0.008959
3854.0673,0.009297
3855.9310,0.009881
3857.7947,0.009338
3859.6583,0.008866
3861.5220,0.008926
3863.3857,0.009089
3865.2493,0.009104
3867.1130,0.009332
3868.9767,0.009433
3870.8403,0.009728
3872.7040,0.009985
3874.5677,0.009389
3876.4314,0.009131
3878.2950,0.009517
3880.1587,0.009593
3882.0224,0.009436
3883.8860,0.009382
3885.7497,0.009530
3887.6134,0.010431
3889.4770,0.010674
3891.3407,0.009761
3893.2044,0.009219
3895.0680,0.009522
3896.9317,0.009849
3898.7954,0.009804
3900.6590,0.009603
3902.5227,0.009690
3904.3864,0.009826
3906.2501,0.010084
3908.1137,0.010109
3909.9774,0.009939
3911.8411,0.010163
3913.7047,0.010086
3915.5684,0.009803
3917.4321,0.009880
3919.2957,0.010206
3921.1594,0.010257
3923.0231,0.009999
3924.8867,0.009415
3926.7504,0.009551
3928.6141,0.010580
3930.4777,0.010628
3932.3414,0.010312
3934.2051,0.010311
3936.0688,0.010168
3937.9324,0.010174
3939.7961,0.010523
3941.6598,0.010560
3943.5234,0.010389
3945.3871,0.011182
3947.2508,0.011386
3949.1144,0.010027
3950.9781,0.009624
3952.8418,0.010415
3954.7054,0.010322
3956.5691,0.009780
3958.4328,0.010140
3960.2965,0.010709
3962.1601,0.010386
3964.0238,0.010275
3965.8875,0.010537
3967.7511,0.010347
3969.6148,0.010462
3971.4785,0.010736
3973.3421,0.010822
3975.2058,0.010913
3977.0695,0.010629
3978.9331,0.010326
3980.7968,0.010530
3982.6605,0.010793
3984.5241,0.010617
3986.3878,0.010472
3988.2515,0.010598
3990.1152,0.010933
3991.9788,0.010975
3993.8425,0.010424
3995.7062,0.010203
3997.5698,0.010594
3999.4335,0.010782
