Wavenumber,Intensity
650.4205,0.106547
652.2841,0.111116
654.1478,0.117388
656.0115,0.124645
657.8751,0.131787
659.7388,0.139823
661.6025,0.150562
663.4661,0.161253
665.3298,0.170641
667.1935,0.179923
669.0571,0.182793
670.9208,0.172152
672.7845,0.161556
674.6481,0.151526
676.5118,0.146040
678.3755,0.142118
680.2392,0.138439
682.1028,0.135363
683.9665,0.133235
685.8302,0.131076
687.6938,0.130276
689.5575,0.128996
691.4212,0.125726
693.2848,0.122887
695.1485,0.121354
697.0122,0.119919
698.8758,0.119628
700.7395,0.120994
702.6032,0.122669
704.4669,0.123658
706.3305,0.125452
708.1942,0.127737
710.0579,0.130167
711.9215,0.131840
713.7852,0.134422
715.6489,0.138682
717.5125,0.143685
719.3762,0.149835
721.2399,0.157711
723.1035,0.166114
724.9672,0.175617
726.8309,0.184994
728.6945,0.192946
730.5582,0.200353
732.4219,0.209152
734.2856,0.211203
736.1492,0.198935
738.0129,0.176691
739.8766,0.155353
741.7402,0.138278
743.6039,0.121757
745.4676,0.102512
747.3312,0.082981
749.1949,0.067449
751.0586,0.058869
752.9222,0.055488
754.7859,0.054311
756.6496,0.054112
758.5132,0.054064
760.3769,0.054206
762.2406,0.054627
764.1043,0.055031
765.9679,0.055539
767.8316,0.056123
769.6953,0.056657
771.5589,0.057056
773.4226,0.057715
775.2863,0.058761
777.1499,0.060141
779.0136,0.061352
780.8773,0.062564
782.7409,0.063209
784.6046,0.063912
786.4683,0.065341
788.3320,0.066825
790.1956,0.068286
792.0593,0.069175
793.9230,0.069850
795.7866,0.071182
797.6503,0.072459
799.5140,0.073523
801.3776,0.074500
803.2413,0.075372
805.1050,0.076091
806.9686,0.076815
808.8323,0.077464
810.6960,0.077978
812.5596,0.078224
814.4233,0.078352
816.2870,0.078513
818.1507,0.079160
820.0143,0.080039
821.8780,0.080660
823.7417,0.081646
825.6053,0.083242
827.4690,0.085044
829.3327,0.086676
831.1963,0.087330
833.0600,0.086963
834.9237,0.086892
836.7873,0.087976
838.6510,0.090376
840.5147,0.094363
842.3784,0.100556
844.2420,0.110732
846.1057,0.121362
847.9694,0.119508
849.8330,0.104180
851.6967,0.091395
853.5604,0.086921
855.4240,0.087076
857.2877,0.088838
859.1514,0.090592
861.0150,0.092255
862.8787,0.094378
864.7424,0.096157
866.6060,0.097727
868.4697,0.099674
870.3334,0.101819
872.1971,0.104205
874.0607,0.107094
875.9244,0.110283
877.7881,0.113827
879.6517,0.118014
881.5154,0.123333
883.3791,0.129894
885.2427,0.138391
887.1064,0.149399
888.9701,0.161957
890.8337,0.172355
892.6974,0.172637
894.5611,0.156256
896.4247,0.133475
898.2884,0.119154
900.1521,0.114984
902.0158,0.115811
903.8794,0.118293
905.7431,0.121357
907.6068,0.124837
909.4704,0.128334
911.3341,0.132053
913.1978,0.135837
915.0614,0.138664
916.9251,0.139097
918.7888,0.137761
920.6524,0.137260
922.5161,0.138615
924.3798,0.140754
926.2435,0.143031
928.1071,0.145582
929.9708,0.148445
931.8345,0.151287
933.6981,0.154159
935.5618,0.157166
937.4255,0.160200
939.2891,0.163182
941.1528,0.166437
943.0165,0.170075
944.8801,0.174255
946.7438,0.178820
948.6075,0.183933
950.4711,0.189916
952.3348,0.196739
954.1985,0.204240
956.0622,0.212497
957.9258,0.219970
959.7895,0.223604
961.6532,0.220208
963.5168,0.210599
965.3805,0.199823
967.2442,0.193021
969.1078,0.191314
970.9715,0.193162
972.8352,0.196940
974.6988,0.202170
976.5625,0.208993
978.4262,0.217648
980.2899,0.227041
982.1535,0.232465
984.0172,0.230165
985.8809,0.226415
987.7445,0.227414
989.6082,0.231729
991.4719,0.236674
993.3355,0.241697
995.1992,0.246700
997.0629,0.251777
998.9265,0.256668
1000.7902,0.261782
1002.6539,0.267078
1004.5175,0.272203
1006.3812,0.277116
1008.2449,0.281778
1010.1086,0.285482
1011.9722,0.287963
1013.8359,0.289082
1015.6996,0.289228
1017.5632,0.288421
1019.4269,0.286548
1021.2906,0.284462
1023.1542,0.283125
1025.0179,0.282371
1026.8816,0.282457
1028.7452,0.282834
1030.6089,0.282844
1032.4726,0.281790
1034.3362,0.276016
1036.1999,0.259209
1038.0636,0.233209
1039.9273,0.208742
1041.7909,0.193817
1043.6546,0.187643
1045.5183,0.181550
1047.3819,0.168736
1049.2456,0.152209
1051.1093,0.137078
1052.9729,0.125906
1054.8366,0.119843
1056.7003,0.118101
1058.5639,0.118549
1060.4276,0.119777
1062.2913,0.121298
1064.1550,0.123078
1066.0186,0.125158
1067.8823,0.127599
1069.7460,0.130414
1071.6096,0.133493
1073.4733,0.136644
1075.3370,0.139714
1077.2006,0.142637
1079.0643,0.145773
1080.9280,0.149190
1082.7916,0.152728
1084.6553,0.156415
1086.5190,0.160617
1088.3826,0.165265
1090.2463,0.170315
1092.1100,0.176012
1093.9737,0.182073
1095.8373,0.187084
1097.7010,0.189512
1099.5647,0.188579
1101.4283,0.184671
1103.2920,0.179314
1105.1557,0.174888
1107.0193,0.172252
1108.8830,0.169174
1110.7467,0.162875
1112.6103,0.152776
1114.4740,0.140368
1116.3377,0.128248
1118.2014,0.118305
1120.0650,0.111225
1121.9287,0.106889
1123.7924,0.104739
1125.6560,0.104027
1127.5197,0.104046
1129.3834,0.104471
1131.2470,0.105399
1133.1107,0.106782
1134.9744,0.108536
1136.8380,0.110567
1138.7017,0.112866
1140.5654,0.115452
1142.4290,0.118134
1144.2927,0.120817
1146.1564,0.123618
1148.0201,0.126366
1149.8837,0.128988
1151.7474,0.131662
1153.6111,0.134410
1155.4747,0.137162
1157.3384,0.139853
1159.2021,0.142381
1161.0657,0.144931
1162.9294,0.147561
1164.7931,0.150356
1166.6567,0.153425
1168.5204,0.156565
1170.3841,0.159172
1172.2477,0.160748
1174.1114,0.160900
1175.9751,0.159615
1177.8388,0.157617
1179.7024,0.155582
1181.5661,0.153642
1183.4298,0.151814
1185.2934,0.149900
1187.1571,0.147765
1189.0208,0.145585
1190.8844,0.143484
1192.7481,0.141661
1194.6118,0.140503
1196.4754,0.140055
1198.3391,0.140280
1200.2028,0.141108
1202.0665,0.142155
1203.9301,0.142358
1205.7938,0.140835
1207.6575,0.138066
1209.5211,0.134898
1211.3848,0.131224
1213.2485,0.126636
1215.1121,0.121271
1216.9758,0.115394
1218.8395,0.108992
1220.7031,0.102362
1222.5668,0.095879
1224.4305,0.089703
1226.2941,0.083848
1228.1578,0.078157
1230.0215,0.072521
1231.8852,0.066720
1233.7488,0.060629
1235.6125,0.054491
1237.4762,0.048999
1239.3398,0.045263
1241.2035,0.043954
1243.0672,0.045176
1244.9308,0.048057
1246.7945,0.050559
1248.6582,0.051202
1250.5218,0.049381
1252.3855,0.044761
1254.2492,0.038906
1256.1129,0.034573
1257.9765,0.032450
1259.8402,0.031513
1261.7039,0.031086
1263.5675,0.031051
1265.4312,0.031153
1267.2949,0.031051
1269.1585,0.030763
1271.0222,0.030491
1272.8859,0.030282
1274.7495,0.030160
1276.6132,0.030247
1278.4769,0.030482
1280.3405,0.030794
1282.2042,0.031240
1284.0679,0.031944
1285.9316,0.033046
1287.7952,0.034546
1289.6589,0.036529
1291.5226,0.039236
1293.3862,0.042956
1295.2499,0.048125
1297.1136,0.055365
1298.9772,0.064326
1300.8409,0.072720
1302.7046,0.076460
1304.5682,0.072493
1306.4319,0.062553
1308.2956,0.051129
1310.1592,0.041238
1312.0229,0.034080
1313.8866,0.030075
1315.7503,0.028582
1317.6139,0.028207
1319.4776,0.028379
1321.3413,0.028888
1323.2049,0.029505
1325.0686,0.030162
1326.9323,0.030794
1328.7959,0.031489
1330.6596,0.032266
1332.5233,0.033033
1334.3869,0.033880
1336.2506,0.035173
1338.1143,0.037696
1339.9780,0.042115
1341.8416,0.046604
1343.7053,0.048086
1345.5690,0.045078
1347.4326,0.039629
1349.2963,0.035870
1351.1600,0.034541
1353.0236,0.034401
1354.8873,0.034621
1356.7510,0.034848
1358.6146,0.035030
1360.4783,0.035486
1362.3420,0.036644
1364.2056,0.037637
1366.0693,0.037939
1367.9330,0.038523
1369.7967,0.039382
1371.6603,0.040144
1373.5240,0.041471
1375.3877,0.043209
1377.2513,0.044499
1379.1150,0.046431
1380.9787,0.049688
1382.8423,0.054337
1384.7060,0.060936
1386.5697,0.068423
1388.4333,0.069611
1390.2970,0.062465
1392.1607,0.056275
1394.0244,0.053684
1395.8880,0.052611
1397.7517,0.051397
1399.6154,0.049975
1401.4790,0.048538
1403.3427,0.047365
1405.2064,0.045839
1407.0700,0.043434
1408.9337,0.040775
1410.7974,0.038571
1412.6610,0.037434
1414.5247,0.037741
1416.3884,0.039675
1418.2520,0.044179
1420.1157,0.050680
1421.9794,0.053628
1423.8431,0.054299
1425.7067,0.052442
1427.5704,0.047861
1429.4341,0.042604
1431.2977,0.037941
1433.1614,0.035058
1435.0251,0.033910
1436.8887,0.034305
1438.7524,0.034747
1440.6161,0.035089
1442.4797,0.035900
1444.3434,0.036707
1446.2071,0.037789
1448.0707,0.039540
1449.9344,0.041064
1451.7981,0.042408
1453.6618,0.044775
1455.5254,0.049319
1457.3891,0.055753
1459.2528,0.050096
1461.1164,0.040718
1462.9801,0.035792
1464.8438,0.034824
1466.7074,0.035139
1468.5711,0.034916
1470.4348,0.034981
1472.2984,0.036235
1474.1621,0.037733
1476.0258,0.038173
1477.8895,0.038732
1479.7531,0.039537
1481.6168,0.040920
1483.4805,0.042168
1485.3441,0.043246
1487.2078,0.045319
1489.0715,0.048853
1490.9351,0.052642
1492.7988,0.054035
1494.6625,0.055340
1496.5261,0.059485
1498.3898,0.064247
1500.2535,0.066417
1502.1171,0.067250
1503.9808,0.067552
1505.8445,0.069396
1507.7082,0.074499
1509.5718,0.073460
1511.4355,0.070041
1513.2992,0.065865
1515.1628,0.061378
1517.0265,0.056674
1518.8902,0.052823
1520.7538,0.051827
1522.6175,0.051926
1524.4812,0.051144
1526.3448,0.049414
1528.2085,0.046115
1530.0722,0.042449
1531.9359,0.039986
1533.7995,0.038391
1535.6632,0.036913
1537.5269,0.036094
1539.3905,0.036480
1541.2542,0.037971
1543.1179,0.038355
1544.9815,0.038785
1546.8452,0.039318
1548.7089,0.039906
1550.5725,0.040856
1552.4362,0.041476
1554.2999,0.041954
1556.1635,0.042845
1558.0272,0.045875
1559.8909,0.053095
1561.7546,0.052508
1563.6182,0.052402
1565.4819,0.054375
1567.3456,0.056552
1569.2092,0.059778
1571.0729,0.063314
1572.9366,0.063804
1574.8002,0.065409
1576.6639,0.069881
1578.5276,0.071877
1580.3912,0.071740
1582.2549,0.072138
1584.1186,0.071907
1585.9822,0.070770
1587.8459,0.068649
1589.7096,0.065981
1591.5733,0.063657
1593.4369,0.062051
1595.3006,0.061219
1597.1643,0.061220
1599.0279,0.061974
1600.8916,0.063656
1602.7553,0.066185
1604.6189,0.069116
1606.4826,0.072328
1608.3463,0.076211
1610.2099,0.079688
1612.0736,0.080966
1613.9373,0.079900
1615.8010,0.076585
1617.6646,0.069180
1619.5283,0.061443
1621.3920,0.055121
1623.2556,0.048515
1625.1193,0.043737
1626.9830,0.040933
1628.8466,0.038104
1630.7103,0.035351
1632.5740,0.033140
1634.4376,0.031026
1636.3013,0.028632
1638.1650,0.027198
1640.0286,0.026893
1641.8923,0.026541
1643.7560,0.026316
1645.6197,0.026366
1647.4833,0.026627
1649.3470,0.026287
1651.2107,0.026315
1653.0743,0.027657
1654.9380,0.028996
1656.8017,0.028549
1658.6653,0.028558
1660.5290,0.028664
1662.3927,0.028910
1664.2563,0.029001
1666.1200,0.028460
1667.9837,0.027968
1669.8474,0.028117
1671.7110,0.028151
1673.5747,0.028272
1675.4384,0.029117
1677.3020,0.029679
1679.1657,0.029633
1681.0294,0.030056
1682.8930,0.030842
1684.7567,0.032681
1686.6204,0.033230
1688.4840,0.032762
1690.3477,0.032483
1692.2114,0.031771
1694.0750,0.030660
1695.9387,0.029616
1697.8024,0.028633
1699.6661,0.027916
1701.5297,0.026938
1703.3934,0.025743
1705.2571,0.024187
1707.1207,0.022551
1708.9844,0.021205
1710.8481,0.019850
1712.7117,0.018620
1714.5754,0.017838
1716.4391,0.017450
1718.3027,0.017287
1720.1664,0.016919
1722.0301,0.016702
1723.8937,0.016454
1725.7574,0.016000
1727.6211,0.015451
1729.4848,0.014910
1731.3484,0.014358
1733.2121,0.014147
1735.0758,0.014176
1736.9394,0.014040
1738.8031,0.014049
1740.6668,0.014084
1742.5304,0.013913
1744.3941,0.013802
1746.2578,0.013468
1748.1214,0.013441
1749.9851,0.013603
1751.8488,0.013560
1753.7125,0.013280
1755.5761,0.013210
1757.4398,0.013369
1759.3035,0.013432
1761.1671,0.013427
1763.0308,0.013354
1764.8945,0.013086
1766.7581,0.013031
1768.6218,0.013179
1770.4855,0.013317
1772.3491,0.013423
1774.2128,0.013490
1776.0765,0.013301
1777.9401,0.013336
1779.8038,0.013491
1781.6675,0.013619
1783.5312,0.013687
1785.3948,0.013917
1787.2585,0.013810
1789.1222,0.013607
1790.9858,0.013639
1792.8495,0.013708
1794.7132,0.013561
1796.5768,0.013463
1798.4405,0.013459
1800.3042,0.013754
1802.1678,0.014014
1804.0315,0.014022
1805.8952,0.013961
1807.7589,0.013998
1809.6225,0.014167
1811.4862,0.014280
1813.3499,0.014051
1815.2135,0.013809
1817.0772,0.013836
1818.9409,0.014038
1820.8045,0.014020
1822.6682,0.014062
1824.5319,0.014391
1826.3955,0.014429
1828.2592,0.014168
1830.1229,0.014211
1831.9865,0.013997
1833.8502,0.014040
1835.7139,0.014131
1837.5776,0.013878
1839.4412,0.013724
1841.3049,0.013613
1843.1686,0.013514
1845.0322,0.013900
1846.8959,0.013840
1848.7596,0.013640
1850.6232,0.013725
1852.4869,0.013873
1854.3506,0.013764
1856.2142,0.013608
1858.0779,0.013645
1859.9416,0.013724
1861.8052,0.013576
1863.6689,0.013485
1865.5326,0.013629
1867.3963,0.013628
1869.2599,0.013547
1871.1236,0.013405
1872.9873,0.013430
1874.8509,0.013791
1876.7146,0.013854
1878.5783,0.013622
1880.4419,0.013581
1882.3056,0.013955
1884.1693,0.014022
1886.0329,0.013925
1887.8966,0.014154
1889.7603,0.014250
1891.6240,0.014186
1893.4876,0.014260
1895.3513,0.014366
1897.2150,0.014481
1899.0786,0.014574
1900.9423,0.014603
1902.8060,0.014672
1904.6696,0.014625
1906.5333,0.014323
1908.3970,0.014109
1910.2606,0.014345
1912.1243,0.014798
1913.9880,0.014880
1915.8516,0.014694
1917.7153,0.014320
1919.5790,0.014286
1921.4427,0.014295
1923.3063,0.013956
1925.1700,0.013162
1927.0337,0.012873
1928.8973,0.013200
1930.7610,0.013451
1932.6247,0.012748
1934.4883,0.011479
1936.3520,0.010793
1938.2157,0.010853
1940.0793,0.010949
1941.9430,0.010853
1943.8067,0.010426
1945.6704,0.009956
1947.5340,0.009432
1949.3977,0.009239
1951.2614,0.009407
1953.1250,0.009120
1954.9887,0.008397
1956.8524,0.008258
1958.7160,0.008381
1960.5797,0.007254
1962.4434,0.006148
1964.3070,0.005680
1966.1707,0.004593
1968.0344,0.003777
1969.8980,0.003078
1971.7617,0.002982
1973.6254,0.003270
1975.4891,0.002564
1977.3527,0.002379
1979.2164,0.004775
1981.0801,0.006137
1982.9437,0.006008
1984.8074,0.005179
1986.6711,0.004569
1988.5347,0.005202
1990.3984,0.006138
1992.2621,0.005502
1994.1257,0.005061
1995.9894,0.006024
1997.8531,0.006985
1999.7167,0.006626
2001.5804,0.005243
2003.4441,0.004331
2005.3078,0.003902
2007.1714,0.003459
2009.0351,0.004241
2010.8988,0.003974
2012.7624,0.002275
2014.6261,0.001920
2016.4898,0.002285
2018.3534,0.000831
2020.2171,0.001419
2022.0808,0.001788
2023.9444,0.001119
2025.8081,0.001545
2027.6718,0.002437
2029.5355,0.002231
2031.3991,0.001300
2033.2628,0.000916
2035.1265,0.001641
2036.9901,0.002575
2038.8538,0.004227
2040.7175,0.004521
2042.5811,0.004177
2044.4448,0.004149
2046.3085,0.005081
2048.1721,0.005882
2050.0358,0.006636
2051.8995,0.007813
2053.7631,0.008152
2055.6268,0.007739
2057.4905,0.008106
2059.3542,0.008717
2061.2178,0.009708
2063.0815,0.009875
2064.9452,0.010152
2066.8088,0.010141
2068.6725,0.010384
2070.5362,0.010546
2072.3998,0.009924
2074.2635,0.009904
2076.1272,0.010257
2077.9908,0.010239
2079.8545,0.010869
2081.7182,0.011158
2083.5819,0.011262
2085.4455,0.011809
2087.3092,0.011999
2089.1729,0.011256
2091.0365,0.010849
2092.9002,0.010452
2094.7639,0.010181
2096.6275,0.011053
2098.4912,0.011817
2100.3549,0.011484
2102.2185,0.011205
2104.0822,0.010878
2105.9459,0.010993
2107.8095,0.011173
2109.6732,0.011815
2111.5369,0.012234
2113.4006,0.011879
2115.2642,0.011222
2117.1279,0.011562
2118.9916,0.011998
2120.8552,0.011986
2122.7189,0.011625
2124.5826,0.011240
2126.4462,0.010805
2128.3099,0.010505
2130.1736,0.010202
2132.0372,0.009360
2133.9009,0.008804
2135.7646,0.009685
2137.6282,0.010062
2139.4919,0.009176
2141.3556,0.007578
2143.2193,0.006443
2145.0829,0.006186
2146.9466,0.005757
2148.8103,0.005070
2150.6739,0.004557
2152.5376,0.002840
2154.4013,0.001852
2156.2649,0.000642
2158.1286,-0.000480
2159.9923,0.000015
2161.8559,0.002838
2163.7196,0.003464
2165.5833,0.002519
2167.4470,0.002692
2169.3106,0.003012
2171.1743,0.003279
2173.0380,0.004254
2174.9016,0.004094
2176.7653,0.004184
2178.6290,0.005602
2180.4926,0.005968
2182.3563,0.005687
2184.2200,0.006183
2186.0836,0.006422
2187.9473,0.007019
2189.8110,0.007454
2191.6746,0.007504
2193.5383,0.006603
2195.4020,0.006265
2197.2657,0.007364
2199.1293,0.008779
2200.9930,0.008202
2202.8567,0.007902
2204.7203,0.008363
2206.5840,0.008467
2208.4477,0.008833
2210.3113,0.008693
2212.1750,0.008967
2214.0387,0.009631
2215.9023,0.009163
2217.7660,0.009997
2219.6297,0.010656
2221.4934,0.010594
2223.3570,0.010365
2225.2207,0.010378
2227.0844,0.010295
2228.9480,0.010810
2230.8117,0.011250
2232.6754,0.011572
2234.5390,0.011855
2236.4027,0.012180
2238.2664,0.012109
2240.1300,0.012019
2241.9937,0.012471
2243.8574,0.012945
2245.7210,0.013380
2247.5847,0.013526
2249.4484,0.013490
2251.3121,0.013544
2253.1757,0.013196
2255.0394,0.013890
2256.9031,0.015182
2258.7667,0.015446
2260.6304,0.014842
2262.4941,0.014736
2264.3577,0.014902
2266.2214,0.015045
2268.0851,0.015261
2269.9487,0.015519
2271.8124,0.015702
2273.6761,0.016133
2275.5397,0.016181
2277.4034,0.015765
2279.2671,0.015835
2281.1308,0.015884
2282.9944,0.016233
2284.8581,0.016822
2286.7218,0.017114
2288.5854,0.017413
2290.4491,0.017442
2292.3128,0.017283
2294.1764,0.017445
2296.0401,0.017547
2297.9038,0.017496
2299.7674,0.017269
2301.6311,0.017192
2303.4948,0.017349
2305.3585,0.017563
2307.2221,0.017772
2309.0858,0.017797
2310.9495,0.017716
2312.8131,0.017906
2314.6768,0.018111
2316.5405,0.017983
2318.4041,0.018037
2320.2678,0.018160
2322.1315,0.018982
2323.9951,0.019434
2325.8588,0.018696
2327.7225,0.017844
2329.5861,0.017444
2331.4498,0.017459
2333.3135,0.017587
2335.1772,0.017453
2337.0408,0.017771
2338.9045,0.017776
2340.7682,0.018029
2342.6318,0.018590
2344.4955,0.018819
2346.3592,0.018733
2348.2228,0.018228
2350.0865,0.018023
2351.9502,0.017995
2353.8138,0.018107
2355.6775,0.018091
2357.5412,0.018079
2359.4049,0.017771
2361.2685,0.017448
2363.1322,0.017330
2364.9959,0.017166
2366.8595,0.017127
2368.7232,0.017551
2370.5869,0.017801
2372.4505,0.017942
2374.3142,0.018302
2376.1779,0.018282
2378.0415,0.018320
2379.9052,0.018413
2381.7689,0.018348
2383.6325,0.018149
2385.4962,0.018360
2387.3599,0.018383
2389.2236,0.018120
2391.0872,0.018339
2392.9509,0.018758
2394.8146,0.018832
2396.6782,0.018654
2398.5419,0.018774
2400.4056,0.019257
2402.2692,0.019477
2404.1329,0.019203
2405.9966,0.018996
2407.8602,0.019084
2409.7239,0.019534
2411.5876,0.019517
2413.4512,0.019051
2415.3149,0.018623
2417.1786,0.018511
2419.0423,0.018725
2420.9059,0.018723
2422.7696,0.018543
2424.6333,0.018581
2426.4969,0.018711
2428.3606,0.018937
2430.2243,0.019168
2432.0879,0.019318
2433.9516,0.019004
2435.8153,0.018831
2437.6789,0.019281
2439.5426,0.019602
2441.4063,0.019546
2443.2700,0.019618
2445.1336,0.019403
2446.9973,0.019150
2448.8610,0.019557
2450.7246,0.019961
2452.5883,0.019934
2454.4520,0.019988
2456.3156,0.020231
2458.1793,0.020525
2460.0430,0.020586
2461.9066,0.020876
2463.7703,0.021142
2465.6340,0.021228
2467.4976,0.021459
2469.3613,0.021612
2471.2250,0.021887
2473.0887,0.022025
2474.9523,0.021693
2476.8160,0.021498
2478.6797,0.021658
2480.5433,0.021637
2482.4070,0.021236
2484.2707,0.021099
2486.1343,0.021162
2487.9980,0.020872
2489.8617,0.020918
2491.7253,0.020894
2493.5890,0.021051
2495.4527,0.021276
2497.3164,0.021412
2499.1800,0.021429
2501.0437,0.021090
2502.9074,0.020852
2504.7710,0.020796
2506.6347,0.021016
2508.4984,0.021454
2510.3620,0.021816
2512.2257,0.021829
2514.0894,0.021583
2515.9530,0.021279
2517.8167,0.021400
2519.6804,0.021785
2521.5440,0.021954
2523.4077,0.021969
2525.2714,0.022357
2527.1351,0.022836
2528.9987,0.022968
2530.8624,0.023068
2532.7261,0.022978
2534.5897,0.022635
2536.4534,0.023071
2538.3171,0.023564
2540.1807,0.023975
2542.0444,0.024192
2543.9081,0.024278
2545.7717,0.024532
2547.6354,0.024614
2549.4991,0.024471
2551.3627,0.024774
2553.2264,0.025174
2555.0901,0.025179
2556.9538,0.025445
2558.8174,0.025805
2560.6811,0.026001
2562.5448,0.026129
2564.4084,0.025621
2566.2721,0.025537
2568.1358,0.025871
2569.9994,0.025557
2571.8631,0.025676
2573.7268,0.026118
2575.5904,0.025771
2577.4541,0.025565
2579.3178,0.025598
2581.1815,0.025515
2583.0451,0.025635
2584.9088,0.025848
2586.7725,0.025660
2588.6361,0.025690
2590.4998,0.025875
2592.3635,0.026040
2594.2271,0.026603
2596.0908,0.027381
2597.9545,0.027639
2599.8181,0.028014
2601.6818,0.028268
2603.5455,0.028663
2605.4091,0.029166
2607.2728,0.029458
2609.1365,0.029887
2611.0002,0.030661
2612.8638,0.031185
2614.7275,0.031414
2616.5912,0.031548
2618.4548,0.031593
2620.3185,0.031534
2622.1822,0.031170
2624.0458,0.030948
2625.9095,0.030813
2627.7732,0.030614
2629.6368,0.030562
2631.5005,0.030391
2633.3642,0.030216
2635.2279,0.030147
2637.0915,0.030014
2638.9552,0.029947
2640.8189,0.030077
2642.6825,0.030209
2644.5462,0.030341
2646.4099,0.030432
2648.2735,0.030482
2650.1372,0.030553
2652.0009,0.030759
2653.8645,0.030931
2655.7282,0.031090
2657.5919,0.031216
2659.4555,0.031247
2661.3192,0.031267
2663.1829,0.031332
2665.0466,0.031400
2666.9102,0.031675
2668.7739,0.031901
2670.6376,0.032099
2672.5012,0.032604
2674.3649,0.033023
2676.2286,0.033297
2678.0922,0.033599
2679.9559,0.033981
2681.8196,0.034454
2683.6832,0.034647
2685.5469,0.034629
2687.4106,0.034804
2689.2742,0.034950
2691.1379,0.034891
2693.0016,0.034757
2694.8653,0.034600
2696.7289,0.034819
2698.5926,0.035131
2700.4563,0.035326
2702.3199,0.035353
2704.1836,0.035056
2706.0473,0.034761
2707.9109,0.034742
2709.7746,0.034801
2711.6383,0.034786
2713.5019,0.034536
2715.3656,0.034237
2717.2293,0.034198
2719.0930,0.034367
2720.9566,0.034553
2722.8203,0.034657
2724.6840,0.034629
2726.5476,0.034721
2728.4113,0.034941
2730.2750,0.034977
2732.1386,0.034840
2734.0023,0.034861
2735.8660,0.035284
2737.7296,0.035947
2739.5933,0.036151
2741.4570,0.036550
2743.3206,0.037168
2745.1843,0.037640
2747.0480,0.038155
2748.9117,0.038620
2750.7753,0.039013
2752.6390,0.039607
2754.5027,0.040014
2756.3663,0.040336
2758.2300,0.040537
2760.0937,0.040531
2761.9573,0.040495
2763.8210,0.040369
2765.6847,0.040208
2767.5483,0.040183
2769.4120,0.040117
2771.2757,0.039871
2773.1394,0.039747
2775.0030,0.039678
2776.8667,0.039461
2778.7304,0.039429
2780.5940,0.039457
2782.4577,0.039606
2784.3214,0.039969
2786.1850,0.040070
2788.0487,0.040104
2789.9124,0.040592
2791.7760,0.040783
2793.6397,0.040743
2795.5034,0.040838
2797.3670,0.041062
2799.2307,0.041262
2801.0944,0.041538
2802.9581,0.041843
2804.8217,0.042185
2806.6854,0.042367
2808.5491,0.042380
2810.4127,0.042623
2812.2764,0.043038
2814.1401,0.043384
2816.0037,0.043628
2817.8674,0.043943
2819.7311,0.044271
2821.5947,0.044644
2823.4584,0.044968
2825.3221,0.045003
2827.1857,0.044969
2829.0494,0.045328
2830.9131,0.045940
2832.7768,0.046409
2834.6404,0.046568
2836.5041,0.046642
2838.3678,0.047125
2840.2314,0.047799
2842.0951,0.048375
2843.9588,0.048607
2845.8224,0.049110
2847.6861,0.050161
2849.5498,0.051183
2851.4134,0.051448
2853.2771,0.051015
2855.1408,0.050688
2857.0045,0.050921
2858.8681,0.050878
2860.7318,0.050732
2862.5955,0.050628
2864.4591,0.050431
2866.3228,0.050307
2868.1865,0.050485
2870.0501,0.050974
2871.9138,0.051213
2873.7775,0.051231
2875.6411,0.051911
2877.5048,0.052928
2879.3685,0.053465
2881.2321,0.054079
2883.0958,0.054890
2884.9595,0.055647
2886.8232,0.056355
2888.6868,0.057073
2890.5505,0.058193
2892.4142,0.059048
2894.2778,0.059706
2896.1415,0.060284
2898.0052,0.060380
2899.8688,0.060065
2901.7325,0.059991
2903.5962,0.060173
2905.4598,0.060389
2907.3235,0.060378
2909.1872,0.060710
2911.0509,0.061605
2912.9145,0.062529
2914.7782,0.063291
2916.6419,0.063892
2918.5055,0.064134
2920.3692,0.064440
2922.2329,0.064961
2924.0965,0.065506
2925.9602,0.066327
2927.8239,0.067407
2929.6875,0.068438
2931.5512,0.069603
2933.4149,0.070637
2935.2785,0.071152
2937.1422,0.070282
2939.0059,0.069288
2940.8696,0.068874
2942.7332,0.068928
2944.5969,0.069146
2946.4606,0.069208
2948.3242,0.068726
2950.1879,0.068774
2952.0516,0.068966
2953.9152,0.068853
2955.7789,0.068944
2957.6426,0.069393
2959.5062,0.069881
2961.3699,0.070423
2963.2336,0.071197
2965.0972,0.072144
2966.9609,0.072943
2968.8246,0.073449
2970.6883,0.073195
2972.5519,0.071255
2974.4156,0.068182
2976.2793,0.066249
2978.1429,0.065967
2980.0066,0.066623
2981.8703,0.067233
2983.7339,0.067131
2985.5976,0.065897
2987.4613,0.064368
2989.3249,0.063146
2991.1886,0.062533
2993.0523,0.062421
2994.9160,0.062087
2996.7796,0.061922
2998.6433,0.062561
3000.5070,0.062995
3002.3706,0.063370
3004.2343,0.063705
3006.0980,0.064370
3007.9616,0.065163
3009.8253,0.066100
3011.6890,0.067182
3013.5526,0.068070
3015.4163,0.068795
3017.2800,0.069969
3019.1436,0.070801
3021.0073,0.071138
3022.8710,0.071361
3024.7347,0.071998
3026.5983,0.072822
3028.4620,0.073152
3030.3257,0.072712
3032.1893,0.072471
3034.0530,0.073188
3035.9167,0.073382
3037.7803,0.072883
3039.6440,0.072581
3041.5077,0.072284
3043.3713,0.072478
3045.2350,0.072497
3047.0987,0.071910
3048.9624,0.071548
3050.8260,0.071013
3052.6897,0.070406
3054.5534,0.069591
3056.4170,0.068857
3058.2807,0.068458
3060.1444,0.067824
3062.0080,0.067178
3063.8717,0.066732
3065.7354,0.066399
3067.5990,0.066302
3069.4627,0.066028
3071.3264,0.065407
3073.1900,0.064962
3075.0537,0.064459
3076.9174,0.063988
3078.7811,0.063592
3080.6447,0.063363
3082.5084,0.063072
3084.3721,0.062921
3086.2357,0.062202
3088.0994,0.061836
3089.9631,0.062394
3091.8267,0.062798
3093.6904,0.062389
3095.5541,0.061761
3097.4177,0.061414
3099.2814,0.061110
3101.1451,0.060836
3103.0087,0.060574
3104.8724,0.060184
3106.7361,0.059522
3108.5998,0.058742
3110.4634,0.057836
3112.3271,0.057004
3114.1908,0.056520
3116.0544,0.056114
3117.9181,0.056072
3119.7818,0.056520
3121.6454,0.056606
3123.5091,0.056065
3125.3728,0.056154
3127.2364,0.056653
3129.1001,0.056611
3130.9638,0.056888
3132.8275,0.057458
3134.6911,0.057112
3136.5548,0.056565
3138.4185,0.056335
3140.2821,0.056978
3142.1458,0.057595
3144.0095,0.057204
3145.8731,0.056568
3147.7368,0.056579
3149.6005,0.056561
3151.4641,0.056583
3153.3278,0.056413
3155.1915,0.056343
3157.0551,0.056304
3158.9188,0.056141
3160.7825,0.055716
3162.6462,0.055618
3164.5098,0.055889
3166.3735,0.055998
3168.2372,0.055506
3170.1008,0.055550
3171.9645,0.055770
3173.8282,0.055560
3175.6918,0.055326
3177.5555,0.055392
3179.4192,0.055789
3181.2828,0.056183
3183.1465,0.055800
3185.0102,0.055351
3186.8739,0.054902
3188.7375,0.055513
3190.6012,0.055899
3192.4649,0.055391
3194.3285,0.054889
3196.1922,0.054897
3198.0559,0.055075
3199.9195,0.055196
3201.7832,0.054674
3203.6469,0.054122
3205.5105,0.053988
3207.3742,0.053702
3209.2379,0.052966
3211.1015,0.052314
3212.9652,0.051336
3214.8289,0.050325
3216.6926,0.049150
3218.5562,0.047821
3220.4199,0.046545
3222.2836,0.045297
3224.1472,0.043636
3226.0109,0.042293
3227.8746,0.041273
3229.7382,0.039684
3231.6019,0.038605
3233.4656,0.038008
3235.3292,0.037692
3237.1929,0.037375
3239.0566,0.036281
3240.9202,0.034882
3242.7839,0.034228
3244.6476,0.034843
3246.5113,0.034165
3248.3749,0.032955
3250.2386,0.032735
3252.1023,0.032697
3253.9659,0.032090
3255.8296,0.032292
3257.6933,0.032768
3259.5569,0.032100
3261.4206,0.031627
3263.2843,0.031445
3265.1479,0.030967
3267.0116,0.030618
3268.8753,0.031092
3270.7390,0.031177
3272.6026,0.030992
3274.4663,0.031312
3276.3300,0.031359
3278.1936,0.030580
3280.0573,0.029832
3281.9210,0.029745
3283.7846,0.029759
3285.6483,0.029391
3287.5120,0.028648
3289.3756,0.028723
3291.2393,0.029375
3293.1030,0.028943
3294.9666,0.028105
3296.8303,0.027997
3298.6940,0.027781
3300.5577,0.027410
3302.4213,0.027614
3304.2850,0.027769
3306.1487,0.027312
3308.0123,0.027477
3309.8760,0.027045
3311.7397,0.026248
3313.6033,0.026626
3315.4670,0.027251
3317.3307,0.026810
3319.1943,0.027009
3321.0580,0.027404
3322.9217,0.026570
3324.7854,0.026233
3326.6490,0.026240
3328.5127,0.026286
3330.3764,0.026904
3332.2400,0.026922
3334.1037,0.026301
3335.9674,0.026345
3337.8310,0.026118
3339.6947,0.025706
3341.5584,0.025631
3343.4220,0.025418
3345.2857,0.024864
3347.1494,0.024807
3349.0130,0.024850
3350.8767,0.024562
3352.7404,0.024318
3354.6041,0.024209
3356.4677,0.023776
3358.3314,0.023597
3360.1951,0.023792
3362.0587,0.023323
3363.9224,0.023046
3365.7861,0.023051
3367.6497,0.023338
3369.5134,0.023022
3371.3771,0.022092
3373.2407,0.021983
3375.1044,0.022577
3376.9681,0.023489
3378.8317,0.024086
3380.6954,0.024095
3382.5591,0.023439
3384.4228,0.022474
3386.2864,0.022710
3388.1501,0.023115
3390.0138,0.022433
3391.8774,0.021631
3393.7411,0.021399
3395.6048,0.022354
3397.4684,0.023221
3399.3321,0.022828
3401.1958,0.022003
3403.0594,0.021272
3404.9231,0.021297
3406.7868,0.021659
3408.6505,0.020823
3410.5141,0.020082
3412.3778,0.021009
3414.2415,0.021105
3416.1051,0.020151
3417.9688,0.019673
3419.8325,0.019325
3421.6961,0.018854
3423.5598,0.018682
3425.4235,0.018752
3427.2871,0.018389
3429.1508,0.017965
3431.0145,0.017676
3432.8781,0.017573
3434.7418,0.017246
3436.6055,0.017336
3438.4692,0.017780
3440.3328,0.017334
3442.1965,0.016734
3444.0602,0.016444
3445.9238,0.015690
3447.7875,0.015668
3449.6512,0.015927
3451.5148,0.015573
3453.3785,0.015046
3455.2422,0.014180
3457.1058,0.013538
3458.9695,0.014046
3460.8332,0.014982
3462.6969,0.015375
3464.5605,0.015430
3466.4242,0.015583
3468.2879,0.015485
3470.1515,0.015006
3472.0152,0.014438
3473.8789,0.014120
3475.7425,0.013865
3477.6062,0.014278
3479.4699,0.014992
3481.3335,0.015221
3483.1972,0.014564
3485.0609,0.013017
3486.9245,0.012985
3488.7882,0.013229
3490.6519,0.012865
3492.5156,0.013166
3494.3792,0.013446
3496.2429,0.013384
3498.1066,0.012753
3499.9702,0.012072
3501.8339,0.011808
3503.6976,0.012353
3505.5612,0.012448
3507.4249,0.011034
3509.2886,0.010714
3511.1522,0.012305
3513.0159,0.013047
3514.8796,0.012631
3516.7432,0.012421
3518.6069,0.012394
3520.4706,0.012424
3522.3343,0.012069
3524.1979,0.011290
3526.0616,0.011343
3527.9253,0.011497
3529.7889,0.011751
3531.6526,0.012201
3533.5163,0.012086
3535.3799,0.011709
3537.2436,0.010591
3539.1073,0.010541
3540.9709,0.010820
3542.8346,0.010757
3544.6983,0.010991
3546.5620,0.010799
3548.4256,0.009959
3550.2893,0.010189
3552.1530,0.010628
3554.0166,0.010703
3555.8803,0.010616
3557.7440,0.009915
3559.6076,0.009985
3561.4713,0.010778
3563.3350,0.010597
3565.1986,0.009633
3567.0623,0.009070
3568.9260,0.008867
3570.7896,0.009138
3572.6533,0.010058
3574.5170,0.010688
3576.3807,0.010970
3578.2443,0.010765
3580.1080,0.010448
3581.9717,0.010404
3583.8353,0.010337
3585.6990,0.009703
3587.5627,0.008903
3589.4263,0.007726
3591.2900,0.007382
3593.1537,0.008778
3595.0173,0.010129
3596.8810,0.009776
3598.7447,0.009662
3600.6084,0.010908
3602.4720,0.010869
3604.3357,0.010001
3606.1994,0.009425
3608.0630,0.008793
3609.9267,0.009162
3611.7904,0.009598
3613.6540,0.009218
3615.5177,0.009314
3617.3814,0.009831
3619.2450,0.009758
3621.1087,0.009736
3622.9724,0.010242
3624.8360,0.010435
3626.6997,0.009979
3628.5634,0.010007
3630.4271,0.010281
3632.2907,0.010368
3634.1544,0.010581
3636.0181,0.010853
3637.8817,0.010968
3639.7454,0.011139
3641.6091,0.010992
3643.4727,0.010587
3645.3364,0.010574
3647.2001,0.010439
3649.0637,0.009690
3650.9274,0.009482
3652.7911,0.010625
3654.6547,0.011235
3656.5184,0.011907
3658.3821,0.012725
3660.2458,0.013002
3662.1094,0.013580
3663.9731,0.013892
3665.8368,0.014076
3667.7004,0.015095
3669.5641,0.017057
3671.4278,0.020749
3673.2914,0.024293
3675.1551,0.023786
3677.0188,0.019623
3678.8824,0.013517
3680.7461,0.009878
3682.6098,0.008327
3684.4735,0.008488
3686.3371,0.009028
3688.2008,0.009473
3690.0645,0.009075
3691.9281,0.008579
3693.7918,0.009098
3695.6555,0.010078
3697.5191,0.010907
3699.3828,0.010516
3701.2465,0.009920
3703.1101,0.010158
3704.9738,0.010116
3706.8375,0.009982
3708.7011,0.009786
3710.5648,0.008837
3712.4285,0.008615
3714.2922,0.010219
3716.1558,0.010680
3718.0195,0.010134
3719.8832,0.010197
3721.7468,0.010319
3723.6105,0.010037
3725.4742,0.009501
3727.3378,0.009278
3729.2015,0.009640
3731.0652,0.009564
3732.9288,0.009214
3734.7925,0.008811
3736.6562,0.008659
3738.5199,0.009619
3740.3835,0.010037
3742.2472,0.009511
3744.1109,0.009079
3745.9745,0.008280
3747.8382,0.007793
3749.7019,0.008773
3751.5655,0.009505
3753.4292,0.009968
3755.2929,0.010658
3757.1565,0.010889
3759.0202,0.010825
3760.8839,0.011226
3762.7475,0.011766
3764.6112,0.011863
3766.4749,0.011718
3768.3386,0.011648
3770.2022,0.011937
3772.0659,0.011851
3773.9296,0.011232
3775.7932,0.011136
3777.6569,0.011333
3779.5206,0.011490
3781.3842,0.011784
3783.2479,0.011951
3785.1116,0.011804
3786.9752,0.011789
3788.8389,0.012188
3790.7026,0.011847
3792.5662,0.011065
3794.4299,0.011148
3796.2936,0.011554
3798.1573,0.011443
3800.0209,0.011107
3801.8846,0.010772
3803.7483,0.010750
3805.6119,0.011313
3807.4756,0.011664
3809.3393,0.011875
3811.2029,0.011929
3813.0666,0.011677
3814.9303,0.011187
3816.7939,0.011188
3818.6576,0.011922
3820.5213,0.011754
3822.3850,0.011506
3824.2486,0.011874
3826.1123,0.011896
3827.9760,0.011570
3829.8396,0.011103
3831.7033,0.011362
3833.5670,0.011594
3835.4306,0.010909
3837.2943,0.010468
3839.1580,0.010964
3841.0216,0.011954
3842.8853,0.011887
3844.7490,0.011629
3846.6126,0.011858
3848.4763,0.011491
3850.3400,0.010850
3852.2037,0.011004
3854.0673,0.011921
3855.9310,0.012342
3857.7947,0.012114
3859.6583,0.011675
3861.5220,0.011291
3863.3857,0.011570
3865.2493,0.011987
3867.1130,0.012070
3868.9767,0.011795
3870.8403,0.011660
3872.7040,0.011759
3874.5677,0.011747
3876.4314,0.011988
3878.2950,0.012259
3880.1587,0.012456
3882.0224,0.012701
3883.8860,0.012400
3885.7497,0.011977
3887.6134,0.012143
3889.4770,0.012382
3891.3407,0.012507
3893.2044,0.012694
3895.0680,0.012714
3896.9317,0.012371
3898.7954,0.011857
3900.6590,0.011815
3902.5227,0.011882
3904.3864,0.012049
3906.2501,0.013209
3908.1137,0.013832
3909.9774,0.013318
3911.8411,0.012889
3913.7047,0.012824
3915.5684,0.012531
3917.4321,0.012350
3919.2957,0.012295
3921.1594,0.012467
3923.0231,0.013041
3924.8867,0.013035
3926.7504,0.012549
3928.6141,0.012419
3930.4777,0.012835
3932.3414,0.013158
3934.2051,0.013297
3936.0688,0.013481
3937.9324,0.013702
3939.7961,0.013574
3941.6598,0.013130
3943.5234,0.013285
3945.3871,0.013299
3947.2508,0.013088
3949.1144,0.013218
3950.9781,0.013425
3952.8418,0.013287
3954.7054,0.012949
3956.5691,0.013028
3958.4328,0.013123
3960.2965,0.013265
3962.1601,0.013599
3964.0238,0.013809
3965.8875,0.013953
3967.7511,0.013850
3969.6148,0.013484
3971.4785,0.013474
3973.3421,0.013854
3975.2058,0.013778
3977.0695,0.013160
3978.9331,0.013271
3980.7968,0.014074
3982.6605,0.013896
3984.5241,0.013193
3986.3878,0.013066
3988.2515,0.013151
3990.1152,0.013381
3991.9788,0.014116
3993.8425,0.014189
3995.7062,0.013515
3997.5698,0.013578
3999.4335,0.013933
