Wavenumber,Intensity
650.4205,0.079394
652.2841,0.081303
654.1478,0.082939
656.0115,0.086901
657.8751,0.091472
659.7388,0.095957
661.6025,0.102027
663.4661,0.108586
665.3298,0.112839
667.1935,0.118010
669.0571,0.122399
670.9208,0.116974
672.7845,0.110016
674.6481,0.102801
676.5118,0.097986
678.3755,0.095060
680.2392,0.093134
682.1028,0.091453
683.9665,0.090750
685.8302,0.088142
687.6938,0.085416
689.5575,0.083898
691.4212,0.083043
693.2848,0.082010
695.1485,0.080277
697.0122,0.078710
698.8758,0.078511
700.7395,0.077777
702.6032,0.078156
704.4669,0.080086
706.3305,0.081520
708.1942,0.081699
710.0579,0.081680
711.9215,0.082169
713.7852,0.083160
715.6489,0.084669
717.5125,0.086969
719.3762,0.089630
721.2399,0.093121
723.1035,0.097033
724.9672,0.101932
726.8309,0.106910
728.6945,0.111101
730.5582,0.115535
732.4219,0.120901
734.2856,0.124106
736.1492,0.120841
738.0129,0.110080
739.8766,0.097737
741.7402,0.087805
743.6039,0.078565
745.4676,0.066898
747.3312,0.054612
749.1949,0.045481
751.0586,0.040651
752.9222,0.038479
754.7859,0.037476
756.6496,0.036924
758.5132,0.037092
760.3769,0.037664
762.2406,0.037826
764.1043,0.037977
765.9679,0.038250
767.8316,0.038173
769.6953,0.038159
771.5589,0.038802
773.4226,0.039589
775.2863,0.040099
777.1499,0.040846
779.0136,0.041785
780.8773,0.042636
782.7409,0.043354
784.6046,0.043983
786.4683,0.044690
788.3320,0.045158
790.1956,0.045609
792.0593,0.046355
793.9230,0.047109
795.7866,0.048228
797.6503,0.049046
799.5140,0.049589
801.3776,0.050048
803.2413,0.050683
805.1050,0.051545
806.9686,0.051933
808.8323,0.051938
810.6960,0.052006
812.5596,0.052058
814.4233,0.052133
816.2870,0.052074
818.1507,0.052186
820.0143,0.052410
821.8780,0.052644
823.7417,0.053003
825.6053,0.053533
827.4690,0.054733
829.3327,0.056272
831.1963,0.056231
833.0600,0.055157
834.9237,0.055006
836.7873,0.055599
838.6510,0.056336
840.5147,0.058148
842.3784,0.061690
844.2420,0.067146
846.1057,0.073178
847.9694,0.073039
849.8330,0.065251
851.6967,0.058376
853.5604,0.055989
855.4240,0.055858
857.2877,0.056694
859.1514,0.057748
861.0150,0.058563
862.8787,0.059574
864.7424,0.060458
866.6060,0.061345
868.4697,0.062434
870.3334,0.063496
872.1971,0.064543
874.0607,0.066057
875.9244,0.067940
877.7881,0.069749
879.6517,0.071680
881.5154,0.074185
883.3791,0.077468
885.2427,0.081749
887.1064,0.087354
888.9701,0.094341
890.8337,0.100928
892.6974,0.102814
894.5611,0.095791
896.4247,0.084162
898.2884,0.076052
900.1521,0.073134
902.0158,0.073028
903.8794,0.074262
905.7431,0.076020
907.6068,0.078115
909.4704,0.080447
911.3341,0.083003
913.1978,0.085845
915.0614,0.087931
916.9251,0.087804
918.7888,0.086368
920.6524,0.085560
922.5161,0.085986
924.3798,0.087019
926.2435,0.088264
928.1071,0.089752
929.9708,0.091324
931.8345,0.092844
933.6981,0.094458
935.5618,0.096123
937.4255,0.097888
939.2891,0.099674
941.1528,0.101610
943.0165,0.103749
944.8801,0.106034
946.7438,0.108473
948.6075,0.111337
950.4711,0.114577
952.3348,0.118351
954.1985,0.122622
956.0622,0.127043
957.9258,0.131188
959.7895,0.133709
961.6532,0.132641
963.5168,0.128124
965.3805,0.122840
967.2442,0.119408
969.1078,0.118361
970.9715,0.119179
972.8352,0.121302
974.6988,0.124446
976.5625,0.128403
978.4262,0.133498
980.2899,0.139812
982.1535,0.144069
984.0172,0.142521
985.8809,0.139126
987.7445,0.138845
989.6082,0.140971
991.4719,0.143549
993.3355,0.146180
995.1992,0.148738
997.0629,0.151363
998.9265,0.154057
1000.7902,0.156638
1002.6539,0.159162
1004.5175,0.161821
1006.3812,0.164294
1008.2449,0.166555
1010.1086,0.168443
1011.9722,0.169747
1013.8359,0.170351
1015.6996,0.170564
1017.5632,0.170279
1019.4269,0.169307
1021.2906,0.167915
1023.1542,0.166822
1025.0179,0.166133
1026.8816,0.165824
1028.7452,0.165955
1030.6089,0.166246
1032.4726,0.166357
1034.3362,0.164834
1036.1999,0.157980
1038.0636,0.145305
1039.9273,0.132056
1041.7909,0.123396
1043.6546,0.119540
1045.5183,0.115968
1047.3819,0.108819
1049.2456,0.099253
1051.1093,0.089938
1052.9729,0.082758
1054.8366,0.078551
1056.7003,0.076777
1058.5639,0.076425
1060.4276,0.076699
1062.2913,0.077200
1064.1550,0.078000
1066.0186,0.079044
1067.8823,0.080237
1069.7460,0.081649
1071.6096,0.083331
1073.4733,0.085078
1075.3370,0.086721
1077.2006,0.088284
1079.0643,0.089805
1080.9280,0.091280
1082.7916,0.092907
1084.6553,0.094779
1086.5190,0.096801
1088.3826,0.099086
1090.2463,0.101758
1092.1100,0.104742
1093.9737,0.108048
1095.8373,0.111308
1097.7010,0.113563
1099.5647,0.113900
1101.4283,0.112438
1103.2920,0.110210
1105.1557,0.108618
1107.0193,0.108049
1108.8830,0.107280
1110.7467,0.104460
1112.6103,0.098839
1114.4740,0.091370
1116.3377,0.083705
1118.2014,0.077083
1120.0650,0.072088
1121.9287,0.068780
1123.7924,0.066978
1125.6560,0.066190
1127.5197,0.065926
1129.3834,0.065948
1131.2470,0.066229
1133.1107,0.066810
1134.9744,0.067739
1136.8380,0.068854
1138.7017,0.069982
1140.5654,0.071177
1142.4290,0.072559
1144.2927,0.074142
1146.1564,0.075684
1148.0201,0.077116
1149.8837,0.078575
1151.7474,0.080033
1153.6111,0.081502
1155.4747,0.082966
1157.3384,0.084366
1159.2021,0.085747
1161.0657,0.087136
1162.9294,0.088467
1164.7931,0.090025
1166.6567,0.091795
1168.5204,0.093547
1170.3841,0.095129
1172.2477,0.096129
1174.1114,0.096244
1175.9751,0.095479
1177.8388,0.094093
1179.7024,0.092542
1181.5661,0.091144
1183.4298,0.089856
1185.2934,0.088536
1187.1571,0.087208
1189.0208,0.085858
1190.8844,0.084521
1192.7481,0.083362
1194.6118,0.082634
1196.4754,0.082379
1198.3391,0.082546
1200.2028,0.083117
1202.0665,0.083818
1203.9301,0.084085
1205.7938,0.083479
1207.6575,0.082194
1209.5211,0.080680
1211.3848,0.078855
1213.2485,0.076566
1215.1121,0.073819
1216.9758,0.070719
1218.8395,0.067399
1220.7031,0.063876
1222.5668,0.060255
1224.4305,0.056713
1226.2941,0.053298
1228.1578,0.050006
1230.0215,0.046692
1231.8852,0.043219
1233.7488,0.039571
1235.6125,0.035842
1237.4762,0.032524
1239.3398,0.030174
1241.2035,0.029110
1243.0672,0.029562
1244.9308,0.031231
1246.7945,0.032800
1248.6582,0.033250
1250.5218,0.032313
1252.3855,0.029706
1254.2492,0.026321
1256.1129,0.023750
1257.9765,0.022421
1259.8402,0.021841
1261.7039,0.021566
1263.5675,0.021463
1265.4312,0.021447
1267.2949,0.021402
1269.1585,0.021228
1271.0222,0.021084
1272.8859,0.020976
1274.7495,0.020814
1276.6132,0.020825
1278.4769,0.020964
1280.3405,0.021127
1282.2042,0.021473
1284.0679,0.021926
1285.9316,0.022468
1287.7952,0.023263
1289.6589,0.024299
1291.5226,0.025647
1293.3862,0.027572
1295.2499,0.030407
1297.1136,0.034403
1298.9772,0.039597
1300.8409,0.045149
1302.7046,0.048831
1304.5682,0.048386
1306.4319,0.043883
1308.2956,0.037383
1310.1592,0.030714
1312.0229,0.025171
1313.8866,0.021494
1315.7503,0.019707
1317.6139,0.019201
1319.4776,0.019280
1321.3413,0.019459
1323.2049,0.019744
1325.0686,0.020210
1326.9323,0.020710
1328.7959,0.021224
1330.6596,0.021722
1332.5233,0.022198
1334.3869,0.022777
1336.2506,0.023645
1338.1143,0.025203
1339.9780,0.027854
1341.8416,0.030484
1343.7053,0.031456
1345.5690,0.030002
1347.4326,0.027043
1349.2963,0.024897
1351.1600,0.023994
1353.0236,0.023737
1354.8873,0.023867
1356.7510,0.024013
1358.6146,0.024132
1360.4783,0.024604
1362.3420,0.025583
1364.2056,0.026264
1366.0693,0.026428
1367.9330,0.026946
1369.7967,0.027662
1371.6603,0.028271
1373.5240,0.029284
1375.3877,0.030391
1377.2513,0.031055
1379.1150,0.032166
1380.9787,0.034071
1382.8423,0.036732
1384.7060,0.040715
1386.5697,0.045743
1388.4333,0.047591
1390.2970,0.044290
1392.1607,0.041277
1394.0244,0.040391
1395.8880,0.039775
1397.7517,0.038373
1399.6154,0.036969
1401.4790,0.035517
1403.3427,0.034526
1405.2064,0.033590
1407.0700,0.031480
1408.9337,0.028820
1410.7974,0.026535
1412.6610,0.024949
1414.5247,0.024289
1416.3884,0.024999
1418.2520,0.027782
1420.1157,0.031937
1421.9794,0.033805
1423.8431,0.034377
1425.7067,0.033202
1427.5704,0.030363
1429.4341,0.027540
1431.2977,0.024857
1433.1614,0.022809
1435.0251,0.022053
1436.8887,0.022684
1438.7524,0.022752
1440.6161,0.022438
1442.4797,0.022768
1444.3434,0.023256
1446.2071,0.023835
1448.0707,0.024738
1449.9344,0.025351
1451.7981,0.025764
1453.6618,0.026759
1455.5254,0.029496
1457.3891,0.034309
1459.2528,0.031369
1461.1164,0.025730
1462.9801,0.022988
1464.8438,0.022683
1466.7074,0.022630
1468.5711,0.021944
1470.4348,0.021761
1472.2984,0.022749
1474.1621,0.023663
1476.0258,0.023658
1477.8895,0.023772
1479.7531,0.023912
1481.6168,0.024524
1483.4805,0.025124
1485.3441,0.025517
1487.2078,0.026616
1489.0715,0.028777
1490.9351,0.030935
1492.7988,0.031453
1494.6625,0.032127
1496.5261,0.034813
1498.3898,0.037864
1500.2535,0.039224
1502.1171,0.039709
1503.9808,0.040080
1505.8445,0.042627
1507.7082,0.047960
1509.5718,0.046313
1511.4355,0.043670
1513.2992,0.041174
1515.1628,0.038525
1517.0265,0.036033
1518.8902,0.033775
1520.7538,0.033314
1522.6175,0.033621
1524.4812,0.032679
1526.3448,0.031876
1528.2085,0.030293
1530.0722,0.028062
1531.9359,0.026683
1533.7995,0.026133
1535.6632,0.025003
1537.5269,0.024173
1539.3905,0.025321
1541.2542,0.027398
1543.1179,0.027114
1544.9815,0.027178
1546.8452,0.027084
1548.7089,0.027161
1550.5725,0.027985
1552.4362,0.028428
1554.2999,0.028768
1556.1635,0.029520
1558.0272,0.032089
1559.8909,0.037785
1561.7546,0.036024
1563.6182,0.035136
1565.4819,0.036295
1567.3456,0.037823
1569.2092,0.040206
1571.0729,0.042381
1572.9366,0.042169
1574.8002,0.043458
1576.6639,0.047238
1578.5276,0.048121
1580.3912,0.047634
1582.2549,0.048327
1584.1186,0.048700
1585.9822,0.048299
1587.8459,0.047451
1589.7096,0.046424
1591.5733,0.045252
1593.4369,0.044265
1595.3006,0.043738
1597.1643,0.043493
1599.0279,0.043572
1600.8916,0.044265
1602.7553,0.045436
1604.6189,0.046876
1606.4826,0.048480
1608.3463,0.050525
1610.2099,0.052515
1612.0736,0.053376
1613.9373,0.053018
1615.8010,0.052014
1617.6646,0.048552
1619.5283,0.043032
1621.3920,0.038876
1623.2556,0.035324
1625.1193,0.031795
1626.9830,0.029210
1628.8466,0.027150
1630.7103,0.024905
1632.5740,0.023041
1634.4376,0.021897
1636.3013,0.021045
1638.1650,0.019512
1640.0286,0.018416
1641.8923,0.017646
1643.7560,0.017446
1645.6197,0.017952
1647.4833,0.018564
1649.3470,0.017880
1651.2107,0.017832
1653.0743,0.019864
1654.9380,0.021159
1656.8017,0.020220
1658.6653,0.020038
1660.5290,0.020090
1662.3927,0.020347
1664.2563,0.020296
1666.1200,0.019708
1667.9837,0.019421
1669.8474,0.019563
1671.7110,0.019272
1673.5747,0.019186
1675.4384,0.019803
1677.3020,0.020024
1679.1657,0.019912
1681.0294,0.020528
1682.8930,0.021739
1684.7567,0.024096
1686.6204,0.024314
1688.4840,0.023609
1690.3477,0.023338
1692.2114,0.022690
1694.0750,0.022183
1695.9387,0.022037
1697.8024,0.021348
1699.6661,0.020838
1701.5297,0.019884
1703.3934,0.018210
1705.2571,0.017069
1707.1207,0.015642
1708.9844,0.014174
1710.8481,0.013117
1712.7117,0.012220
1714.5754,0.011711
1716.4391,0.011624
1718.3027,0.011710
1720.1664,0.011257
1722.0301,0.010766
1723.8937,0.010607
1725.7574,0.010250
1727.6211,0.009624
1729.4848,0.009199
1731.3484,0.009036
1733.2121,0.009195
1735.0758,0.009395
1736.9394,0.008895
1738.8031,0.008667
1740.6668,0.008814
1742.5304,0.008676
1744.3941,0.008531
1746.2578,0.008435
1748.1214,0.008636
1749.9851,0.008852
1751.8488,0.008528
1753.7125,0.008157
1755.5761,0.008037
1757.4398,0.008140
1759.3035,0.008090
1761.1671,0.008052
1763.0308,0.008224
1764.8945,0.008120
1766.7581,0.007989
1768.6218,0.008011
1770.4855,0.008197
1772.3491,0.008493
1774.2128,0.008488
1776.0765,0.008190
1777.9401,0.008105
1779.8038,0.008047
1781.6675,0.008097
1783.5312,0.008130
1785.3948,0.008124
1787.2585,0.008071
1789.1222,0.008078
1790.9858,0.008207
1792.8495,0.008390
1794.7132,0.008257
1796.5768,0.008088
1798.4405,0.008100
1800.3042,0.008431
1802.1678,0.008643
1804.0315,0.008470
1805.8952,0.008275
1807.7589,0.008249
1809.6225,0.008463
1811.4862,0.008627
1813.3499,0.008458
1815.2135,0.008196
1817.0772,0.008245
1818.9409,0.008512
1820.8045,0.008482
1822.6682,0.008316
1824.5319,0.008404
1826.3955,0.008436
1828.2592,0.008226
1830.1229,0.008555
1831.9865,0.008640
1833.8502,0.008398
1835.7139,0.008424
1837.5776,0.008412
1839.4412,0.008271
1841.3049,0.008102
1843.1686,0.008103
1845.0322,0.008326
1846.8959,0.008268
1848.7596,0.008343
1850.6232,0.008334
1852.4869,0.008207
1854.3506,0.008183
1856.2142,0.008239
1858.0779,0.008406
1859.9416,0.008302
1861.8052,0.007791
1863.6689,0.007645
1865.5326,0.007861
1867.3963,0.008295
1869.2599,0.008516
1871.1236,0.008238
1872.9873,0.008106
1874.8509,0.008301
1876.7146,0.008346
1878.5783,0.008436
1880.4419,0.008798
1882.3056,0.008854
1884.1693,0.008561
1886.0329,0.008287
1887.8966,0.008149
1889.7603,0.008272
1891.6240,0.008273
1893.4876,0.008440
1895.3513,0.008604
1897.2150,0.008613
1899.0786,0.008731
1900.9423,0.008519
1902.8060,0.008416
1904.6696,0.008496
1906.5333,0.008460
1908.3970,0.008349
1910.2606,0.008345
1912.1243,0.008425
1913.9880,0.008730
1915.8516,0.008638
1917.7153,0.008686
1919.5790,0.008842
1921.4427,0.008204
1923.3063,0.007810
1925.1700,0.007803
1927.0337,0.007991
1928.8973,0.007825
1930.7610,0.007614
1932.6247,0.007827
1934.4883,0.007920
1936.3520,0.007773
1938.2157,0.007514
1940.0793,0.006907
1941.9430,0.006604
1943.8067,0.006292
1945.6704,0.006059
1947.5340,0.006004
1949.3977,0.005785
1951.2614,0.005644
1953.1250,0.005172
1954.9887,0.004107
1956.8524,0.003703
1958.7160,0.003513
1960.5797,0.004065
1962.4434,0.004299
1964.3070,0.003139
1966.1707,0.001233
1968.0344,0.001487
1969.8980,0.002113
1971.7617,0.001266
1973.6254,0.001500
1975.4891,0.002975
1977.3527,0.002445
1979.2164,0.002840
1981.0801,0.002893
1982.9437,0.002285
1984.8074,0.002724
1986.6711,0.003282
1988.5347,0.003230
1990.3984,0.003583
1992.2621,0.003328
1994.1257,0.002965
1995.9894,0.003234
1997.8531,0.003437
1999.7167,0.003372
2001.5804,0.003850
2003.4441,0.003862
2005.3078,0.002605
2007.1714,0.001749
2009.0351,0.001837
2010.8988,0.002005
2012.7624,0.001903
2014.6261,0.001194
2016.4898,0.001191
2018.3534,0.001005
2020.2171,0.000944
2022.0808,0.001021
2023.9444,0.000609
2025.8081,0.000458
2027.6718,0.001532
2029.5355,0.000916
2031.3991,0.000129
2033.2628,0.000037
2035.1265,0.001545
2036.9901,0.002040
2038.8538,0.001591
2040.7175,0.002259
2042.5811,0.002216
2044.4448,0.001944
2046.3085,0.002207
2048.1721,0.002591
2050.0358,0.003490
2051.8995,0.004101
2053.7631,0.004672
2055.6268,0.005516
2057.4905,0.005446
2059.3542,0.005488
2061.2178,0.005759
2063.0815,0.005347
2064.9452,0.005730
2066.8088,0.005909
2068.6725,0.006223
2070.5362,0.006989
2072.3998,0.006712
2074.2635,0.005962
2076.1272,0.005759
2077.9908,0.006129
2079.8545,0.006977
2081.7182,0.006975
2083.5819,0.006599
2085.4455,0.006863
2087.3092,0.006967
2089.1729,0.006639
2091.0365,0.006262
2092.9002,0.006028
2094.7639,0.006225
2096.6275,0.006740
2098.4912,0.007065
2100.3549,0.006596
2102.2185,0.006695
2104.0822,0.007438
2105.9459,0.007659
2107.8095,0.007371
2109.6732,0.007406
2111.5369,0.007189
2113.4006,0.007010
2115.2642,0.007219
2117.1279,0.007071
2118.9916,0.006970
2120.8552,0.007458
2122.7189,0.007648
2124.5826,0.007140
2126.4462,0.006675
2128.3099,0.007107
2130.1736,0.006823
2132.0372,0.006320
2133.9009,0.005849
2135.7646,0.005366
2137.6282,0.005259
2139.4919,0.005149
2141.3556,0.004378
2143.2193,0.003835
2145.0829,0.004292
2146.9466,0.004756
2148.8103,0.003920
2150.6739,0.003016
2152.5376,0.002112
2154.4013,0.001768
2156.2649,0.001824
2158.1286,0.000666
2159.9923,0.000767
2161.8559,0.001395
2163.7196,0.000851
2165.5833,0.001276
2167.4470,0.002148
2169.3106,0.002381
2171.1743,0.002137
2173.0380,0.001915
2174.9016,0.002098
2176.7653,0.002619
2178.6290,0.003428
2180.4926,0.003351
2182.3563,0.003764
2184.2200,0.004330
2186.0836,0.003324
2187.9473,0.003105
2189.8110,0.004364
2191.6746,0.005307
2193.5383,0.005659
2195.4020,0.005789
2197.2657,0.005231
2199.1293,0.004897
2200.9930,0.004918
2202.8567,0.005195
2204.7203,0.005168
2206.5840,0.004702
2208.4477,0.004985
2210.3113,0.005774
2212.1750,0.006380
2214.0387,0.006791
2215.9023,0.006393
2217.7660,0.006206
2219.6297,0.006252
2221.4934,0.006515
2223.3570,0.007121
2225.2207,0.006792
2227.0844,0.006165
2228.9480,0.006593
2230.8117,0.007127
2232.6754,0.007425
2234.5390,0.007350
2236.4027,0.006950
2238.2664,0.006806
2240.1300,0.007425
2241.9937,0.008041
2243.8574,0.008559
2245.7210,0.008569
2247.5847,0.008491
2249.4484,0.008478
2251.3121,0.008502
2253.1757,0.008488
2255.0394,0.008367
2256.9031,0.008972
2258.7667,0.009911
2260.6304,0.009966
2262.4941,0.009107
2264.3577,0.008809
2266.2214,0.009187
2268.0851,0.009418
2269.9487,0.009782
2271.8124,0.009862
2273.6761,0.009731
2275.5397,0.009754
2277.4034,0.009858
2279.2671,0.009729
2281.1308,0.009946
2282.9944,0.009964
2284.8581,0.010074
2286.7218,0.010548
2288.5854,0.010476
2290.4491,0.010414
2292.3128,0.010823
2294.1764,0.010773
2296.0401,0.010628
2297.9038,0.010889
2299.7674,0.010953
2301.6311,0.010695
2303.4948,0.010732
2305.3585,0.010647
2307.2221,0.010474
2309.0858,0.010533
2310.9495,0.010607
2312.8131,0.010866
2314.6768,0.011107
2316.5405,0.011186
2318.4041,0.011116
2320.2678,0.011320
2322.1315,0.011732
2323.9951,0.011886
2325.8588,0.011752
2327.7225,0.011372
2329.5861,0.010936
2331.4498,0.011124
2333.3135,0.011261
2335.1772,0.011009
2337.0408,0.010757
2338.9045,0.010899
2340.7682,0.011002
2342.6318,0.011134
2344.4955,0.011326
2346.3592,0.011488
2348.2228,0.011190
2350.0865,0.010715
2351.9502,0.010862
2353.8138,0.011231
2355.6775,0.011062
2357.5412,0.010945
2359.4049,0.010993
2361.2685,0.010989
2363.1322,0.011000
2364.9959,0.010907
2366.8595,0.010483
2368.7232,0.010646
2370.5869,0.010858
2372.4505,0.010942
2374.3142,0.011109
2376.1779,0.011031
2378.0415,0.010988
2379.9052,0.010980
2381.7689,0.010972
2383.6325,0.010930
2385.4962,0.010749
2387.3599,0.010736
2389.2236,0.010976
2391.0872,0.010979
2392.9509,0.010888
2394.8146,0.010914
2396.6782,0.010715
2398.5419,0.010999
2400.4056,0.011453
2402.2692,0.011259
2404.1329,0.011117
2405.9966,0.011324
2407.8602,0.011470
2409.7239,0.011497
2411.5876,0.011566
2413.4512,0.011359
2415.3149,0.011234
2417.1786,0.011059
2419.0423,0.010914
2420.9059,0.011088
2422.7696,0.011227
2424.6333,0.011541
2426.4969,0.011683
2428.3606,0.011340
2430.2243,0.011075
2432.0879,0.011191
2433.9516,0.011133
2435.8153,0.011137
2437.6789,0.011291
2439.5426,0.011375
2441.4063,0.011385
2443.2700,0.011319
2445.1336,0.011506
2446.9973,0.011735
2448.8610,0.011715
2450.7246,0.011701
2452.5883,0.011932
2454.4520,0.011887
2456.3156,0.011630
2458.1793,0.011904
2460.0430,0.011939
2461.9066,0.011910
2463.7703,0.012118
2465.6340,0.012412
2467.4976,0.012588
2469.3613,0.012473
2471.2250,0.012510
2473.0887,0.012598
2474.9523,0.012809
2476.8160,0.012664
2478.6797,0.012484
2480.5433,0.012328
2482.4070,0.012187
2484.2707,0.012660
2486.1343,0.012796
2487.9980,0.012510
2489.8617,0.012370
2491.7253,0.012309
2493.5890,0.012313
2495.4527,0.012623
2497.3164,0.012458
2499.1800,0.012251
2501.0437,0.012242
2502.9074,0.012233
2504.7710,0.012355
2506.6347,0.012640
2508.4984,0.012499
2510.3620,0.012214
2512.2257,0.012342
2514.0894,0.012792
2515.9530,0.012645
2517.8167,0.012446
2519.6804,0.012625
2521.5440,0.012513
2523.4077,0.012617
2525.2714,0.013032
2527.1351,0.012985
2528.9987,0.012911
2530.8624,0.013020
2532.7261,0.013355
2534.5897,0.013649
2536.4534,0.013764
2538.3171,0.013461
2540.1807,0.013236
2542.0444,0.013564
2543.9081,0.014045
2545.7717,0.014436
2547.6354,0.014067
2549.4991,0.013847
2551.3627,0.014277
2553.2264,0.014317
2555.0901,0.014451
2556.9538,0.014579
2558.8174,0.014681
2560.6811,0.014785
2562.5448,0.014674
2564.4084,0.014765
2566.2721,0.015083
2568.1358,0.014914
2569.9994,0.014783
2571.8631,0.015057
2573.7268,0.015105
2575.5904,0.014769
2577.4541,0.014558
2579.3178,0.014602
2581.1815,0.014517
2583.0451,0.014819
2584.9088,0.014589
2586.7725,0.014265
2588.6361,0.014579
2590.4998,0.015006
2592.3635,0.015275
2594.2271,0.015175
2596.0908,0.015466
2597.9545,0.015695
2599.8181,0.015675
2601.6818,0.015884
2603.5455,0.016223
2605.4091,0.016479
2607.2728,0.017066
2609.1365,0.017172
2611.0002,0.017223
2612.8638,0.017452
2614.7275,0.017605
2616.5912,0.017792
2618.4548,0.017876
2620.3185,0.017929
2622.1822,0.018054
2624.0458,0.017909
2625.9095,0.017471
2627.7732,0.017566
2629.6368,0.017780
2631.5005,0.017662
2633.3642,0.017480
2635.2279,0.017422
2637.0915,0.017314
2638.9552,0.017409
2640.8189,0.017541
2642.6825,0.017491
2644.5462,0.017322
2646.4099,0.017262
2648.2735,0.017397
2650.1372,0.017552
2652.0009,0.017715
2653.8645,0.017852
2655.7282,0.017894
2657.5919,0.017772
2659.4555,0.017864
2661.3192,0.017976
2663.1829,0.017661
2665.0466,0.017464
2666.9102,0.017701
2668.7739,0.018036
2670.6376,0.018328
2672.5012,0.018419
2674.3649,0.018533
2676.2286,0.018689
2678.0922,0.018911
2679.9559,0.019115
2681.8196,0.019303
2683.6832,0.019392
2685.5469,0.019484
2687.4106,0.019579
2689.2742,0.019692
2691.1379,0.019647
2693.0016,0.019692
2694.8653,0.019882
2696.7289,0.019754
2698.5926,0.019606
2700.4563,0.019686
2702.3199,0.019799
2704.1836,0.019821
2706.0473,0.019790
2707.9109,0.019914
2709.7746,0.019813
2711.6383,0.019769
2713.5019,0.019875
2715.3656,0.019777
2717.2293,0.019594
2719.0930,0.019721
2720.9566,0.019715
2722.8203,0.019767
2724.6840,0.019782
2726.5476,0.019658
2728.4113,0.019828
2730.2750,0.019936
2732.1386,0.019991
2734.0023,0.020236
2735.8660,0.020440
2737.7296,0.020611
2739.5933,0.020640
2741.4570,0.020739
2743.3206,0.021013
2745.1843,0.021273
2747.0480,0.021445
2748.9117,0.021669
2750.7753,0.021953
2752.6390,0.022200
2754.5027,0.022454
2756.3663,0.022788
2758.2300,0.022973
2760.0937,0.023253
2761.9573,0.023306
2763.8210,0.023276
2765.6847,0.023334
2767.5483,0.023188
2769.4120,0.023070
2771.2757,0.022987
2773.1394,0.022890
2775.0030,0.022840
2776.8667,0.022977
2778.7304,0.023087
2780.5940,0.022925
2782.4577,0.022930
2784.3214,0.023143
2786.1850,0.023268
2788.0487,0.023372
2789.9124,0.023314
2791.7760,0.023439
2793.6397,0.023607
2795.5034,0.023701
2797.3670,0.023639
2799.2307,0.023600
2801.0944,0.023800
2802.9581,0.023813
2804.8217,0.023832
2806.6854,0.024143
2808.5491,0.024241
2810.4127,0.024342
2812.2764,0.024558
2814.1401,0.024744
2816.0037,0.024835
2817.8674,0.025014
2819.7311,0.025064
2821.5947,0.024950
2823.4584,0.025082
2825.3221,0.025196
2827.1857,0.025298
2829.0494,0.025553
2830.9131,0.025708
2832.7768,0.025815
2834.6404,0.025997
2836.5041,0.026190
2838.3678,0.026394
2840.2314,0.026577
2842.0951,0.026765
2843.9588,0.027191
2845.8224,0.027735
2847.6861,0.028125
2849.5498,0.028496
2851.4134,0.029058
2853.2771,0.029202
2855.1408,0.028914
2857.0045,0.028820
2858.8681,0.028818
2860.7318,0.028717
2862.5955,0.028642
2864.4591,0.028575
2866.3228,0.028646
2868.1865,0.028677
2870.0501,0.028702
2871.9138,0.028907
2873.7775,0.029112
2875.6411,0.029057
2877.5048,0.029318
2879.3685,0.029799
2881.2321,0.030232
2883.0958,0.030646
2884.9595,0.030845
2886.8232,0.031306
2888.6868,0.032017
2890.5505,0.032147
2892.4142,0.032431
2894.2778,0.033326
2896.1415,0.033980
2898.0052,0.034116
2899.8688,0.034124
2901.7325,0.034076
2903.5962,0.033832
2905.4598,0.033880
2907.3235,0.034227
2909.1872,0.034622
2911.0509,0.035032
2912.9145,0.035371
2914.7782,0.035735
2916.6419,0.036183
2918.5055,0.036388
2920.3692,0.036450
2922.2329,0.036736
2924.0965,0.037018
2925.9602,0.037226
2927.8239,0.037907
2929.6875,0.038635
2931.5512,0.039134
2933.4149,0.039550
2935.2785,0.039877
2937.1422,0.039731
2939.0059,0.039289
2940.8696,0.038971
2942.7332,0.039139
2944.5969,0.039206
2946.4606,0.039230
2948.3242,0.039243
2950.1879,0.039341
2952.0516,0.039369
2953.9152,0.039227
2955.7789,0.039384
2957.6426,0.039622
2959.5062,0.039680
2961.3699,0.039967
2963.2336,0.040506
2965.0972,0.040983
2966.9609,0.041308
2968.8246,0.041891
2970.6883,0.042024
2972.5519,0.041386
2974.4156,0.040462
2976.2793,0.039262
2978.1429,0.038534
2980.0066,0.038910
2981.8703,0.039251
2983.7339,0.039271
2985.5976,0.038955
2987.4613,0.038535
2989.3249,0.037719
2991.1886,0.037207
2993.0523,0.037201
2994.9160,0.037174
2996.7796,0.037080
2998.6433,0.037313
3000.5070,0.037582
3002.3706,0.037596
3004.2343,0.037860
3006.0980,0.038307
3007.9616,0.038427
3009.8253,0.038787
3011.6890,0.039765
3013.5526,0.040486
3015.4163,0.040552
3017.2800,0.040829
3019.1436,0.041242
3021.0073,0.041752
3022.8710,0.042304
3024.7347,0.042477
3026.5983,0.042685
3028.4620,0.042965
3030.3257,0.043203
3032.1893,0.043658
3034.0530,0.043904
3035.9167,0.044033
3037.7803,0.044022
3039.6440,0.043818
3041.5077,0.043566
3043.3713,0.043608
3045.2350,0.043443
3047.0987,0.043208
3048.9624,0.043250
3050.8260,0.043170
3052.6897,0.042919
3054.5534,0.042623
3056.4170,0.042311
3058.2807,0.042401
3060.1444,0.042221
3062.0080,0.041936
3063.8717,0.041798
3065.7354,0.041438
3067.5990,0.040851
3069.4627,0.040533
3071.3264,0.040627
3073.1900,0.040534
3075.0537,0.040438
3076.9174,0.040601
3078.7811,0.040072
3080.6447,0.039594
3082.5084,0.039499
3084.3721,0.039615
3086.2357,0.039698
3088.0994,0.039585
3089.9631,0.039302
3091.8267,0.038966
3093.6904,0.038828
3095.5541,0.038893
3097.4177,0.038621
3099.2814,0.038383
3101.1451,0.038098
3103.0087,0.037844
3104.8724,0.037452
3106.7361,0.037047
3108.5998,0.036487
3110.4634,0.036282
3112.3271,0.036067
3114.1908,0.035675
3116.0544,0.035458
3117.9181,0.035410
3119.7818,0.035266
3121.6454,0.035027
3123.5091,0.034864
3125.3728,0.034837
3127.2364,0.035204
3129.1001,0.035362
3130.9638,0.035158
3132.8275,0.035156
3134.6911,0.035232
3136.5548,0.035126
3138.4185,0.034912
3140.2821,0.035224
3142.1458,0.035535
3144.0095,0.035429
3145.8731,0.035142
3147.7368,0.034715
3149.6005,0.034373
3151.4641,0.034364
3153.3278,0.034179
3155.1915,0.034243
3157.0551,0.034356
3158.9188,0.034544
3160.7825,0.034657
3162.6462,0.034553
3164.5098,0.034152
3166.3735,0.034141
3168.2372,0.033965
3170.1008,0.033739
3171.9645,0.033731
3173.8282,0.033910
3175.6918,0.034174
3177.5555,0.034409
3179.4192,0.034063
3181.2828,0.033656
3183.1465,0.033783
3185.0102,0.034144
3186.8739,0.034422
3188.7375,0.034507
3190.6012,0.033910
3192.4649,0.033582
3194.3285,0.033479
3196.1922,0.033344
3198.0559,0.033836
3199.9195,0.034018
3201.7832,0.033621
3203.6469,0.033381
3205.5105,0.032786
3207.3742,0.032877
3209.2379,0.032944
3211.1015,0.032199
3212.9652,0.032019
3214.8289,0.032009
3216.6926,0.031509
3218.5562,0.030683
3220.4199,0.029939
3222.2836,0.029329
3224.1472,0.028829
3226.0109,0.028267
3227.8746,0.027269
3229.7382,0.026693
3231.6019,0.026877
3233.4656,0.026350
3235.3292,0.025352
3237.1929,0.025100
3239.0566,0.024686
3240.9202,0.023903
3242.7839,0.023911
3244.6476,0.024198
3246.5113,0.023340
3248.3749,0.022695
3250.2386,0.022705
3252.1023,0.022747
3253.9659,0.023012
3255.8296,0.023078
3257.6933,0.022559
3259.5569,0.022605
3261.4206,0.022745
3263.2843,0.022625
3265.1479,0.023080
3267.0116,0.023486
3268.8753,0.022878
3270.7390,0.022063
3272.6026,0.021960
3274.4663,0.022373
3276.3300,0.022527
3278.1936,0.022663
3280.0573,0.022852
3281.9210,0.022031
3283.7846,0.021133
3285.6483,0.021108
3287.5120,0.020862
3289.3756,0.020672
3291.2393,0.021093
3293.1030,0.021207
3294.9666,0.021101
3296.8303,0.020677
3298.6940,0.019990
3300.5577,0.020221
3302.4213,0.020872
3304.2850,0.020370
3306.1487,0.019756
3308.0123,0.019796
3309.8760,0.019507
3311.7397,0.019115
3313.6033,0.019211
3315.4670,0.018896
3317.3307,0.018871
3319.1943,0.019219
3321.0580,0.019564
3322.9217,0.019842
3324.7854,0.019981
3326.6490,0.019873
3328.5127,0.019593
3330.3764,0.019425
3332.2400,0.019683
3334.1037,0.019849
3335.9674,0.019432
3337.8310,0.019206
3339.6947,0.018982
3341.5584,0.019004
3343.4220,0.019191
3345.2857,0.019113
3347.1494,0.018732
3349.0130,0.018228
3350.8767,0.017545
3352.7404,0.017215
3354.6041,0.017661
3356.4677,0.017591
3358.3314,0.017392
3360.1951,0.017327
3362.0587,0.016524
3363.9224,0.016555
3365.7861,0.017096
3367.6497,0.016883
3369.5134,0.016788
3371.3771,0.016668
3373.2407,0.016429
3375.1044,0.016166
3376.9681,0.016076
3378.8317,0.016219
3380.6954,0.016188
3382.5591,0.016749
3384.4228,0.016834
3386.2864,0.016726
3388.1501,0.016221
3390.0138,0.015354
3391.8774,0.015618
3393.7411,0.016109
3395.6048,0.016257
3397.4684,0.016652
3399.3321,0.016731
3401.1958,0.015890
3403.0594,0.015731
3404.9231,0.015881
3406.7868,0.015995
3408.6505,0.016525
3410.5141,0.016200
3412.3778,0.014634
3414.2415,0.014016
3416.1051,0.014201
3417.9688,0.014202
3419.8325,0.013861
3421.6961,0.013261
3423.5598,0.013287
3425.4235,0.013195
3427.2871,0.012806
3429.1508,0.013147
3431.0145,0.013464
3432.8781,0.012894
3434.7418,0.012369
3436.6055,0.012621
3438.4692,0.012340
3440.3328,0.011488
3442.1965,0.011457
3444.0602,0.011692
3445.9238,0.011528
3447.7875,0.010796
3449.6512,0.009876
3451.5148,0.010412
3453.3785,0.010969
3455.2422,0.010106
3457.1058,0.009739
3458.9695,0.011223
3460.8332,0.012179
3462.6969,0.011200
3464.5605,0.009908
3466.4242,0.010073
3468.2879,0.010862
3470.1515,0.010504
3472.0152,0.009444
3473.8789,0.009118
3475.7425,0.009716
3477.6062,0.010343
3479.4699,0.010167
3481.3335,0.009909
3483.1972,0.009581
3485.0609,0.009205
3486.9245,0.009344
3488.7882,0.009227
3490.6519,0.009072
3492.5156,0.009479
3494.3792,0.009720
3496.2429,0.009196
3498.1066,0.008704
3499.9702,0.008580
3501.8339,0.008368
3503.6976,0.007817
3505.5612,0.007564
3507.4249,0.007858
3509.2886,0.008325
3511.1522,0.008653
3513.0159,0.008458
3514.8796,0.007986
3516.7432,0.007595
3518.6069,0.007827
3520.4706,0.008078
3522.3343,0.007262
3524.1979,0.007099
3526.0616,0.007299
3527.9253,0.007247
3529.7889,0.007146
3531.6526,0.007095
3533.5163,0.007288
3535.3799,0.007483
3537.2436,0.007648
3539.1073,0.006879
3540.9709,0.007000
3542.8346,0.008185
3544.6983,0.008148
3546.5620,0.007138
3548.4256,0.005844
3550.2893,0.005754
3552.1530,0.007344
3554.0166,0.007337
3555.8803,0.006759
3557.7440,0.007048
3559.6076,0.006415
3561.4713,0.005676
3563.3350,0.005557
3565.1986,0.005543
3567.0623,0.005157
3568.9260,0.004807
3570.7896,0.004882
3572.6533,0.006329
3574.5170,0.007169
3576.3807,0.006508
3578.2443,0.006421
3580.1080,0.006820
3581.9717,0.006725
3583.8353,0.006607
3585.6990,0.006721
3587.5627,0.006872
3589.4263,0.006781
3591.2900,0.006731
3593.1537,0.006266
3595.0173,0.005968
3596.8810,0.005747
3598.7447,0.005962
3600.6084,0.006879
3602.4720,0.006752
3604.3357,0.006223
3606.1994,0.006297
3608.0630,0.006330
3609.9267,0.006144
3611.7904,0.005762
3613.6540,0.005553
3615.5177,0.006086
3617.3814,0.006944
3619.2450,0.007378
3621.1087,0.007405
3622.9724,0.006535
3624.8360,0.005922
3626.6997,0.006535
3628.5634,0.006966
3630.4271,0.006888
3632.2907,0.007064
3634.1544,0.006929
3636.0181,0.006682
3637.8817,0.006539
3639.7454,0.006829
3641.6091,0.006864
3643.4727,0.006547
3645.3364,0.006269
3647.2001,0.005680
3649.0637,0.005599
3650.9274,0.007596
3652.7911,0.007886
3654.6547,0.007039
3656.5184,0.007374
3658.3821,0.008257
3660.2458,0.008239
3662.1094,0.008029
3663.9731,0.008075
3665.8368,0.007802
3667.7004,0.007911
3669.5641,0.009347
3671.4278,0.011214
3673.2914,0.012591
3675.1551,0.014369
3677.0188,0.014715
3678.8824,0.010437
3680.7461,0.007383
3682.6098,0.006577
3684.4735,0.006366
3686.3371,0.005952
3688.2008,0.005793
3690.0645,0.006500
3691.9281,0.006940
3693.7918,0.006704
3695.6555,0.006408
3697.5191,0.006121
3699.3828,0.006340
3701.2465,0.006611
3703.1101,0.006502
3704.9738,0.006412
3706.8375,0.006568
3708.7011,0.006553
3710.5648,0.006366
3712.4285,0.006424
3714.2922,0.006161
3716.1558,0.005953
3718.0195,0.005988
3719.8832,0.006097
3721.7468,0.006571
3723.6105,0.006954
3725.4742,0.006841
3727.3378,0.006650
3729.2015,0.006230
3731.0652,0.006284
3732.9288,0.006814
3734.7925,0.006337
3736.6562,0.005567
3738.5199,0.005360
3740.3835,0.005300
3742.2472,0.005805
3744.1109,0.006139
3745.9745,0.005836
3747.8382,0.005781
3749.7019,0.006012
3751.5655,0.006263
3753.4292,0.006843
3755.2929,0.006744
3757.1565,0.006258
3759.0202,0.006515
3760.8839,0.006989
3762.7475,0.006986
3764.6112,0.007162
3766.4749,0.007241
3768.3386,0.007108
3770.2022,0.007420
3772.0659,0.007726
3773.9296,0.007319
3775.7932,0.006960
3777.6569,0.007118
3779.5206,0.007481
3781.3842,0.007627
3783.2479,0.007031
3785.1116,0.006607
3786.9752,0.006727
3788.8389,0.006766
3790.7026,0.006950
3792.5662,0.007406
3794.4299,0.007387
3796.2936,0.006824
3798.1573,0.006712
3800.0209,0.006952
3801.8846,0.007112
3803.7483,0.007391
3805.6119,0.006867
3807.4756,0.006341
3809.3393,0.006664
3811.2029,0.006768
3813.0666,0.006742
3814.9303,0.007173
3816.7939,0.007567
3818.6576,0.007459
3820.5213,0.007022
3822.3850,0.006984
3824.2486,0.007346
3826.1123,0.007253
3827.9760,0.007015
3829.8396,0.007118
3831.7033,0.007143
3833.5670,0.006822
3835.4306,0.007267
3837.2943,0.007750
3839.1580,0.007374
3841.0216,0.007520
3842.8853,0.007579
3844.7490,0.007358
3846.6126,0.007388
3848.4763,0.007383
3850.3400,0.007283
3852.2037,0.007092
3854.0673,0.006697
3855.9310,0.006903
3857.7947,0.007817
3859.6583,0.008003
3861.5220,0.007673
3863.3857,0.007594
3865.2493,0.007334
3867.1130,0.006986
3868.9767,0.006984
3870.8403,0.006688
3872.7040,0.006662
3874.5677,0.007213
3876.4314,0.007530
3878.2950,0.007580
3880.1587,0.007325
3882.0224,0.006946
3883.8860,0.007486
3885.7497,0.008271
3887.6134,0.008231
3889.4770,0.007570
3891.3407,0.007340
3893.2044,0.007349
3895.0680,0.007545
3896.9317,0.008026
3898.7954,0.007795
3900.6590,0.007400
3902.5227,0.007895
3904.3864,0.008352
3906.2501,0.008205
3908.1137,0.007711
3909.9774,0.007449
3911.8411,0.007490
3913.7047,0.007804
3915.5684,0.007948
3917.4321,0.007971
3919.2957,0.008046
3921.1594,0.007632
3923.0231,0.007190
3924.8867,0.007449
3926.7504,0.008043
3928.6141,0.007936
3930.4777,0.007735
3932.3414,0.008085
3934.2051,0.008339
3936.0688,0.008050
3937.9324,0.007649
3939.7961,0.007570
3941.6598,0.007698
3943.5234,0.007709
3945.3871,0.007710
3947.2508,0.008177
3949.1144,0.008527
3950.9781,0.008308
3952.8418,0.008094
3954.7054,0.008129
3956.5691,0.008331
3958.4328,0.008830
3960.2965,0.009087
3962.1601,0.008560
3964.0238,0.008193
3965.8875,0.008332
3967.7511,0.008269
3969.6148,0.008273
3971.4785,0.008699
3973.3421,0.008619
3975.2058,0.008185
3977.0695,0.008173
3978.9331,0.008109
3980.7968,0.008010
3982.6605,0.008281
3984.5241,0.008619
3986.3878,0.008271
3988.2515,0.007718
3990.1152,0.007771
3991.9788,0.008115
3993.8425,0.008266
3995.7062,0.008297
3997.5698,0.008633
3999.4335,0.008555
