Wavenumber,Intensity
650.4205,0.174577
652.2841,0.195269
654.1478,0.218061
656.0115,0.240341
657.8751,0.262594
659.7388,0.279913
661.6025,0.301903
663.4661,0.328338
665.3298,0.347580
667.1935,0.357911
669.0571,0.345957
670.9208,0.315166
672.7845,0.287593
674.6481,0.262928
676.5118,0.245805
678.3755,0.235446
680.2392,0.228916
682.1028,0.217816
683.9665,0.202144
685.8302,0.183998
687.6938,0.167617
689.5575,0.152665
691.4212,0.140225
693.2848,0.127612
695.1485,0.116098
697.0122,0.107205
698.8758,0.100759
700.7395,0.097611
702.6032,0.097415
704.4669,0.097815
706.3305,0.097465
708.1942,0.094367
710.0579,0.089371
711.9215,0.085930
713.7852,0.085608
715.6489,0.085593
717.5125,0.085292
719.3762,0.085540
721.2399,0.086876
723.1035,0.089034
724.9672,0.092170
726.8309,0.096306
728.6945,0.101634
730.5582,0.108821
732.4219,0.120798
734.2856,0.139428
736.1492,0.169946
738.0129,0.211543
739.8766,0.249096
741.7402,0.268507
743.6039,0.251201
745.4676,0.184223
747.3312,0.126673
749.1949,0.105874
751.0586,0.098143
752.9222,0.096765
754.7859,0.090725
756.6496,0.074426
758.5132,0.064732
760.3769,0.064941
762.2406,0.069139
764.1043,0.075921
765.9679,0.083794
767.8316,0.085427
769.6953,0.080559
771.5589,0.077549
773.4226,0.079403
775.2863,0.083228
777.1499,0.087639
779.0136,0.091051
780.8773,0.092006
782.7409,0.091827
784.6046,0.092429
786.4683,0.093972
788.3320,0.096251
790.1956,0.098123
792.0593,0.100057
793.9230,0.102396
795.7866,0.105368
797.6503,0.109141
799.5140,0.114495
801.3776,0.120395
803.2413,0.122776
805.1050,0.120651
806.9686,0.117925
808.8323,0.117569
810.6960,0.118762
812.5596,0.119282
814.4233,0.120070
816.2870,0.121535
818.1507,0.123595
820.0143,0.125794
821.8780,0.128370
823.7417,0.131600
825.6053,0.134955
827.4690,0.138872
829.3327,0.143510
831.1963,0.146750
833.0600,0.148962
834.9237,0.151780
836.7873,0.155640
838.6510,0.158440
840.5147,0.160162
842.3784,0.163461
844.2420,0.171516
846.1057,0.182908
847.9694,0.191408
849.8330,0.190751
851.6967,0.183363
853.5604,0.181971
855.4240,0.188686
857.2877,0.192787
859.1514,0.192082
861.0150,0.192592
862.8787,0.196840
864.7424,0.200250
866.6060,0.197611
868.4697,0.191738
870.3334,0.189697
872.1971,0.192610
874.0607,0.198107
875.9244,0.202184
877.7881,0.202547
879.6517,0.202135
881.5154,0.204644
883.3791,0.207656
885.2427,0.209514
887.1064,0.211075
888.9701,0.213010
890.8337,0.215254
892.6974,0.217734
894.5611,0.220525
896.4247,0.224051
898.2884,0.227485
900.1521,0.231018
902.0158,0.234877
903.8794,0.239185
905.7431,0.243817
907.6068,0.249190
909.4704,0.255167
911.3341,0.261666
913.1978,0.269044
915.0614,0.277144
916.9251,0.282842
918.7888,0.283563
920.6524,0.280148
922.5161,0.276107
924.3798,0.273962
926.2435,0.274334
928.1071,0.275240
929.9708,0.275389
931.8345,0.275344
933.6981,0.276943
935.5618,0.280238
937.4255,0.284288
939.2891,0.288374
941.1528,0.292532
943.0165,0.296452
944.8801,0.299988
946.7438,0.303237
948.6075,0.306734
950.4711,0.310360
952.3348,0.314198
954.1985,0.318285
956.0622,0.322986
957.9258,0.327902
959.7895,0.332905
961.6532,0.337777
963.5168,0.342426
965.3805,0.346018
967.2442,0.350152
969.1078,0.355610
970.9715,0.361389
972.8352,0.366541
974.6988,0.372530
976.5625,0.380107
978.4262,0.389314
980.2899,0.398369
982.1535,0.400937
984.0172,0.392485
985.8809,0.382769
987.7445,0.378110
989.6082,0.375352
991.4719,0.372301
993.3355,0.370536
995.1992,0.370284
997.0629,0.370778
998.9265,0.371604
1000.7902,0.372714
1002.6539,0.373966
1004.5175,0.375573
1006.3812,0.373884
1008.2449,0.365648
1010.1086,0.354247
1011.9722,0.343653
1013.8359,0.332601
1015.6996,0.320105
1017.5632,0.306584
1019.4269,0.292179
1021.2906,0.277006
1023.1542,0.261768
1025.0179,0.246985
1026.8816,0.233078
1028.7452,0.220310
1030.6089,0.208921
1032.4726,0.198271
1034.3362,0.188159
1036.1999,0.178738
1038.0636,0.169859
1039.9273,0.161285
1041.7909,0.153356
1043.6546,0.146021
1045.5183,0.139179
1047.3819,0.133017
1049.2456,0.127716
1051.1093,0.123403
1052.9729,0.119912
1054.8366,0.117158
1056.7003,0.115514
1058.5639,0.114879
1060.4276,0.114394
1062.2913,0.113363
1064.1550,0.112500
1066.0186,0.112030
1067.8823,0.110975
1069.7460,0.110110
1071.6096,0.110856
1073.4733,0.112975
1075.3370,0.115075
1077.2006,0.114213
1079.0643,0.110465
1080.9280,0.107269
1082.7916,0.106156
1084.6553,0.106466
1086.5190,0.107425
1088.3826,0.108762
1090.2463,0.110619
1092.1100,0.113134
1093.9737,0.115990
1095.8373,0.118350
1097.7010,0.119276
1099.5647,0.117975
1101.4283,0.114765
1103.2920,0.110362
1105.1557,0.105092
1107.0193,0.100418
1108.8830,0.097599
1110.7467,0.095987
1112.6103,0.094865
1114.4740,0.093584
1116.3377,0.090957
1118.2014,0.087004
1120.0650,0.083229
1121.9287,0.080280
1123.7924,0.078322
1125.6560,0.077556
1127.5197,0.077609
1129.3834,0.077593
1131.2470,0.076457
1133.1107,0.074177
1134.9744,0.072154
1136.8380,0.071290
1138.7017,0.071424
1140.5654,0.072393
1142.4290,0.073338
1144.2927,0.072467
1146.1564,0.069419
1148.0201,0.065462
1149.8837,0.062138
1151.7474,0.061273
1153.6111,0.063085
1155.4747,0.065010
1157.3384,0.063851
1159.2021,0.059746
1161.0657,0.055102
1162.9294,0.050997
1164.7931,0.047660
1166.6567,0.045372
1168.5204,0.044230
1170.3841,0.043949
1172.2477,0.043849
1174.1114,0.043771
1175.9751,0.043529
1177.8388,0.043081
1179.7024,0.042676
1181.5661,0.042452
1183.4298,0.042507
1185.2934,0.042734
1187.1571,0.043008
1189.0208,0.043310
1190.8844,0.043429
1192.7481,0.043260
1194.6118,0.042948
1196.4754,0.042942
1198.3391,0.043303
1200.2028,0.043887
1202.0665,0.044540
1203.9301,0.045041
1205.7938,0.045193
1207.6575,0.045211
1209.5211,0.045156
1211.3848,0.045226
1213.2485,0.045614
1215.1121,0.046272
1216.9758,0.047266
1218.8395,0.048567
1220.7031,0.049947
1222.5668,0.051924
1224.4305,0.055363
1226.2941,0.060118
1228.1578,0.064269
1230.0215,0.065026
1231.8852,0.060172
1233.7488,0.051413
1235.6125,0.044758
1237.4762,0.042750
1239.3398,0.043208
1241.2035,0.044377
1243.0672,0.045912
1244.9308,0.047359
1246.7945,0.048432
1248.6582,0.049619
1250.5218,0.050457
1252.3855,0.050001
1254.2492,0.048994
1256.1129,0.048298
1257.9765,0.047757
1259.8402,0.047642
1261.7039,0.047924
1263.5675,0.048316
1265.4312,0.048916
1267.2949,0.049540
1269.1585,0.050212
1271.0222,0.051273
1272.8859,0.052721
1274.7495,0.054144
1276.6132,0.055243
1278.4769,0.055770
1280.3405,0.055575
1282.2042,0.055090
1284.0679,0.055024
1285.9316,0.055776
1287.7952,0.057604
1289.6589,0.060472
1291.5226,0.063910
1293.3862,0.066409
1295.2499,0.066859
1297.1136,0.066908
1298.9772,0.068047
1300.8409,0.070274
1302.7046,0.072929
1304.5682,0.074896
1306.4319,0.075940
1308.2956,0.076368
1310.1592,0.076513
1312.0229,0.078161
1313.8866,0.081589
1315.7503,0.082315
1317.6139,0.077807
1319.4776,0.072264
1321.3413,0.070301
1323.2049,0.071962
1325.0686,0.075506
1326.9323,0.079263
1328.7959,0.082940
1330.6596,0.087306
1332.5233,0.092727
1334.3869,0.098070
1336.2506,0.101475
1338.1143,0.102365
1339.9780,0.101367
1341.8416,0.099090
1343.7053,0.099252
1345.5690,0.104540
1347.4326,0.113625
1349.2963,0.122649
1351.1600,0.125863
1353.0236,0.124529
1354.8873,0.126471
1356.7510,0.126667
1358.6146,0.112760
1360.4783,0.088923
1362.3420,0.068983
1364.2056,0.059490
1366.0693,0.057131
1367.9330,0.057850
1369.7967,0.060096
1371.6603,0.062245
1373.5240,0.066030
1375.3877,0.071181
1377.2513,0.074268
1379.1150,0.077413
1380.9787,0.081390
1382.8423,0.085068
1384.7060,0.088844
1386.5697,0.094965
1388.4333,0.103178
1390.2970,0.107313
1392.1607,0.110245
1394.0244,0.116095
1395.8880,0.123874
1397.7517,0.128269
1399.6154,0.132032
1401.4790,0.133444
1403.3427,0.133650
1405.2064,0.135162
1407.0700,0.133940
1408.9337,0.130175
1410.7974,0.126607
1412.6610,0.122233
1414.5247,0.115660
1416.3884,0.107081
1418.2520,0.098574
1420.1157,0.091099
1421.9794,0.083828
1423.8431,0.073923
1425.7067,0.062526
1427.5704,0.054453
1429.4341,0.049135
1431.2977,0.046480
1433.1614,0.045496
1435.0251,0.045902
1436.8887,0.049500
1438.7524,0.052042
1440.6161,0.052233
1442.4797,0.054650
1444.3434,0.058982
1446.2071,0.065058
1448.0707,0.073260
1449.9344,0.077329
1451.7981,0.077263
1453.6618,0.081831
1455.5254,0.092287
1457.3891,0.094629
1459.2528,0.070281
1461.1164,0.054533
1462.9801,0.048097
1464.8438,0.047381
1466.7074,0.048108
1468.5711,0.046662
1470.4348,0.045560
1472.2984,0.047522
1474.1621,0.051111
1476.0258,0.051584
1477.8895,0.051539
1479.7531,0.051592
1481.6168,0.053148
1483.4805,0.055113
1485.3441,0.056220
1487.2078,0.057474
1489.0715,0.058874
1490.9351,0.059953
1492.7988,0.058637
1494.6625,0.057729
1496.5261,0.060714
1498.3898,0.064877
1500.2535,0.065314
1502.1171,0.063926
1503.9808,0.062220
1505.8445,0.064520
1507.7082,0.078232
1509.5718,0.078626
1511.4355,0.075564
1513.2992,0.074391
1515.1628,0.073882
1517.0265,0.075489
1518.8902,0.076241
1520.7538,0.077335
1522.6175,0.081363
1524.4812,0.081180
1526.3448,0.082043
1528.2085,0.083755
1530.0722,0.082944
1531.9359,0.083282
1533.7995,0.087185
1535.6632,0.087125
1537.5269,0.083894
1539.3905,0.087151
1541.2542,0.099052
1543.1179,0.100750
1544.9815,0.102429
1546.8452,0.103595
1548.7089,0.104646
1550.5725,0.109050
1552.4362,0.111993
1554.2999,0.113134
1556.1635,0.114587
1558.0272,0.119358
1559.8909,0.138573
1561.7546,0.134065
1563.6182,0.130232
1565.4819,0.132726
1567.3456,0.135793
1569.2092,0.140345
1571.0729,0.145491
1572.9366,0.143909
1574.8002,0.144117
1576.6639,0.150113
1578.5276,0.151708
1580.3912,0.149663
1582.2549,0.149062
1584.1186,0.147970
1585.9822,0.145840
1587.8459,0.142943
1589.7096,0.139707
1591.5733,0.136018
1593.4369,0.132299
1595.3006,0.128514
1597.1643,0.124637
1599.0279,0.120759
1600.8916,0.117326
1602.7553,0.114140
1604.6189,0.111052
1606.4826,0.107969
1608.3463,0.105227
1610.2099,0.102310
1612.0736,0.099168
1613.9373,0.096112
1615.8010,0.093816
1617.6646,0.090445
1619.5283,0.084925
1621.3920,0.080599
1623.2556,0.078158
1625.1193,0.076251
1626.9830,0.074383
1628.8466,0.073014
1630.7103,0.070867
1632.5740,0.068160
1634.4376,0.067132
1636.3013,0.069649
1638.1650,0.070687
1640.0286,0.069799
1641.8923,0.069882
1643.7560,0.070491
1645.6197,0.072559
1647.4833,0.077960
1649.3470,0.080467
1651.2107,0.079894
1653.0743,0.085275
1654.9380,0.096099
1656.8017,0.094717
1658.6653,0.094136
1660.5290,0.094545
1662.3927,0.094455
1664.2563,0.092894
1666.1200,0.088309
1667.9837,0.082059
1669.8474,0.073364
1671.7110,0.063555
1673.5747,0.055887
1675.4384,0.049070
1677.3020,0.043474
1679.1657,0.039691
1681.0294,0.036742
1682.8930,0.034875
1684.7567,0.035087
1686.6204,0.035195
1688.4840,0.033447
1690.3477,0.032397
1692.2114,0.030924
1694.0750,0.029004
1695.9387,0.027700
1697.8024,0.027608
1699.6661,0.026208
1701.5297,0.026024
1703.3934,0.024601
1705.2571,0.022794
1707.1207,0.021933
1708.9844,0.020652
1710.8481,0.019066
1712.7117,0.017683
1714.5754,0.016431
1716.4391,0.016057
1718.3027,0.016707
1720.1664,0.016954
1722.0301,0.015855
1723.8937,0.015274
1725.7574,0.015092
1727.6211,0.014476
1729.4848,0.013718
1731.3484,0.013079
1733.2121,0.012265
1735.0758,0.013019
1736.9394,0.013132
1738.8031,0.012019
1740.6668,0.012148
1742.5304,0.012113
1744.3941,0.011814
1746.2578,0.011676
1748.1214,0.011358
1749.9851,0.011569
1751.8488,0.012202
1753.7125,0.012334
1755.5761,0.011574
1757.4398,0.011592
1759.3035,0.012018
1761.1671,0.011812
1763.0308,0.012329
1764.8945,0.012309
1766.7581,0.011678
1768.6218,0.011657
1770.4855,0.011583
1772.3491,0.011523
1774.2128,0.012247
1776.0765,0.011879
1777.9401,0.011602
1779.8038,0.011379
1781.6675,0.011615
1783.5312,0.011746
1785.3948,0.011721
1787.2585,0.011902
1789.1222,0.011670
1790.9858,0.011473
1792.8495,0.012156
1794.7132,0.012720
1796.5768,0.012413
1798.4405,0.012224
1800.3042,0.012352
1802.1678,0.012933
1804.0315,0.013047
1805.8952,0.012948
1807.7589,0.012894
1809.6225,0.012695
1811.4862,0.012756
1813.3499,0.013029
1815.2135,0.012772
1817.0772,0.012606
1818.9409,0.012797
1820.8045,0.012923
1822.6682,0.012891
1824.5319,0.012844
1826.3955,0.012892
1828.2592,0.012455
1830.1229,0.012447
1831.9865,0.013200
1833.8502,0.012904
1835.7139,0.012742
1837.5776,0.012611
1839.4412,0.012490
1841.3049,0.012351
1843.1686,0.012243
1845.0322,0.012772
1846.8959,0.013246
1848.7596,0.013124
1850.6232,0.013307
1852.4869,0.013195
1854.3506,0.013044
1856.2142,0.012913
1858.0779,0.012866
1859.9416,0.012642
1861.8052,0.012620
1863.6689,0.012675
1865.5326,0.012552
1867.3963,0.012347
1869.2599,0.012725
1871.1236,0.013120
1872.9873,0.012975
1874.8509,0.012993
1876.7146,0.013106
1878.5783,0.013167
1880.4419,0.013335
1882.3056,0.013429
1884.1693,0.013807
1886.0329,0.013848
1887.8966,0.013405
1889.7603,0.013043
1891.6240,0.013097
1893.4876,0.012838
1895.3513,0.012482
1897.2150,0.012129
1899.0786,0.012366
1900.9423,0.012669
1902.8060,0.012411
1904.6696,0.012321
1906.5333,0.012370
1908.3970,0.012474
1910.2606,0.013049
1912.1243,0.013236
1913.9880,0.013262
1915.8516,0.013342
1917.7153,0.013026
1919.5790,0.012778
1921.4427,0.012766
1923.3063,0.012664
1925.1700,0.012536
1927.0337,0.012112
1928.8973,0.011921
1930.7610,0.011678
1932.6247,0.011520
1934.4883,0.011747
1936.3520,0.011861
1938.2157,0.011298
1940.0793,0.010979
1941.9430,0.010599
1943.8067,0.009969
1945.6704,0.009456
1947.5340,0.009681
1949.3977,0.009498
1951.2614,0.009419
1953.1250,0.009989
1954.9887,0.010259
1956.8524,0.009622
1958.7160,0.008473
1960.5797,0.007836
1962.4434,0.007974
1964.3070,0.007111
1966.1707,0.005870
1968.0344,0.005883
1969.8980,0.006160
1971.7617,0.005448
1973.6254,0.005232
1975.4891,0.005348
1977.3527,0.004955
1979.2164,0.005432
1981.0801,0.006142
1982.9437,0.006131
1984.8074,0.007597
1986.6711,0.008852
1988.5347,0.008845
1990.3984,0.008891
1992.2621,0.008712
1994.1257,0.008533
1995.9894,0.009234
1997.8531,0.009200
1999.7167,0.007878
2001.5804,0.007319
2003.4441,0.008012
2005.3078,0.008261
2007.1714,0.007839
2009.0351,0.006739
2010.8988,0.005975
2012.7624,0.005380
2014.6261,0.005638
2016.4898,0.005861
2018.3534,0.005371
2020.2171,0.004892
2022.0808,0.005151
2023.9444,0.005514
2025.8081,0.005835
2027.6718,0.006452
2029.5355,0.006296
2031.3991,0.006705
2033.2628,0.008298
2035.1265,0.008649
2036.9901,0.008066
2038.8538,0.007954
2040.7175,0.009429
2042.5811,0.011717
2044.4448,0.012126
2046.3085,0.011505
2048.1721,0.012810
2050.0358,0.014248
2051.8995,0.014502
2053.7631,0.014912
2055.6268,0.015837
2057.4905,0.015824
2059.3542,0.015759
2061.2178,0.016449
2063.0815,0.017217
2064.9452,0.017116
2066.8088,0.016794
2068.6725,0.017196
2070.5362,0.017678
2072.3998,0.017711
2074.2635,0.017604
2076.1272,0.017616
2077.9908,0.018155
2079.8545,0.018496
2081.7182,0.018528
2083.5819,0.018099
2085.4455,0.017902
2087.3092,0.018276
2089.1729,0.018425
2091.0365,0.018300
2092.9002,0.018267
2094.7639,0.018668
2096.6275,0.018808
2098.4912,0.018110
2100.3549,0.017620
2102.2185,0.017909
2104.0822,0.018377
2105.9459,0.017922
2107.8095,0.017186
2109.6732,0.017172
2111.5369,0.017555
2113.4006,0.017283
2115.2642,0.016894
2117.1279,0.016916
2118.9916,0.016921
2120.8552,0.016649
2122.7189,0.016397
2124.5826,0.016155
2126.4462,0.015617
2128.3099,0.014805
2130.1736,0.014428
2132.0372,0.014161
2133.9009,0.013444
2135.7646,0.012912
2137.6282,0.013100
2139.4919,0.013283
2141.3556,0.012238
2143.2193,0.009859
2145.0829,0.009166
2146.9466,0.009742
2148.8103,0.009263
2150.6739,0.007888
2152.5376,0.007114
2154.4013,0.007116
2156.2649,0.005994
2158.1286,0.003837
2159.9923,0.004615
2161.8559,0.007181
2163.7196,0.008163
2165.5833,0.008424
2167.4470,0.009015
2169.3106,0.009870
2171.1743,0.010394
2173.0380,0.010089
2174.9016,0.009088
2176.7653,0.008978
2178.6290,0.010722
2180.4926,0.011395
2182.3563,0.011224
2184.2200,0.011463
2186.0836,0.012287
2187.9473,0.012941
2189.8110,0.012554
2191.6746,0.012728
2193.5383,0.013736
2195.4020,0.013534
2197.2657,0.013052
2199.1293,0.013865
2200.9930,0.013722
2202.8567,0.012335
2204.7203,0.013102
2206.5840,0.014623
2208.4477,0.015813
2210.3113,0.016689
2212.1750,0.016992
2214.0387,0.016848
2215.9023,0.016204
2217.7660,0.015483
2219.6297,0.016192
2221.4934,0.017295
2223.3570,0.017645
2225.2207,0.018409
2227.0844,0.018867
2228.9480,0.017859
2230.8117,0.017626
2232.6754,0.018626
2234.5390,0.019241
2236.4027,0.019003
2238.2664,0.018993
2240.1300,0.019915
2241.9937,0.020854
2243.8574,0.021193
2245.7210,0.020701
2247.5847,0.020456
2249.4484,0.020954
2251.3121,0.020974
2253.1757,0.020251
2255.0394,0.019850
2256.9031,0.021236
2258.7667,0.022447
2260.6304,0.022192
2262.4941,0.021989
2264.3577,0.022488
2266.2214,0.022675
2268.0851,0.023050
2269.9487,0.023771
2271.8124,0.023953
2273.6761,0.023996
2275.5397,0.024579
2277.4034,0.024884
2279.2671,0.025180
2281.1308,0.025932
2282.9944,0.026191
2284.8581,0.026092
2286.7218,0.026452
2288.5854,0.026946
2290.4491,0.027188
2292.3128,0.027022
2294.1764,0.026739
2296.0401,0.026508
2297.9038,0.026942
2299.7674,0.027289
2301.6311,0.027082
2303.4948,0.027315
2305.3585,0.027721
2307.2221,0.027629
2309.0858,0.027416
2310.9495,0.027668
2312.8131,0.028118
2314.6768,0.028058
2316.5405,0.028002
2318.4041,0.028253
2320.2678,0.028617
2322.1315,0.028994
2323.9951,0.029429
2325.8588,0.028894
2327.7225,0.027705
2329.5861,0.027364
2331.4498,0.027619
2333.3135,0.027977
2335.1772,0.028020
2337.0408,0.027840
2338.9045,0.028120
2340.7682,0.028711
2342.6318,0.029410
2344.4955,0.029890
2346.3592,0.030063
2348.2228,0.029482
2350.0865,0.028334
2351.9502,0.027864
2353.8138,0.028157
2355.6775,0.028500
2357.5412,0.029112
2359.4049,0.029161
2361.2685,0.029087
2363.1322,0.029630
2364.9959,0.030039
2366.8595,0.029866
2368.7232,0.029998
2370.5869,0.030765
2372.4505,0.031456
2374.3142,0.031683
2376.1779,0.031603
2378.0415,0.031322
2379.9052,0.031324
2381.7689,0.031505
2383.6325,0.031701
2385.4962,0.031738
2387.3599,0.031564
2389.2236,0.031501
2391.0872,0.031541
2392.9509,0.031450
2394.8146,0.031468
2396.6782,0.031767
2398.5419,0.032213
2400.4056,0.032495
2402.2692,0.032585
2404.1329,0.032374
2405.9966,0.032337
2407.8602,0.032399
2409.7239,0.032304
2411.5876,0.032514
2413.4512,0.032774
2415.3149,0.032804
2417.1786,0.032737
2419.0423,0.032527
2420.9059,0.032503
2422.7696,0.032808
2424.6333,0.033130
2426.4969,0.033241
2428.3606,0.033222
2430.2243,0.033089
2432.0879,0.033168
2433.9516,0.033132
2435.8153,0.033182
2437.6789,0.033678
2439.5426,0.033953
2441.4063,0.034040
2443.2700,0.034161
2445.1336,0.034149
2446.9973,0.034165
2448.8610,0.034224
2450.7246,0.034335
2452.5883,0.034447
2454.4520,0.034714
2456.3156,0.034986
2458.1793,0.035342
2460.0430,0.035208
2461.9066,0.034843
2463.7703,0.034770
2465.6340,0.034978
2467.4976,0.034930
2469.3613,0.034866
2471.2250,0.035232
2473.0887,0.035856
2474.9523,0.036143
2476.8160,0.035915
2478.6797,0.035720
2480.5433,0.036131
2482.4070,0.036603
2484.2707,0.036492
2486.1343,0.035953
2487.9980,0.035735
2489.8617,0.035870
2491.7253,0.036026
2493.5890,0.036220
2495.4527,0.036237
2497.3164,0.036094
2499.1800,0.035906
2501.0437,0.035833
2502.9074,0.035896
2504.7710,0.036278
2506.6347,0.036928
2508.4984,0.037369
2510.3620,0.037002
2512.2257,0.036463
2514.0894,0.036752
2515.9530,0.037131
2517.8167,0.036984
2519.6804,0.036672
2521.5440,0.036876
2523.4077,0.037195
2525.2714,0.037415
2527.1351,0.037372
2528.9987,0.036902
2530.8624,0.036768
2532.7261,0.037113
2534.5897,0.037162
2536.4534,0.037190
2538.3171,0.037361
2540.1807,0.037437
2542.0444,0.037560
2543.9081,0.037776
2545.7717,0.037869
2547.6354,0.037822
2549.4991,0.037749
2551.3627,0.037944
2553.2264,0.037911
2555.0901,0.037706
2556.9538,0.037819
2558.8174,0.038497
2560.6811,0.038711
2562.5448,0.038317
2564.4084,0.038309
2566.2721,0.038508
2568.1358,0.038446
2569.9994,0.038486
2571.8631,0.038180
2573.7268,0.037774
2575.5904,0.037585
2577.4541,0.037881
2579.3178,0.038263
2581.1815,0.038615
2583.0451,0.038831
2584.9088,0.038635
2586.7725,0.038287
2588.6361,0.038072
2590.4998,0.038061
2592.3635,0.038346
2594.2271,0.038701
2596.0908,0.038865
2597.9545,0.038661
2599.8181,0.038415
2601.6818,0.038562
2603.5455,0.039205
2605.4091,0.039376
2607.2728,0.039145
2609.1365,0.039164
2611.0002,0.038991
2612.8638,0.038706
2614.7275,0.038960
2616.5912,0.039154
2618.4548,0.039168
2620.3185,0.039077
2622.1822,0.038878
2624.0458,0.038807
2625.9095,0.038901
2627.7732,0.038967
2629.6368,0.038968
2631.5005,0.038771
2633.3642,0.038645
2635.2279,0.038700
2637.0915,0.038932
2638.9552,0.039135
2640.8189,0.039031
2642.6825,0.038697
2644.5462,0.038547
2646.4099,0.038551
2648.2735,0.038630
2650.1372,0.038571
2652.0009,0.038679
2653.8645,0.038849
2655.7282,0.038585
2657.5919,0.038181
2659.4555,0.038312
2661.3192,0.038542
2663.1829,0.038503
2665.0466,0.038420
2666.9102,0.038451
2668.7739,0.038422
2670.6376,0.038361
2672.5012,0.038424
2674.3649,0.038708
2676.2286,0.038839
2678.0922,0.038899
2679.9559,0.039089
2681.8196,0.039494
2683.6832,0.039854
2685.5469,0.040018
2687.4106,0.039941
2689.2742,0.040176
2691.1379,0.040604
2693.0016,0.040769
2694.8653,0.040793
2696.7289,0.040892
2698.5926,0.041252
2700.4563,0.041648
2702.3199,0.041877
2704.1836,0.042080
2706.0473,0.042425
2707.9109,0.042856
2709.7746,0.043109
2711.6383,0.043257
2713.5019,0.043477
2715.3656,0.043545
2717.2293,0.043287
2719.0930,0.043509
2720.9566,0.043921
2722.8203,0.044007
2724.6840,0.044174
2726.5476,0.044529
2728.4113,0.044860
2730.2750,0.045016
2732.1386,0.044820
2734.0023,0.044570
2735.8660,0.044808
2737.7296,0.045080
2739.5933,0.045124
2741.4570,0.045070
2743.3206,0.045054
2745.1843,0.045232
2747.0480,0.045202
2748.9117,0.045263
2750.7753,0.045367
2752.6390,0.045494
2754.5027,0.045406
2756.3663,0.045557
2758.2300,0.045875
2760.0937,0.045981
2761.9573,0.045944
2763.8210,0.046024
2765.6847,0.046239
2767.5483,0.046511
2769.4120,0.046641
2771.2757,0.046812
2773.1394,0.047111
2775.0030,0.047672
2776.8667,0.047907
2778.7304,0.048013
2780.5940,0.048203
2782.4577,0.048131
2784.3214,0.047936
2786.1850,0.047966
2788.0487,0.048274
2789.9124,0.048637
2791.7760,0.048855
2793.6397,0.048972
2795.5034,0.048722
2797.3670,0.048535
2799.2307,0.048708
2801.0944,0.048933
2802.9581,0.048846
2804.8217,0.048847
2806.6854,0.048730
2808.5491,0.048494
2810.4127,0.048639
2812.2764,0.049133
2814.1401,0.049053
2816.0037,0.048798
2817.8674,0.048964
2819.7311,0.049337
2821.5947,0.049284
2823.4584,0.049359
2825.3221,0.049719
2827.1857,0.049866
2829.0494,0.049961
2830.9131,0.049984
2832.7768,0.049910
2834.6404,0.050243
2836.5041,0.050901
2838.3678,0.051372
2840.2314,0.051625
2842.0951,0.051837
2843.9588,0.051817
2845.8224,0.052009
2847.6861,0.052411
2849.5498,0.052898
2851.4134,0.053224
2853.2771,0.053756
2855.1408,0.054043
2857.0045,0.053959
2858.8681,0.054356
2860.7318,0.055056
2862.5955,0.055158
2864.4591,0.055283
2866.3228,0.055364
2868.1865,0.055226
2870.0501,0.055052
2871.9138,0.055081
2873.7775,0.055174
2875.6411,0.055060
2877.5048,0.054692
2879.3685,0.054656
2881.2321,0.054786
2883.0958,0.055125
2884.9595,0.055604
2886.8232,0.055965
2888.6868,0.056029
2890.5505,0.056307
2892.4142,0.056583
2894.2778,0.056819
2896.1415,0.057131
2898.0052,0.057720
2899.8688,0.058213
2901.7325,0.058518
2903.5962,0.058527
2905.4598,0.058790
2907.3235,0.059257
2909.1872,0.059637
2911.0509,0.059669
2912.9145,0.059324
2914.7782,0.059424
2916.6419,0.060144
2918.5055,0.060981
2920.3692,0.061612
2922.2329,0.061815
2924.0965,0.062422
2925.9602,0.063226
2927.8239,0.063715
2929.6875,0.064093
2931.5512,0.064650
2933.4149,0.065085
2935.2785,0.065344
2937.1422,0.065110
2939.0059,0.065375
2940.8696,0.066005
2942.7332,0.066232
2944.5969,0.066727
2946.4606,0.067244
2948.3242,0.067498
2950.1879,0.067893
2952.0516,0.068419
2953.9152,0.068650
2955.7789,0.068392
2957.6426,0.068302
2959.5062,0.068213
2961.3699,0.068542
2963.2336,0.069498
2965.0972,0.070114
2966.9609,0.069794
2968.8246,0.069931
2970.6883,0.070794
2972.5519,0.071252
2974.4156,0.070965
2976.2793,0.070892
2978.1429,0.071113
2980.0066,0.071158
2981.8703,0.070912
2983.7339,0.070727
2985.5976,0.071244
2987.4613,0.071887
2989.3249,0.072166
2991.1886,0.072695
2993.0523,0.073436
2994.9160,0.074281
2996.7796,0.074900
2998.6433,0.075031
3000.5070,0.074853
3002.3706,0.075377
3004.2343,0.076049
3006.0980,0.076514
3007.9616,0.076605
3009.8253,0.076783
3011.6890,0.077139
3013.5526,0.077357
3015.4163,0.077113
3017.2800,0.077176
3019.1436,0.076930
3021.0073,0.076343
3022.8710,0.075844
3024.7347,0.075477
3026.5983,0.075210
3028.4620,0.075288
3030.3257,0.075065
3032.1893,0.074595
3034.0530,0.074395
3035.9167,0.074165
3037.7803,0.073573
3039.6440,0.073305
3041.5077,0.072845
3043.3713,0.072072
3045.2350,0.071594
3047.0987,0.071397
3048.9624,0.071095
3050.8260,0.070749
3052.6897,0.070069
3054.5534,0.069377
3056.4170,0.068451
3058.2807,0.067942
3060.1444,0.067223
3062.0080,0.066519
3063.8717,0.066403
3065.7354,0.066121
3067.5990,0.065689
3069.4627,0.066038
3071.3264,0.065973
3073.1900,0.065885
3075.0537,0.065842
3076.9174,0.065618
3078.7811,0.065570
3080.6447,0.064933
3082.5084,0.062590
3084.3721,0.059951
3086.2357,0.058261
3088.0994,0.057175
3089.9631,0.055878
3091.8267,0.054472
3093.6904,0.053430
3095.5541,0.052973
3097.4177,0.051893
3099.2814,0.051201
3101.1451,0.051098
3103.0087,0.050615
3104.8724,0.049852
3106.7361,0.049320
3108.5998,0.049280
3110.4634,0.048783
3112.3271,0.047730
3114.1908,0.047497
3116.0544,0.047614
3117.9181,0.047640
3119.7818,0.046792
3121.6454,0.045866
3123.5091,0.045253
3125.3728,0.044784
3127.2364,0.044176
3129.1001,0.044148
3130.9638,0.044012
3132.8275,0.043114
3134.6911,0.041968
3136.5548,0.041600
3138.4185,0.041290
3140.2821,0.041762
3142.1458,0.041912
3144.0095,0.041504
3145.8731,0.041036
3147.7368,0.040546
3149.6005,0.039452
3151.4641,0.038382
3153.3278,0.039110
3155.1915,0.040194
3157.0551,0.039715
3158.9188,0.038696
3160.7825,0.038161
3162.6462,0.037800
3164.5098,0.036906
3166.3735,0.036353
3168.2372,0.036818
3170.1008,0.037324
3171.9645,0.037477
3173.8282,0.037367
3175.6918,0.036414
3177.5555,0.035450
3179.4192,0.035662
3181.2828,0.035860
3183.1465,0.035048
3185.0102,0.033853
3186.8739,0.033683
3188.7375,0.034092
3190.6012,0.034143
3192.4649,0.034051
3194.3285,0.034008
3196.1922,0.033579
3198.0559,0.033211
3199.9195,0.033539
3201.7832,0.033982
3203.6469,0.033731
3205.5105,0.032889
3207.3742,0.032967
3209.2379,0.032908
3211.1015,0.032973
3212.9652,0.032815
3214.8289,0.032413
3216.6926,0.032624
3218.5562,0.033050
3220.4199,0.033410
3222.2836,0.033764
3224.1472,0.032798
3226.0109,0.031815
3227.8746,0.031694
3229.7382,0.032341
3231.6019,0.032729
3233.4656,0.032354
3235.3292,0.032335
3237.1929,0.032538
3239.0566,0.032656
3240.9202,0.033671
3242.7839,0.033966
3244.6476,0.033502
3246.5113,0.032374
3248.3749,0.031937
3250.2386,0.032865
3252.1023,0.033509
3253.9659,0.033078
3255.8296,0.032751
3257.6933,0.032753
3259.5569,0.033177
3261.4206,0.032924
3263.2843,0.032752
3265.1479,0.033372
3267.0116,0.033016
3268.8753,0.032531
3270.7390,0.032476
3272.6026,0.032596
3274.4663,0.033317
3276.3300,0.034050
3278.1936,0.033795
3280.0573,0.032882
3281.9210,0.032230
3283.7846,0.032391
3285.6483,0.032933
3287.5120,0.032709
3289.3756,0.032536
3291.2393,0.031952
3293.1030,0.031130
3294.9666,0.031432
3296.8303,0.031730
3298.6940,0.031252
3300.5577,0.031111
3302.4213,0.031287
3304.2850,0.030978
3306.1487,0.030436
3308.0123,0.030694
3309.8760,0.031217
3311.7397,0.031601
3313.6033,0.031798
3315.4670,0.031225
3317.3307,0.031454
3319.1943,0.031708
3321.0580,0.029950
3322.9217,0.029143
3324.7854,0.029741
3326.6490,0.030778
3328.5127,0.031609
3330.3764,0.031903
3332.2400,0.031603
3334.1037,0.031386
3335.9674,0.031300
3337.8310,0.031241
3339.6947,0.031271
3341.5584,0.031757
3343.4220,0.031960
3345.2857,0.032038
3347.1494,0.030976
3349.0130,0.031357
3350.8767,0.031587
3352.7404,0.031185
3354.6041,0.031194
3356.4677,0.031274
3358.3314,0.031713
3360.1951,0.032078
3362.0587,0.031769
3363.9224,0.032078
3365.7861,0.032102
3367.6497,0.033456
3369.5134,0.034282
3371.3771,0.034358
3373.2407,0.035274
3375.1044,0.036341
3376.9681,0.036738
3378.8317,0.036927
3380.6954,0.037525
3382.5591,0.039507
3384.4228,0.041946
3386.2864,0.044846
3388.1501,0.046516
3390.0138,0.048422
3391.8774,0.051152
3393.7411,0.055165
3395.6048,0.060361
3397.4684,0.064224
3399.3321,0.065893
3401.1958,0.067725
3403.0594,0.067081
3404.9231,0.063333
3406.7868,0.058281
3408.6505,0.054453
3410.5141,0.049691
3412.3778,0.043306
3414.2415,0.037310
3416.1051,0.033693
3417.9688,0.029902
3419.8325,0.026227
3421.6961,0.023486
3423.5598,0.021333
3425.4235,0.019815
3427.2871,0.019241
3429.1508,0.019696
3431.0145,0.020836
3432.8781,0.020403
3434.7418,0.018659
3436.6055,0.017424
3438.4692,0.017314
3440.3328,0.017572
3442.1965,0.017590
3444.0602,0.016938
3445.9238,0.017278
3447.7875,0.017126
3449.6512,0.016058
3451.5148,0.015498
3453.3785,0.016075
3455.2422,0.015963
3457.1058,0.015762
3458.9695,0.015439
3460.8332,0.015329
3462.6969,0.015095
3464.5605,0.015251
3466.4242,0.015478
3468.2879,0.015366
3470.1515,0.014153
3472.0152,0.013048
3473.8789,0.012896
3475.7425,0.013788
3477.6062,0.015168
3479.4699,0.015252
3481.3335,0.014722
3483.1972,0.014583
3485.0609,0.014032
3486.9245,0.012790
3488.7882,0.012480
3490.6519,0.013478
3492.5156,0.014274
3494.3792,0.014494
3496.2429,0.014065
3498.1066,0.013045
3499.9702,0.013068
3501.8339,0.013584
3503.6976,0.013034
3505.5612,0.012205
3507.4249,0.012181
3509.2886,0.012828
3511.1522,0.013215
3513.0159,0.014399
3514.8796,0.014454
3516.7432,0.013325
3518.6069,0.012315
3520.4706,0.011865
3522.3343,0.011320
3524.1979,0.011858
3526.0616,0.013438
3527.9253,0.012822
3529.7889,0.011625
3531.6526,0.013065
3533.5163,0.014659
3535.3799,0.014426
3537.2436,0.013391
3539.1073,0.013205
3540.9709,0.013182
3542.8346,0.012699
3544.6983,0.012419
3546.5620,0.012600
3548.4256,0.012744
3550.2893,0.013065
3552.1530,0.012410
3554.0166,0.012104
3555.8803,0.011782
3557.7440,0.012355
3559.6076,0.012510
3561.4713,0.012121
3563.3350,0.011130
3565.1986,0.011215
3567.0623,0.011135
3568.9260,0.011951
3570.7896,0.012766
3572.6533,0.012907
3574.5170,0.012694
3576.3807,0.013256
3578.2443,0.013776
3580.1080,0.013020
3581.9717,0.013099
3583.8353,0.013159
3585.6990,0.011471
3587.5627,0.011065
3589.4263,0.013021
3591.2900,0.014937
3593.1537,0.014194
3595.0173,0.012594
3596.8810,0.012576
3598.7447,0.013695
3600.6084,0.013542
3602.4720,0.012823
3604.3357,0.012744
3606.1994,0.012772
3608.0630,0.012498
3609.9267,0.012816
3611.7904,0.012877
3613.6540,0.012315
3615.5177,0.012646
3617.3814,0.012794
3619.2450,0.012745
3621.1087,0.014667
3622.9724,0.015711
3624.8360,0.013927
3626.6997,0.012143
3628.5634,0.011248
3630.4271,0.010828
3632.2907,0.014267
3634.1544,0.015014
3636.0181,0.014629
3637.8817,0.014341
3639.7454,0.014413
3641.6091,0.014804
3643.4727,0.013886
3645.3364,0.012075
3647.2001,0.010069
3649.0637,0.009377
3650.9274,0.012723
3652.7911,0.017056
3654.6547,0.017633
3656.5184,0.016449
3658.3821,0.017659
3660.2458,0.019529
3662.1094,0.019686
3663.9731,0.018556
3665.8368,0.018997
3667.7004,0.020255
3669.5641,0.021583
3671.4278,0.029325
3673.2914,0.042314
3675.1551,0.043724
3677.0188,0.037463
3678.8824,0.025752
3680.7461,0.016781
3682.6098,0.012330
3684.4735,0.011699
3686.3371,0.011237
3688.2008,0.010372
3690.0645,0.010114
3691.9281,0.012889
3693.7918,0.014642
3695.6555,0.014087
3697.5191,0.013419
3699.3828,0.013089
3701.2465,0.011854
3703.1101,0.012244
3704.9738,0.013341
3706.8375,0.013136
3708.7011,0.011962
3710.5648,0.011310
3712.4285,0.011638
3714.2922,0.013965
3716.1558,0.014162
3718.0195,0.013231
3719.8832,0.012856
3721.7468,0.012901
3723.6105,0.012737
3725.4742,0.012933
3727.3378,0.013898
3729.2015,0.014389
3731.0652,0.012487
3732.9288,0.010706
3734.7925,0.009982
3736.6562,0.010256
3738.5199,0.013102
3740.3835,0.014049
3742.2472,0.012515
3744.1109,0.010763
3745.9745,0.010759
3747.8382,0.012908
3749.7019,0.010871
3751.5655,0.010140
3753.4292,0.014249
3755.2929,0.016022
3757.1565,0.014804
3759.0202,0.013490
3760.8839,0.013579
3762.7475,0.014346
3764.6112,0.013902
3766.4749,0.013384
3768.3386,0.013589
3770.2022,0.013895
3772.0659,0.014805
3773.9296,0.015549
3775.7932,0.014881
3777.6569,0.014158
3779.5206,0.013678
3781.3842,0.014711
3783.2479,0.015469
3785.1116,0.014954
3786.9752,0.015052
3788.8389,0.015626
3790.7026,0.015575
3792.5662,0.015157
3794.4299,0.014275
3796.2936,0.013210
3798.1573,0.012543
3800.0209,0.012511
3801.8846,0.012561
3803.7483,0.014367
3805.6119,0.015295
3807.4756,0.014141
3809.3393,0.014977
3811.2029,0.015720
3813.0666,0.014556
3814.9303,0.013260
3816.7939,0.012621
3818.6576,0.014271
3820.5213,0.013214
3822.3850,0.012159
3824.2486,0.015771
3826.1123,0.016232
3827.9760,0.014840
3829.8396,0.014893
3831.7033,0.014316
3833.5670,0.013292
3835.4306,0.012605
3837.2943,0.013083
3839.1580,0.013270
3841.0216,0.014888
3842.8853,0.016036
3844.7490,0.015770
3846.6126,0.015565
3848.4763,0.014872
3850.3400,0.012558
3852.2037,0.009997
3854.0673,0.009691
3855.9310,0.015230
3857.7947,0.017559
3859.6583,0.016291
3861.5220,0.014443
3863.3857,0.013236
3865.2493,0.013250
3867.1130,0.014116
3868.9767,0.014470
3870.8403,0.014160
3872.7040,0.014869
3874.5677,0.015670
3876.4314,0.015535
3878.2950,0.015240
3880.1587,0.014033
3882.0224,0.013850
3883.8860,0.015180
3885.7497,0.014545
3887.6134,0.015052
3889.4770,0.016157
3891.3407,0.015407
3893.2044,0.015557
3895.0680,0.016065
3896.9317,0.015463
3898.7954,0.013925
3900.6590,0.012287
3902.5227,0.012586
3904.3864,0.014524
3906.2501,0.016173
3908.1137,0.017549
3909.9774,0.017292
3911.8411,0.016218
3913.7047,0.015610
3915.5684,0.014967
3917.4321,0.014195
3919.2957,0.014740
3921.1594,0.015728
3923.0231,0.015659
3924.8867,0.015838
3926.7504,0.016655
3928.6141,0.016611
3930.4777,0.015547
3932.3414,0.014925
3934.2051,0.015352
3936.0688,0.015711
3937.9324,0.015487
3939.7961,0.015454
3941.6598,0.015649
3943.5234,0.015013
3945.3871,0.015304
3947.2508,0.015793
3949.1144,0.015366
3950.9781,0.015671
3952.8418,0.016689
3954.7054,0.015988
3956.5691,0.015087
3958.4328,0.015735
3960.2965,0.015987
3962.1601,0.016020
3964.0238,0.016413
3965.8875,0.016003
3967.7511,0.015845
3969.6148,0.015748
3971.4785,0.015810
3973.3421,0.016238
3975.2058,0.016198
3977.0695,0.015333
3978.9331,0.015422
3980.7968,0.016014
3982.6605,0.016460
3984.5241,0.016102
3986.3878,0.015766
3988.2515,0.015672
3990.1152,0.015871
3991.9788,0.015545
3993.8425,0.015579
3995.7062,0.015823
3997.5698,0.015970
3999.4335,0.015733
