Wavenumber,Intensity
650.4205,0.181898
652.2841,0.177545
654.1478,0.174470
656.0115,0.171823
657.8751,0.170462
659.7388,0.165621
661.6025,0.162705
663.4661,0.160220
665.3298,0.157023
667.1935,0.153967
669.0571,0.156891
670.9208,0.158805
672.7845,0.158141
674.6481,0.157650
676.5118,0.158550
678.3755,0.157948
680.2392,0.158741
682.1028,0.159030
683.9665,0.158560
685.8302,0.157444
687.6938,0.157926
689.5575,0.158199
691.4212,0.157955
693.2848,0.159023
695.1485,0.161658
697.0122,0.162633
698.8758,0.162394
700.7395,0.161893
702.6032,0.161491
704.4669,0.161043
706.3305,0.158075
708.1942,0.152006
710.0579,0.145864
711.9215,0.139973
713.7852,0.134942
715.6489,0.129594
717.5125,0.124256
719.3762,0.119497
721.2399,0.114963
723.1035,0.111057
724.9672,0.107702
726.8309,0.103684
728.6945,0.100089
730.5582,0.097244
732.4219,0.094525
734.2856,0.091627
736.1492,0.089167
738.0129,0.087372
739.8766,0.087395
741.7402,0.089232
743.6039,0.091237
745.4676,0.092257
747.3312,0.092614
749.1949,0.092726
751.0586,0.092752
752.9222,0.092674
754.7859,0.092608
756.6496,0.092241
758.5132,0.091889
760.3769,0.091347
762.2406,0.090959
764.1043,0.090298
765.9679,0.089304
767.8316,0.088391
769.6953,0.087447
771.5589,0.086457
773.4226,0.086021
775.2863,0.085886
777.1499,0.085101
779.0136,0.084625
780.8773,0.084769
782.7409,0.085277
784.6046,0.086068
786.4683,0.086805
788.3320,0.087696
790.1956,0.088721
792.0593,0.089944
793.9230,0.090810
795.7866,0.091822
797.6503,0.093166
799.5140,0.094223
801.3776,0.094754
803.2413,0.094717
805.1050,0.094167
806.9686,0.093498
808.8323,0.092335
810.6960,0.090543
812.5596,0.088424
814.4233,0.086319
816.2870,0.084197
818.1507,0.082137
820.0143,0.080553
821.8780,0.079577
823.7417,0.079247
825.6053,0.079918
827.4690,0.081385
829.3327,0.082001
831.1963,0.078483
833.0600,0.071132
834.9237,0.064924
836.7873,0.062183
838.6510,0.061493
840.5147,0.061550
842.3784,0.061716
844.2420,0.061761
846.1057,0.061896
847.9694,0.062041
849.8330,0.061801
851.6967,0.061625
853.5604,0.061935
855.4240,0.062307
857.2877,0.062468
859.1514,0.062424
861.0150,0.062029
862.8787,0.061572
864.7424,0.060997
866.6060,0.060095
868.4697,0.059233
870.3334,0.058316
872.1971,0.057483
874.0607,0.056964
875.9244,0.056642
877.7881,0.056753
879.6517,0.057164
881.5154,0.057680
883.3791,0.058307
885.2427,0.059030
887.1064,0.059882
888.9701,0.060978
890.8337,0.061917
892.6974,0.062624
894.5611,0.063585
896.4247,0.064766
898.2884,0.066067
900.1521,0.067626
902.0158,0.069538
903.8794,0.071947
905.7431,0.075109
907.6068,0.078760
909.4704,0.082970
911.3341,0.088089
913.1978,0.093567
915.0614,0.096271
916.9251,0.091315
918.7888,0.081132
920.6524,0.073314
922.5161,0.070154
924.3798,0.069466
926.2435,0.069433
928.1071,0.069626
929.9708,0.069890
931.8345,0.070167
933.6981,0.070373
935.5618,0.070486
937.4255,0.070497
939.2891,0.070389
941.1528,0.070301
943.0165,0.070470
944.8801,0.070941
946.7438,0.071572
948.6075,0.072508
950.4711,0.073940
952.3348,0.075629
954.1985,0.077437
956.0622,0.079563
957.9258,0.081951
959.7895,0.084344
961.6532,0.086782
963.5168,0.089652
965.3805,0.093038
967.2442,0.096886
969.1078,0.101149
970.9715,0.105795
972.8352,0.111188
974.6988,0.118119
976.5625,0.127859
978.4262,0.142467
980.2899,0.161264
982.1535,0.169216
984.0172,0.151646
985.8809,0.128291
987.7445,0.118886
989.6082,0.118833
991.4719,0.120390
993.3355,0.121796
995.1992,0.122824
997.0629,0.123333
998.9265,0.123246
1000.7902,0.123007
1002.6539,0.122877
1004.5175,0.122737
1006.3812,0.122633
1008.2449,0.122729
1010.1086,0.122981
1011.9722,0.123216
1013.8359,0.123184
1015.6996,0.122823
1017.5632,0.122160
1019.4269,0.121191
1021.2906,0.119970
1023.1542,0.118594
1025.0179,0.117036
1026.8816,0.115391
1028.7452,0.113938
1030.6089,0.112904
1032.4726,0.112165
1034.3362,0.111825
1036.1999,0.112130
1038.0636,0.113055
1039.9273,0.114418
1041.7909,0.115984
1043.6546,0.117561
1045.5183,0.118909
1047.3819,0.119451
1049.2456,0.117677
1051.1093,0.111917
1052.9729,0.103303
1054.8366,0.094985
1056.7003,0.088900
1058.5639,0.085170
1060.4276,0.083005
1062.2913,0.081704
1064.1550,0.081249
1066.0186,0.081973
1067.8823,0.084328
1069.7460,0.088113
1071.6096,0.092640
1073.4733,0.097011
1075.3370,0.100042
1077.2006,0.101441
1079.0643,0.101888
1080.9280,0.101753
1082.7916,0.101315
1084.6553,0.100996
1086.5190,0.100914
1088.3826,0.101190
1090.2463,0.102205
1092.1100,0.104051
1093.9737,0.106517
1095.8373,0.109758
1097.7010,0.113875
1099.5647,0.118538
1101.4283,0.123167
1103.2920,0.126852
1105.1557,0.128816
1107.0193,0.128158
1108.8830,0.123955
1110.7467,0.116503
1112.6103,0.107334
1114.4740,0.098138
1116.3377,0.090078
1118.2014,0.083747
1120.0650,0.079273
1121.9287,0.076387
1123.7924,0.074443
1125.6560,0.072892
1127.5197,0.071453
1129.3834,0.069866
1131.2470,0.068325
1133.1107,0.067282
1134.9744,0.066987
1136.8380,0.067463
1138.7017,0.068443
1140.5654,0.069714
1142.4290,0.071117
1144.2927,0.072429
1146.1564,0.073395
1148.0201,0.073899
1149.8837,0.073960
1151.7474,0.073613
1153.6111,0.072914
1155.4747,0.071896
1157.3384,0.070728
1159.2021,0.069470
1161.0657,0.068262
1162.9294,0.067363
1164.7931,0.066802
1166.6567,0.066679
1168.5204,0.067106
1170.3841,0.067742
1172.2477,0.067749
1174.1114,0.066102
1175.9751,0.062485
1177.8388,0.058237
1179.7024,0.054947
1181.5661,0.053021
1183.4298,0.052207
1185.2934,0.052094
1187.1571,0.052244
1189.0208,0.052560
1190.8844,0.053015
1192.7481,0.053442
1194.6118,0.053832
1196.4754,0.054208
1198.3391,0.054635
1200.2028,0.055154
1202.0665,0.055700
1203.9301,0.056120
1205.7938,0.056424
1207.6575,0.056682
1209.5211,0.056854
1211.3848,0.057069
1213.2485,0.057371
1215.1121,0.057672
1216.9758,0.058030
1218.8395,0.058475
1220.7031,0.058922
1222.5668,0.059424
1224.4305,0.060027
1226.2941,0.060604
1228.1578,0.061227
1230.0215,0.061854
1231.8852,0.062363
1233.7488,0.062920
1235.6125,0.063529
1237.4762,0.064042
1239.3398,0.064504
1241.2035,0.064971
1243.0672,0.065382
1244.9308,0.065800
1246.7945,0.066211
1248.6582,0.066592
1250.5218,0.067018
1252.3855,0.067487
1254.2492,0.067967
1256.1129,0.068491
1257.9765,0.069144
1259.8402,0.069923
1261.7039,0.070751
1263.5675,0.071567
1265.4312,0.072249
1267.2949,0.072577
1269.1585,0.072603
1271.0222,0.072644
1272.8859,0.072812
1274.7495,0.073151
1276.6132,0.073807
1278.4769,0.074796
1280.3405,0.076053
1282.2042,0.077413
1284.0679,0.078834
1285.9316,0.080474
1287.7952,0.082416
1289.6589,0.084597
1291.5226,0.087029
1293.3862,0.089861
1295.2499,0.093249
1297.1136,0.097261
1298.9772,0.101903
1300.8409,0.107222
1302.7046,0.112591
1304.5682,0.116103
1306.4319,0.114876
1308.2956,0.106460
1310.1592,0.092093
1312.0229,0.077852
1313.8866,0.068958
1315.7503,0.065991
1317.6139,0.066490
1319.4776,0.068389
1321.3413,0.070452
1323.2049,0.072502
1325.0686,0.074758
1326.9323,0.076993
1328.7959,0.079020
1330.6596,0.080914
1332.5233,0.082417
1334.3869,0.083172
1336.2506,0.083641
1338.1143,0.084623
1339.9780,0.085894
1341.8416,0.086189
1343.7053,0.085973
1345.5690,0.086206
1347.4326,0.086798
1349.2963,0.087723
1351.1600,0.088759
1353.0236,0.089903
1354.8873,0.091539
1356.7510,0.093302
1358.6146,0.094764
1360.4783,0.096753
1362.3420,0.100089
1364.2056,0.102808
1366.0693,0.103868
1367.9330,0.105790
1369.7967,0.108217
1371.6603,0.110067
1373.5240,0.113173
1375.3877,0.116736
1377.2513,0.118800
1379.1150,0.121674
1380.9787,0.125490
1382.8423,0.129253
1384.7060,0.133264
1386.5697,0.138857
1388.4333,0.145044
1390.2970,0.147761
1392.1607,0.148687
1394.0244,0.148720
1395.8880,0.145326
1397.7517,0.139183
1399.6154,0.132237
1401.4790,0.125332
1403.3427,0.118825
1405.2064,0.109639
1407.0700,0.097483
1408.9337,0.085528
1410.7974,0.074782
1412.6610,0.067283
1414.5247,0.063912
1416.3884,0.064038
1418.2520,0.067905
1420.1157,0.074087
1421.9794,0.076553
1423.8431,0.074998
1425.7067,0.068862
1427.5704,0.062044
1429.4341,0.058019
1431.2977,0.056462
1433.1614,0.056246
1435.0251,0.057313
1436.8887,0.060163
1438.7524,0.061563
1440.6161,0.061690
1442.4797,0.062627
1444.3434,0.063495
1446.2071,0.064227
1448.0707,0.064750
1449.9344,0.063682
1451.7981,0.061396
1453.6618,0.059162
1455.5254,0.058927
1457.3891,0.062363
1459.2528,0.063379
1461.1164,0.061959
1462.9801,0.061594
1464.8438,0.061886
1466.7074,0.060916
1468.5711,0.058867
1470.4348,0.057574
1472.2984,0.057818
1474.1621,0.058239
1476.0258,0.057733
1477.8895,0.057404
1479.7531,0.057148
1481.6168,0.057342
1483.4805,0.057451
1485.3441,0.057475
1487.2078,0.058064
1489.0715,0.059727
1490.9351,0.061073
1492.7988,0.060481
1494.6625,0.060316
1496.5261,0.062181
1498.3898,0.063990
1500.2535,0.064118
1502.1171,0.063342
1503.9808,0.062786
1505.8445,0.065108
1507.7082,0.071009
1509.5718,0.070303
1511.4355,0.069404
1513.2992,0.069711
1515.1628,0.070414
1517.0265,0.071785
1518.8902,0.072580
1520.7538,0.073983
1522.6175,0.076429
1524.4812,0.076332
1526.3448,0.077102
1528.2085,0.077821
1530.0722,0.077652
1531.9359,0.078536
1533.7995,0.080883
1535.6632,0.080778
1537.5269,0.080185
1539.3905,0.083686
1541.2542,0.089371
1543.1179,0.090047
1544.9815,0.090875
1546.8452,0.091155
1548.7089,0.091849
1550.5725,0.093909
1552.4362,0.095303
1554.2999,0.096307
1556.1635,0.097704
1558.0272,0.102063
1559.8909,0.112454
1561.7546,0.109660
1563.6182,0.107916
1565.4819,0.109359
1567.3456,0.111340
1569.2092,0.114520
1571.0729,0.117612
1572.9366,0.117803
1574.8002,0.120221
1576.6639,0.125880
1578.5276,0.127962
1580.3912,0.127999
1582.2549,0.129747
1584.1186,0.131261
1585.9822,0.132368
1587.8459,0.133130
1589.7096,0.133357
1591.5733,0.132927
1593.4369,0.132300
1595.3006,0.131429
1597.1643,0.130223
1599.0279,0.128618
1600.8916,0.126783
1602.7553,0.125011
1604.6189,0.123604
1606.4826,0.122356
1608.3463,0.121016
1610.2099,0.119220
1612.0736,0.116806
1613.9373,0.114016
1615.8010,0.111431
1617.6646,0.107290
1619.5283,0.102271
1621.3920,0.098332
1623.2556,0.093843
1625.1193,0.088594
1626.9830,0.083473
1628.8466,0.077510
1630.7103,0.071280
1632.5740,0.066019
1634.4376,0.061474
1636.3013,0.056795
1638.1650,0.053549
1640.0286,0.052556
1641.8923,0.051884
1643.7560,0.051970
1645.6197,0.053573
1647.4833,0.056041
1649.3470,0.056195
1651.2107,0.056957
1653.0743,0.061576
1654.9380,0.065165
1656.8017,0.063774
1658.6653,0.063831
1660.5290,0.064211
1662.3927,0.064290
1664.2563,0.063164
1666.1200,0.061505
1667.9837,0.060573
1669.8474,0.060103
1671.7110,0.059328
1673.5747,0.059600
1675.4384,0.061434
1677.3020,0.063111
1679.1657,0.064106
1681.0294,0.066477
1682.8930,0.069694
1684.7567,0.074666
1686.6204,0.075267
1688.4840,0.073826
1690.3477,0.072581
1692.2114,0.070322
1694.0750,0.068032
1695.9387,0.065642
1697.8024,0.062435
1699.6661,0.060175
1701.5297,0.055697
1703.3934,0.051284
1705.2571,0.046477
1707.1207,0.040490
1708.9844,0.036243
1710.8481,0.033085
1712.7117,0.030315
1714.5754,0.028576
1716.4391,0.027342
1718.3027,0.026886
1720.1664,0.026214
1722.0301,0.025378
1723.8937,0.024200
1725.7574,0.022796
1727.6211,0.021443
1729.4848,0.020366
1731.3484,0.019324
1733.2121,0.018842
1735.0758,0.018421
1736.9394,0.017818
1738.8031,0.017570
1740.6668,0.017552
1742.5304,0.017189
1744.3941,0.016793
1746.2578,0.016436
1748.1214,0.016418
1749.9851,0.016449
1751.8488,0.016495
1753.7125,0.016044
1755.5761,0.015822
1757.4398,0.015985
1759.3035,0.015997
1761.1671,0.015991
1763.0308,0.016064
1764.8945,0.015723
1766.7581,0.015636
1768.6218,0.015687
1770.4855,0.015793
1772.3491,0.015977
1774.2128,0.015969
1776.0765,0.015725
1777.9401,0.015735
1779.8038,0.015789
1781.6675,0.016038
1783.5312,0.016081
1785.3948,0.016100
1787.2585,0.015922
1789.1222,0.015851
1790.9858,0.016234
1792.8495,0.016651
1794.7132,0.016065
1796.5768,0.015708
1798.4405,0.015956
1800.3042,0.016325
1802.1678,0.016290
1804.0315,0.016171
1805.8952,0.016068
1807.7589,0.016171
1809.6225,0.016325
1811.4862,0.016551
1813.3499,0.016383
1815.2135,0.016156
1817.0772,0.016173
1818.9409,0.016257
1820.8045,0.016272
1822.6682,0.016355
1824.5319,0.016106
1826.3955,0.016057
1828.2592,0.015959
1830.1229,0.016023
1831.9865,0.015895
1833.8502,0.015826
1835.7139,0.015899
1837.5776,0.016041
1839.4412,0.015909
1841.3049,0.015827
1843.1686,0.016087
1845.0322,0.016451
1846.8959,0.016157
1848.7596,0.016044
1850.6232,0.016164
1852.4869,0.016210
1854.3506,0.016229
1856.2142,0.016373
1858.0779,0.016462
1859.9416,0.016458
1861.8052,0.016272
1863.6689,0.016198
1865.5326,0.016334
1867.3963,0.016566
1869.2599,0.016242
1871.1236,0.016229
1872.9873,0.016363
1874.8509,0.016386
1876.7146,0.016353
1878.5783,0.016490
1880.4419,0.016266
1882.3056,0.016229
1884.1693,0.016312
1886.0329,0.016145
1887.8966,0.015806
1889.7603,0.016107
1891.6240,0.016176
1893.4876,0.015910
1895.3513,0.015861
1897.2150,0.015948
1899.0786,0.015933
1900.9423,0.016165
1902.8060,0.016198
1904.6696,0.016234
1906.5333,0.016340
1908.3970,0.016680
1910.2606,0.016673
1912.1243,0.016530
1913.9880,0.016437
1915.8516,0.016492
1917.7153,0.016260
1919.5790,0.015852
1921.4427,0.015688
1923.3063,0.015574
1925.1700,0.015324
1927.0337,0.015404
1928.8973,0.015271
1930.7610,0.015429
1932.6247,0.015585
1934.4883,0.015567
1936.3520,0.015210
1938.2157,0.015435
1940.0793,0.015331
1941.9430,0.015367
1943.8067,0.015025
1945.6704,0.014235
1947.5340,0.013431
1949.3977,0.013707
1951.2614,0.013857
1953.1250,0.014155
1954.9887,0.013760
1956.8524,0.013040
1958.7160,0.012551
1960.5797,0.012756
1962.4434,0.012356
1964.3070,0.010108
1966.1707,0.008159
1968.0344,0.008724
1969.8980,0.009298
1971.7617,0.008652
1973.6254,0.008985
1975.4891,0.009924
1977.3527,0.009625
1979.2164,0.009802
1981.0801,0.009631
1982.9437,0.009914
1984.8074,0.011065
1986.6711,0.012136
1988.5347,0.012702
1990.3984,0.012760
1992.2621,0.011594
1994.1257,0.011519
1995.9894,0.010822
1997.8531,0.010715
1999.7167,0.011320
2001.5804,0.012305
2003.4441,0.012678
2005.3078,0.011477
2007.1714,0.009323
2009.0351,0.008852
2010.8988,0.008145
2012.7624,0.008745
2014.6261,0.009995
2016.4898,0.009769
2018.3534,0.009188
2020.2171,0.010356
2022.0808,0.010835
2023.9444,0.010581
2025.8081,0.009625
2027.6718,0.009760
2029.5355,0.009350
2031.3991,0.009079
2033.2628,0.008256
2035.1265,0.009247
2036.9901,0.009670
2038.8538,0.009590
2040.7175,0.010483
2042.5811,0.011217
2044.4448,0.011433
2046.3085,0.012805
2048.1721,0.013192
2050.0358,0.013532
2051.8995,0.014181
2053.7631,0.014420
2055.6268,0.014957
2057.4905,0.015260
2059.3542,0.015530
2061.2178,0.015884
2063.0815,0.016222
2064.9452,0.017201
2066.8088,0.017175
2068.6725,0.016043
2070.5362,0.015742
2072.3998,0.017258
2074.2635,0.017026
2076.1272,0.016445
2077.9908,0.017269
2079.8545,0.018269
2081.7182,0.017943
2083.5819,0.018076
2085.4455,0.018348
2087.3092,0.018471
2089.1729,0.018519
2091.0365,0.017987
2092.9002,0.017943
2094.7639,0.018084
2096.6275,0.018113
2098.4912,0.018127
2100.3549,0.017885
2102.2185,0.018475
2104.0822,0.018731
2105.9459,0.019018
2107.8095,0.019047
2109.6732,0.018625
2111.5369,0.018566
2113.4006,0.018904
2115.2642,0.019256
2117.1279,0.019022
2118.9916,0.018724
2120.8552,0.018829
2122.7189,0.018046
2124.5826,0.017845
2126.4462,0.018023
2128.3099,0.018118
2130.1736,0.018048
2132.0372,0.017576
2133.9009,0.016987
2135.7646,0.016865
2137.6282,0.016689
2139.4919,0.016493
2141.3556,0.016294
2143.2193,0.016516
2145.0829,0.015341
2146.9466,0.014869
2148.8103,0.014749
2150.6739,0.013652
2152.5376,0.011967
2154.4013,0.010098
2156.2649,0.009408
2158.1286,0.009459
2159.9923,0.008993
2161.8559,0.009624
2163.7196,0.011645
2165.5833,0.012850
2167.4470,0.012995
2169.3106,0.013929
2171.1743,0.013129
2173.0380,0.012668
2174.9016,0.012547
2176.7653,0.013043
2178.6290,0.013957
2180.4926,0.015150
2182.3563,0.014777
2184.2200,0.014350
2186.0836,0.013661
2187.9473,0.014130
2189.8110,0.014605
2191.6746,0.015696
2193.5383,0.016056
2195.4020,0.015423
2197.2657,0.015642
2199.1293,0.015982
2200.9930,0.016378
2202.8567,0.016629
2204.7203,0.016465
2206.5840,0.017095
2208.4477,0.017069
2210.3113,0.016188
2212.1750,0.016274
2214.0387,0.017660
2215.9023,0.017900
2217.7660,0.017314
2219.6297,0.016644
2221.4934,0.017247
2223.3570,0.018237
2225.2207,0.018836
2227.0844,0.018940
2228.9480,0.018979
2230.8117,0.019344
2232.6754,0.019477
2234.5390,0.019860
2236.4027,0.019698
2238.2664,0.019126
2240.1300,0.020017
2241.9937,0.020829
2243.8574,0.021172
2245.7210,0.021024
2247.5847,0.020602
2249.4484,0.020168
2251.3121,0.020535
2253.1757,0.020876
2255.0394,0.020635
2256.9031,0.020436
2258.7667,0.021442
2260.6304,0.022293
2262.4941,0.022119
2264.3577,0.021794
2266.2214,0.021949
2268.0851,0.022058
2269.9487,0.022300
2271.8124,0.022918
2273.6761,0.023391
2275.5397,0.023302
2277.4034,0.023260
2279.2671,0.023759
2281.1308,0.024017
2282.9944,0.024176
2284.8581,0.024558
2286.7218,0.024856
2288.5854,0.025016
2290.4491,0.024992
2292.3128,0.024841
2294.1764,0.024695
2296.0401,0.024683
2297.9038,0.024799
2299.7674,0.024998
2301.6311,0.025185
2303.4948,0.025174
2305.3585,0.025179
2307.2221,0.025341
2309.0858,0.025284
2310.9495,0.025340
2312.8131,0.025181
2314.6768,0.025262
2316.5405,0.025743
2318.4041,0.025837
2320.2678,0.025976
2322.1315,0.026119
2323.9951,0.025922
2325.8588,0.025687
2327.7225,0.025434
2329.5861,0.025087
2331.4498,0.024711
2333.3135,0.024449
2335.1772,0.024438
2337.0408,0.024827
2338.9045,0.025211
2340.7682,0.025102
2342.6318,0.025308
2344.4955,0.025829
2346.3592,0.025642
2348.2228,0.024932
2350.0865,0.024671
2351.9502,0.024424
2353.8138,0.024048
2355.6775,0.024296
2357.5412,0.024520
2359.4049,0.024493
2361.2685,0.024473
2363.1322,0.024806
2364.9959,0.025124
2366.8595,0.025192
2368.7232,0.025311
2370.5869,0.025716
2372.4505,0.025860
2374.3142,0.025908
2376.1779,0.025796
2378.0415,0.025812
2379.9052,0.025702
2381.7689,0.025585
2383.6325,0.025537
2385.4962,0.025643
2387.3599,0.025803
2389.2236,0.025865
2391.0872,0.025895
2392.9509,0.025963
2394.8146,0.026052
2396.6782,0.026067
2398.5419,0.026088
2400.4056,0.025825
2402.2692,0.025676
2404.1329,0.026017
2405.9966,0.026158
2407.8602,0.026276
2409.7239,0.026152
2411.5876,0.026011
2413.4512,0.026128
2415.3149,0.026095
2417.1786,0.026394
2419.0423,0.026601
2420.9059,0.026618
2422.7696,0.026821
2424.6333,0.027056
2426.4969,0.027277
2428.3606,0.027294
2430.2243,0.027202
2432.0879,0.027134
2433.9516,0.027105
2435.8153,0.026993
2437.6789,0.026762
2439.5426,0.026479
2441.4063,0.026707
2443.2700,0.027247
2445.1336,0.027120
2446.9973,0.026869
2448.8610,0.026851
2450.7246,0.026967
2452.5883,0.027155
2454.4520,0.027253
2456.3156,0.026937
2458.1793,0.027128
2460.0430,0.027519
2461.9066,0.027294
2463.7703,0.026965
2465.6340,0.026931
2467.4976,0.027098
2469.3613,0.027146
2471.2250,0.027052
2473.0887,0.026692
2474.9523,0.026896
2476.8160,0.027118
2478.6797,0.027008
2480.5433,0.027187
2482.4070,0.027495
2484.2707,0.027216
2486.1343,0.027100
2487.9980,0.027464
2489.8617,0.027709
2491.7253,0.027846
2493.5890,0.027911
2495.4527,0.028026
2497.3164,0.027973
2499.1800,0.028057
2501.0437,0.028451
2502.9074,0.028494
2504.7710,0.028084
2506.6347,0.027873
2508.4984,0.028350
2510.3620,0.028362
2512.2257,0.028138
2514.0894,0.028294
2515.9530,0.028386
2517.8167,0.028408
2519.6804,0.028600
2521.5440,0.028486
2523.4077,0.028201
2525.2714,0.028438
2527.1351,0.028771
2528.9987,0.028970
2530.8624,0.028921
2532.7261,0.028985
2534.5897,0.029089
2536.4534,0.028898
2538.3171,0.029027
2540.1807,0.029094
2542.0444,0.029132
2543.9081,0.029012
2545.7717,0.028961
2547.6354,0.029453
2549.4991,0.029659
2551.3627,0.029509
2553.2264,0.029509
2555.0901,0.029333
2556.9538,0.029217
2558.8174,0.029525
2560.6811,0.029495
2562.5448,0.029305
2564.4084,0.029802
2566.2721,0.030019
2568.1358,0.029627
2569.9994,0.029900
2571.8631,0.030664
2573.7268,0.030533
2575.5904,0.030259
2577.4541,0.030271
2579.3178,0.030436
2581.1815,0.030809
2583.0451,0.030896
2584.9088,0.031252
2586.7725,0.031631
2588.6361,0.031837
2590.4998,0.031745
2592.3635,0.031723
2594.2271,0.031716
2596.0908,0.031709
2597.9545,0.032029
2599.8181,0.032252
2601.6818,0.031917
2603.5455,0.031968
2605.4091,0.032392
2607.2728,0.032506
2609.1365,0.032598
2611.0002,0.032861
2612.8638,0.032965
2614.7275,0.033014
2616.5912,0.032934
2618.4548,0.033087
2620.3185,0.033222
2622.1822,0.033258
2624.0458,0.033345
2625.9095,0.033803
2627.7732,0.034212
2629.6368,0.034507
2631.5005,0.034776
2633.3642,0.034962
2635.2279,0.034779
2637.0915,0.034909
2638.9552,0.035254
2640.8189,0.035533
2642.6825,0.035656
2644.5462,0.035837
2646.4099,0.035985
2648.2735,0.036107
2650.1372,0.036181
2652.0009,0.036361
2653.8645,0.036352
2655.7282,0.036488
2657.5919,0.036547
2659.4555,0.036466
2661.3192,0.036514
2663.1829,0.036753
2665.0466,0.036935
2666.9102,0.036979
2668.7739,0.036986
2670.6376,0.036830
2672.5012,0.036871
2674.3649,0.037186
2676.2286,0.037327
2678.0922,0.037701
2679.9559,0.037893
2681.8196,0.037885
2683.6832,0.037968
2685.5469,0.037968
2687.4106,0.038211
2689.2742,0.038386
2691.1379,0.038563
2693.0016,0.038898
2694.8653,0.039055
2696.7289,0.039258
2698.5926,0.039565
2700.4563,0.039642
2702.3199,0.039720
2704.1836,0.039973
2706.0473,0.040150
2707.9109,0.040436
2709.7746,0.040771
2711.6383,0.041006
2713.5019,0.041190
2715.3656,0.041455
2717.2293,0.041641
2719.0930,0.041939
2720.9566,0.042329
2722.8203,0.042529
2724.6840,0.042687
2726.5476,0.043066
2728.4113,0.043516
2730.2750,0.043658
2732.1386,0.043684
2734.0023,0.044035
2735.8660,0.044612
2737.7296,0.044974
2739.5933,0.045060
2741.4570,0.045127
2743.3206,0.045386
2745.1843,0.045956
2747.0480,0.046610
2748.9117,0.047194
2750.7753,0.047504
2752.6390,0.047820
2754.5027,0.048028
2756.3663,0.048171
2758.2300,0.048537
2760.0937,0.048970
2761.9573,0.049468
2763.8210,0.049814
2765.6847,0.050083
2767.5483,0.050494
2769.4120,0.050852
2771.2757,0.051325
2773.1394,0.051750
2775.0030,0.052474
2776.8667,0.053010
2778.7304,0.053012
2780.5940,0.053033
2782.4577,0.053218
2784.3214,0.053330
2786.1850,0.052983
2788.0487,0.052628
2789.9124,0.052929
2791.7760,0.052935
2793.6397,0.052309
2795.5034,0.051798
2797.3670,0.051546
2799.2307,0.051512
2801.0944,0.051305
2802.9581,0.050827
2804.8217,0.050526
2806.6854,0.050393
2808.5491,0.050133
2810.4127,0.049824
2812.2764,0.049960
2814.1401,0.050052
2816.0037,0.049983
2817.8674,0.050010
2819.7311,0.050179
2821.5947,0.050560
2823.4584,0.050807
2825.3221,0.050738
2827.1857,0.050692
2829.0494,0.050472
2830.9131,0.050149
2832.7768,0.049944
2834.6404,0.049943
2836.5041,0.050224
2838.3678,0.050634
2840.2314,0.051215
2842.0951,0.051481
2843.9588,0.051530
2845.8224,0.051930
2847.6861,0.052400
2849.5498,0.052897
2851.4134,0.053512
2853.2771,0.054057
2855.1408,0.054368
2857.0045,0.054737
2858.8681,0.055240
2860.7318,0.055519
2862.5955,0.055694
2864.4591,0.056094
2866.3228,0.056438
2868.1865,0.056846
2870.0501,0.057217
2871.9138,0.057647
2873.7775,0.057989
2875.6411,0.058390
2877.5048,0.058838
2879.3685,0.059289
2881.2321,0.059544
2883.0958,0.060059
2884.9595,0.060588
2886.8232,0.060792
2888.6868,0.060925
2890.5505,0.061304
2892.4142,0.061842
2894.2778,0.062166
2896.1415,0.062221
2898.0052,0.062274
2899.8688,0.062293
2901.7325,0.062488
2903.5962,0.062535
2905.4598,0.062497
2907.3235,0.062594
2909.1872,0.062819
2911.0509,0.063042
2912.9145,0.063702
2914.7782,0.064418
2916.6419,0.064975
2918.5055,0.065418
2920.3692,0.066085
2922.2329,0.066516
2924.0965,0.066636
2925.9602,0.066770
2927.8239,0.067062
2929.6875,0.067420
2931.5512,0.067864
2933.4149,0.068163
2935.2785,0.068365
2937.1422,0.068362
2939.0059,0.068353
2940.8696,0.068257
2942.7332,0.067967
2944.5969,0.067637
2946.4606,0.067870
2948.3242,0.068261
2950.1879,0.068315
2952.0516,0.068131
2953.9152,0.067976
2955.7789,0.067945
2957.6426,0.068211
2959.5062,0.068398
2961.3699,0.068638
2963.2336,0.068947
2965.0972,0.069515
2966.9609,0.070052
2968.8246,0.070640
2970.6883,0.071138
2972.5519,0.071361
2974.4156,0.071444
2976.2793,0.071850
2978.1429,0.072374
2980.0066,0.072820
2981.8703,0.072653
2983.7339,0.072807
2985.5976,0.073214
2987.4613,0.073575
2989.3249,0.074025
2991.1886,0.074518
2993.0523,0.075051
2994.9160,0.075665
2996.7796,0.075799
2998.6433,0.076703
3000.5070,0.077712
3002.3706,0.077811
3004.2343,0.078051
3006.0980,0.078620
3007.9616,0.079102
3009.8253,0.079779
3011.6890,0.080411
3013.5526,0.080922
3015.4163,0.081327
3017.2800,0.081487
3019.1436,0.081971
3021.0073,0.082580
3022.8710,0.082806
3024.7347,0.083242
3026.5983,0.083463
3028.4620,0.083458
3030.3257,0.083582
3032.1893,0.084428
3034.0530,0.084957
3035.9167,0.085247
3037.7803,0.085590
3039.6440,0.085596
3041.5077,0.085449
3043.3713,0.085833
3045.2350,0.086501
3047.0987,0.086562
3048.9624,0.086382
3050.8260,0.086817
3052.6897,0.087352
3054.5534,0.087645
3056.4170,0.088052
3058.2807,0.088672
3060.1444,0.089070
3062.0080,0.088871
3063.8717,0.088272
3065.7354,0.088477
3067.5990,0.088748
3069.4627,0.088768
3071.3264,0.088755
3073.1900,0.088600
3075.0537,0.088526
3076.9174,0.088551
3078.7811,0.088680
3080.6447,0.088920
3082.5084,0.088685
3084.3721,0.088313
3086.2357,0.088014
3088.0994,0.087585
3089.9631,0.087115
3091.8267,0.086855
3093.6904,0.086717
3095.5541,0.086342
3097.4177,0.085744
3099.2814,0.085453
3101.1451,0.085261
3103.0087,0.084712
3104.8724,0.083886
3106.7361,0.083172
3108.5998,0.082552
3110.4634,0.082203
3112.3271,0.081814
3114.1908,0.081049
3116.0544,0.080555
3117.9181,0.080451
3119.7818,0.080012
3121.6454,0.079748
3123.5091,0.079715
3125.3728,0.079130
3127.2364,0.078720
3129.1001,0.078416
3130.9638,0.077760
3132.8275,0.077317
3134.6911,0.076904
3136.5548,0.076623
3138.4185,0.076758
3140.2821,0.076833
3142.1458,0.076596
3144.0095,0.076041
3145.8731,0.075490
3147.7368,0.075541
3149.6005,0.075239
3151.4641,0.074927
3153.3278,0.074989
3155.1915,0.075009
3157.0551,0.074643
3158.9188,0.074217
3160.7825,0.073829
3162.6462,0.073263
3164.5098,0.072674
3166.3735,0.073079
3168.2372,0.073018
3170.1008,0.072648
3171.9645,0.072426
3173.8282,0.071999
3175.6918,0.071800
3177.5555,0.072003
3179.4192,0.072344
3181.2828,0.072337
3183.1465,0.071784
3185.0102,0.071813
3186.8739,0.071548
3188.7375,0.071203
3190.6012,0.071764
3192.4649,0.072482
3194.3285,0.072302
3196.1922,0.071677
3198.0559,0.071583
3199.9195,0.071906
3201.7832,0.071821
3203.6469,0.071747
3205.5105,0.072053
3207.3742,0.072451
3209.2379,0.072412
3211.1015,0.072365
3212.9652,0.072673
3214.8289,0.073730
3216.6926,0.074094
3218.5562,0.073677
3220.4199,0.073476
3222.2836,0.073740
3224.1472,0.073545
3226.0109,0.073257
3227.8746,0.073540
3229.7382,0.074040
3231.6019,0.074485
3233.4656,0.075143
3235.3292,0.075554
3237.1929,0.075322
3239.0566,0.074970
3240.9202,0.074915
3242.7839,0.074864
3244.6476,0.075246
3246.5113,0.075571
3248.3749,0.075635
3250.2386,0.075593
3252.1023,0.075978
3253.9659,0.076730
3255.8296,0.077100
3257.6933,0.077530
3259.5569,0.077776
3261.4206,0.077234
3263.2843,0.076856
3265.1479,0.077041
3267.0116,0.077016
3268.8753,0.077185
3270.7390,0.078322
3272.6026,0.077951
3274.4663,0.076807
3276.3300,0.076679
3278.1936,0.076617
3280.0573,0.076386
3281.9210,0.076241
3283.7846,0.076260
3285.6483,0.076076
3287.5120,0.075292
3289.3756,0.074830
3291.2393,0.074420
3293.1030,0.074043
3294.9666,0.073537
3296.8303,0.072625
3298.6940,0.071808
3300.5577,0.071173
3302.4213,0.070941
3304.2850,0.070852
3306.1487,0.070399
3308.0123,0.069601
3309.8760,0.068677
3311.7397,0.068767
3313.6033,0.069076
3315.4670,0.068805
3317.3307,0.068892
3319.1943,0.069062
3321.0580,0.068781
3322.9217,0.068833
3324.7854,0.069052
3326.6490,0.069020
3328.5127,0.068772
3330.3764,0.068621
3332.2400,0.068238
3334.1037,0.068050
3335.9674,0.068262
3337.8310,0.068049
3339.6947,0.066865
3341.5584,0.066396
3343.4220,0.065733
3345.2857,0.064700
3347.1494,0.063351
3349.0130,0.062402
3350.8767,0.062005
3352.7404,0.061763
3354.6041,0.060914
3356.4677,0.059076
3358.3314,0.058448
3360.1951,0.058272
3362.0587,0.057725
3363.9224,0.057231
3365.7861,0.055934
3367.6497,0.055055
3369.5134,0.055594
3371.3771,0.055728
3373.2407,0.055323
3375.1044,0.055486
3376.9681,0.055703
3378.8317,0.056361
3380.6954,0.055910
3382.5591,0.054965
3384.4228,0.055105
3386.2864,0.055601
3388.1501,0.056167
3390.0138,0.056146
3391.8774,0.055693
3393.7411,0.056319
3395.6048,0.056301
3397.4684,0.055785
3399.3321,0.055600
3401.1958,0.055012
3403.0594,0.054021
3404.9231,0.053650
3406.7868,0.052993
3408.6505,0.051850
3410.5141,0.050425
3412.3778,0.048998
3414.2415,0.047939
3416.1051,0.047073
3417.9688,0.046039
3419.8325,0.044672
3421.6961,0.043642
3423.5598,0.042998
3425.4235,0.042486
3427.2871,0.041693
3429.1508,0.040215
3431.0145,0.038806
3432.8781,0.037843
3434.7418,0.037929
3436.6055,0.037403
3438.4692,0.035647
3440.3328,0.034921
3442.1965,0.035357
3444.0602,0.035287
3445.9238,0.034609
3447.7875,0.033833
3449.6512,0.033321
3451.5148,0.033249
3453.3785,0.032754
3455.2422,0.031268
3457.1058,0.030475
3458.9695,0.031247
3460.8332,0.031713
3462.6969,0.031389
3464.5605,0.030309
3466.4242,0.028170
3468.2879,0.027408
3470.1515,0.027841
3472.0152,0.027902
3473.8789,0.028354
3475.7425,0.028121
3477.6062,0.027257
3479.4699,0.027134
3481.3335,0.026909
3483.1972,0.026610
3485.0609,0.026417
3486.9245,0.026025
3488.7882,0.025227
3490.6519,0.024857
3492.5156,0.024391
3494.3792,0.023442
3496.2429,0.022900
3498.1066,0.022899
3499.9702,0.022449
3501.8339,0.022158
3503.6976,0.022073
3505.5612,0.021655
3507.4249,0.021386
3509.2886,0.021326
3511.1522,0.021390
3513.0159,0.021056
3514.8796,0.020093
3516.7432,0.019144
3518.6069,0.018608
3520.4706,0.018218
3522.3343,0.018188
3524.1979,0.018504
3526.0616,0.018204
3527.9253,0.017354
3529.7889,0.016678
3531.6526,0.016724
3533.5163,0.017419
3535.3799,0.017366
3537.2436,0.016235
3539.1073,0.015474
3540.9709,0.015412
3542.8346,0.015433
3544.6983,0.015362
3546.5620,0.015256
3548.4256,0.015980
3550.2893,0.016424
3552.1530,0.016289
3554.0166,0.015665
3555.8803,0.014258
3557.7440,0.014037
3559.6076,0.014337
3561.4713,0.013451
3563.3350,0.013090
3565.1986,0.013393
3567.0623,0.012520
3568.9260,0.012191
3570.7896,0.012962
3572.6533,0.012577
3574.5170,0.012331
3576.3807,0.012736
3578.2443,0.012429
3580.1080,0.011941
3581.9717,0.012186
3583.8353,0.012650
3585.6990,0.012489
3587.5627,0.011924
3589.4263,0.010858
3591.2900,0.010294
3593.1537,0.010991
3595.0173,0.011308
3596.8810,0.011020
3598.7447,0.011069
3600.6084,0.011594
3602.4720,0.011515
3604.3357,0.011374
3606.1994,0.011300
3608.0630,0.010424
3609.9267,0.009970
3611.7904,0.009890
3613.6540,0.009524
3615.5177,0.009604
3617.3814,0.010259
3619.2450,0.010333
3621.1087,0.009772
3622.9724,0.009886
3624.8360,0.010230
3626.6997,0.010534
3628.5634,0.010617
3630.4271,0.009770
3632.2907,0.009903
3634.1544,0.010480
3636.0181,0.010352
3637.8817,0.010140
3639.7454,0.009999
3641.6091,0.010156
3643.4727,0.010210
3645.3364,0.009674
3647.2001,0.009287
3649.0637,0.009240
3650.9274,0.009533
3652.7911,0.010056
3654.6547,0.010348
3656.5184,0.010278
3658.3821,0.009727
3660.2458,0.009447
3662.1094,0.009774
3663.9731,0.010075
3665.8368,0.009882
3667.7004,0.009362
3669.5641,0.009080
3671.4278,0.009588
3673.2914,0.009953
3675.1551,0.009732
3677.0188,0.009736
3678.8824,0.009761
3680.7461,0.009786
3682.6098,0.010227
3684.4735,0.010629
3686.3371,0.010809
3688.2008,0.011111
3690.0645,0.010542
3691.9281,0.009497
3693.7918,0.009769
3695.6555,0.010446
3697.5191,0.010587
3699.3828,0.010594
3701.2465,0.010809
3703.1101,0.010703
3704.9738,0.010261
3706.8375,0.010097
3708.7011,0.010353
3710.5648,0.010853
3712.4285,0.011447
3714.2922,0.011417
3716.1558,0.011138
3718.0195,0.010956
3719.8832,0.010942
3721.7468,0.010878
3723.6105,0.010407
3725.4742,0.010681
3727.3378,0.011328
3729.2015,0.011136
3731.0652,0.010763
3732.9288,0.010454
3734.7925,0.009969
3736.6562,0.009849
3738.5199,0.009956
3740.3835,0.010364
3742.2472,0.011016
3744.1109,0.010971
3745.9745,0.009942
3747.8382,0.009964
3749.7019,0.010860
3751.5655,0.010528
3753.4292,0.010672
3755.2929,0.011527
3757.1565,0.011768
3759.0202,0.012166
3760.8839,0.012241
3762.7475,0.011878
3764.6112,0.011604
3766.4749,0.011412
3768.3386,0.011804
3770.2022,0.012476
3772.0659,0.012426
3773.9296,0.012176
3775.7932,0.012380
3777.6569,0.012628
3779.5206,0.012812
3781.3842,0.012791
3783.2479,0.012698
3785.1116,0.012631
3786.9752,0.012243
3788.8389,0.012099
3790.7026,0.011996
3792.5662,0.011516
3794.4299,0.012121
3796.2936,0.012859
3798.1573,0.012606
3800.0209,0.012769
3801.8846,0.012996
3803.7483,0.012618
3805.6119,0.012262
3807.4756,0.012026
3809.3393,0.012122
3811.2029,0.012549
3813.0666,0.012288
3814.9303,0.011682
3816.7939,0.011782
3818.6576,0.012287
3820.5213,0.011972
3822.3850,0.012342
3824.2486,0.013153
3826.1123,0.012688
3827.9760,0.012519
3829.8396,0.012832
3831.7033,0.012686
3833.5670,0.012006
3835.4306,0.011638
3837.2943,0.011968
3839.1580,0.012008
3841.0216,0.012459
3842.8853,0.013025
3844.7490,0.012572
3846.6126,0.012446
3848.4763,0.012685
3850.3400,0.012536
3852.2037,0.012477
3854.0673,0.012350
3855.9310,0.012117
3857.7947,0.012605
3859.6583,0.013056
3861.5220,0.012860
3863.3857,0.012589
3865.2493,0.012952
3867.1130,0.013379
3868.9767,0.013106
3870.8403,0.012866
3872.7040,0.013331
3874.5677,0.013343
3876.4314,0.013167
3878.2950,0.013298
3880.1587,0.013357
3882.0224,0.013272
3883.8860,0.012830
3885.7497,0.012579
3887.6134,0.012736
3889.4770,0.013156
3891.3407,0.013494
3893.2044,0.013755
3895.0680,0.013873
3896.9317,0.013325
3898.7954,0.012990
3900.6590,0.013433
3902.5227,0.013550
3904.3864,0.013529
3906.2501,0.013971
3908.1137,0.014024
3909.9774,0.013967
3911.8411,0.013921
3913.7047,0.014085
3915.5684,0.014209
3917.4321,0.014337
3919.2957,0.014182
3921.1594,0.013682
3923.0231,0.014020
3924.8867,0.014621
3926.7504,0.014651
3928.6141,0.014037
3930.4777,0.013852
3932.3414,0.014094
3934.2051,0.014089
3936.0688,0.014274
3937.9324,0.014452
3939.7961,0.014430
3941.6598,0.014427
3943.5234,0.014440
3945.3871,0.014469
3947.2508,0.014522
3949.1144,0.014399
3950.9781,0.014109
3952.8418,0.014195
3954.7054,0.014667
3956.5691,0.014532
3958.4328,0.014052
3960.2965,0.013974
3962.1601,0.014350
3964.0238,0.014566
3965.8875,0.014664
3967.7511,0.014623
3969.6148,0.014877
3971.4785,0.015148
3973.3421,0.014862
3975.2058,0.014390
3977.0695,0.014551
3978.9331,0.014933
3980.7968,0.014932
3982.6605,0.014711
3984.5241,0.014564
3986.3878,0.014712
3988.2515,0.015045
3990.1152,0.015268
3991.9788,0.015305
3993.8425,0.015276
3995.7062,0.015182
3997.5698,0.015044
3999.4335,0.014516
