Wavenumber,Intensity
650.4205,0.257583
652.2841,0.251870
654.1478,0.250204
656.0115,0.254902
657.8751,0.257395
659.7388,0.255679
661.6025,0.255557
663.4661,0.258389
665.3298,0.261811
667.1935,0.267242
669.0571,0.269714
670.9208,0.261101
672.7845,0.250604
674.6481,0.242281
676.5118,0.237033
678.3755,0.232579
680.2392,0.228965
682.1028,0.226132
683.9665,0.222261
685.8302,0.217510
687.6938,0.214676
689.5575,0.212168
691.4212,0.208317
693.2848,0.204113
695.1485,0.202005
697.0122,0.201251
698.8758,0.200862
700.7395,0.200211
702.6032,0.198699
704.4669,0.195401
706.3305,0.189154
708.1942,0.181251
710.0579,0.172617
711.9215,0.162916
713.7852,0.153229
715.6489,0.145130
717.5125,0.138847
719.3762,0.133669
721.2399,0.128879
723.1035,0.123822
724.9672,0.119873
726.8309,0.116652
728.6945,0.113203
730.5582,0.110196
732.4219,0.107367
734.2856,0.104141
736.1492,0.101474
738.0129,0.100449
739.8766,0.101685
741.7402,0.104745
743.6039,0.107655
745.4676,0.109019
747.3312,0.108940
749.1949,0.107875
751.0586,0.106467
752.9222,0.105422
754.7859,0.104578
756.6496,0.103458
758.5132,0.102369
760.3769,0.101719
762.2406,0.101159
764.1043,0.100898
765.9679,0.100946
767.8316,0.100929
769.6953,0.101417
771.5589,0.102025
773.4226,0.102337
775.2863,0.102848
777.1499,0.103612
779.0136,0.105047
780.8773,0.106835
782.7409,0.108019
784.6046,0.109179
786.4683,0.110742
788.3320,0.112645
790.1956,0.114724
792.0593,0.116746
793.9230,0.118979
795.7866,0.121385
797.6503,0.123695
799.5140,0.125765
801.3776,0.127426
803.2413,0.128534
805.1050,0.128941
806.9686,0.128394
808.8323,0.127201
810.6960,0.125352
812.5596,0.122407
814.4233,0.119232
816.2870,0.116118
818.1507,0.113031
820.0143,0.110318
821.8780,0.108264
823.7417,0.107535
825.6053,0.108155
827.4690,0.109962
829.3327,0.111342
831.1963,0.107022
833.0600,0.096049
834.9237,0.085884
836.7873,0.081180
838.6510,0.079958
840.5147,0.079698
842.3784,0.079932
844.2420,0.080206
846.1057,0.080180
847.9694,0.080466
849.8330,0.080899
851.6967,0.081061
853.5604,0.081257
855.4240,0.081704
857.2877,0.082129
859.1514,0.082503
861.0150,0.082914
862.8787,0.083218
864.7424,0.083604
866.6060,0.084079
868.4697,0.084678
870.3334,0.085514
872.1971,0.086297
874.0607,0.086971
875.9244,0.087778
877.7881,0.088632
879.6517,0.089458
881.5154,0.090377
883.3791,0.091354
885.2427,0.092416
887.1064,0.093498
888.9701,0.094612
890.8337,0.095710
892.6974,0.096737
894.5611,0.098033
896.4247,0.099506
898.2884,0.101106
900.1521,0.103078
902.0158,0.105676
903.8794,0.108796
905.7431,0.112451
907.6068,0.117122
909.4704,0.123285
911.3341,0.131707
913.1978,0.142339
915.0614,0.149531
916.9251,0.143188
918.7888,0.125889
920.6524,0.111686
922.5161,0.105684
924.3798,0.104407
926.2435,0.104876
928.1071,0.106028
929.9708,0.107363
931.8345,0.108663
933.6981,0.110085
935.5618,0.111688
937.4255,0.113391
939.2891,0.114970
941.1528,0.116374
943.0165,0.117755
944.8801,0.119159
946.7438,0.120683
948.6075,0.122286
950.4711,0.124027
952.3348,0.125839
954.1985,0.127614
956.0622,0.129504
957.9258,0.131464
959.7895,0.133502
961.6532,0.135704
963.5168,0.138149
965.3805,0.140860
967.2442,0.144058
969.1078,0.147923
970.9715,0.151999
972.8352,0.156602
974.6988,0.163341
976.5625,0.174208
978.4262,0.192151
980.2899,0.217308
982.1535,0.228956
984.0172,0.202525
985.8809,0.166066
987.7445,0.150859
989.6082,0.150190
991.4719,0.152612
993.3355,0.155373
995.1992,0.158145
997.0629,0.160847
998.9265,0.163529
1000.7902,0.166292
1002.6539,0.168840
1004.5175,0.171138
1006.3812,0.173387
1008.2449,0.175283
1010.1086,0.176655
1011.9722,0.177314
1013.8359,0.177117
1015.6996,0.176047
1017.5632,0.174190
1019.4269,0.171692
1021.2906,0.168487
1023.1542,0.164668
1025.0179,0.160869
1026.8816,0.157465
1028.7452,0.154371
1030.6089,0.151690
1032.4726,0.149610
1034.3362,0.147988
1036.1999,0.146607
1038.0636,0.145718
1039.9273,0.145442
1041.7909,0.145662
1043.6546,0.146366
1045.5183,0.147223
1047.3819,0.147317
1049.2456,0.144539
1051.1093,0.136706
1052.9729,0.125010
1054.8366,0.114185
1056.7003,0.107483
1058.5639,0.104438
1060.4276,0.103436
1062.2913,0.103363
1064.1550,0.103618
1066.0186,0.104121
1067.8823,0.104983
1069.7460,0.106078
1071.6096,0.107424
1073.4733,0.108832
1075.3370,0.110229
1077.2006,0.111595
1079.0643,0.112949
1080.9280,0.114430
1082.7916,0.116114
1084.6553,0.118045
1086.5190,0.120202
1088.3826,0.122711
1090.2463,0.125726
1092.1100,0.129358
1093.9737,0.133692
1095.8373,0.138798
1097.7010,0.144624
1099.5647,0.151045
1101.4283,0.157885
1103.2920,0.164397
1105.1557,0.169098
1107.0193,0.170069
1108.8830,0.165558
1110.7467,0.155492
1112.6103,0.142092
1114.4740,0.128170
1116.3377,0.115587
1118.2014,0.105285
1120.0650,0.097525
1121.9287,0.092147
1123.7924,0.088436
1125.6560,0.085513
1127.5197,0.082863
1129.3834,0.080445
1131.2470,0.078322
1133.1107,0.076454
1134.9744,0.074860
1136.8380,0.073601
1138.7017,0.072826
1140.5654,0.072358
1142.4290,0.072052
1144.2927,0.071972
1146.1564,0.072006
1148.0201,0.072109
1149.8837,0.072287
1151.7474,0.072453
1153.6111,0.072682
1155.4747,0.072963
1157.3384,0.073393
1159.2021,0.074092
1161.0657,0.075099
1162.9294,0.076502
1164.7931,0.078353
1166.6567,0.080896
1168.5204,0.084329
1170.3841,0.088063
1172.2477,0.090719
1174.1114,0.090505
1175.9751,0.086660
1177.8388,0.080939
1179.7024,0.076055
1181.5661,0.073091
1183.4298,0.071831
1185.2934,0.071556
1187.1571,0.071677
1189.0208,0.071868
1190.8844,0.072033
1192.7481,0.072186
1194.6118,0.072342
1196.4754,0.072567
1198.3391,0.073006
1200.2028,0.073622
1202.0665,0.074194
1203.9301,0.074662
1205.7938,0.075156
1207.6575,0.075531
1209.5211,0.075930
1211.3848,0.076467
1213.2485,0.077035
1215.1121,0.077678
1216.9758,0.078371
1218.8395,0.079010
1220.7031,0.079583
1222.5668,0.080048
1224.4305,0.080625
1226.2941,0.081287
1228.1578,0.081878
1230.0215,0.082341
1231.8852,0.082759
1233.7488,0.083140
1235.6125,0.083561
1237.4762,0.084066
1239.3398,0.084580
1241.2035,0.085090
1243.0672,0.085583
1244.9308,0.086066
1246.7945,0.086627
1248.6582,0.087200
1250.5218,0.087771
1252.3855,0.088480
1254.2492,0.089210
1256.1129,0.089920
1257.9765,0.090773
1259.8402,0.091729
1261.7039,0.092684
1263.5675,0.093497
1265.4312,0.094382
1267.2949,0.094990
1269.1585,0.095097
1271.0222,0.094973
1272.8859,0.094949
1274.7495,0.095193
1276.6132,0.095904
1278.4769,0.096955
1280.3405,0.098311
1282.2042,0.099790
1284.0679,0.101565
1285.9316,0.103636
1287.7952,0.105957
1289.6589,0.108529
1291.5226,0.111584
1293.3862,0.115212
1295.2499,0.119500
1297.1136,0.124535
1298.9772,0.130469
1300.8409,0.137646
1302.7046,0.146057
1304.5682,0.153740
1306.4319,0.156174
1308.2956,0.147340
1310.1592,0.126473
1312.0229,0.103418
1313.8866,0.087926
1315.7503,0.081639
1317.6139,0.080937
1319.4776,0.082571
1321.3413,0.084752
1323.2049,0.087128
1325.0686,0.089880
1326.9323,0.092703
1328.7959,0.095623
1330.6596,0.098504
1332.5233,0.100807
1334.3869,0.102156
1336.2506,0.103182
1338.1143,0.104836
1339.9780,0.106976
1341.8416,0.107521
1343.7053,0.107169
1345.5690,0.107585
1347.4326,0.108425
1349.2963,0.109787
1351.1600,0.111372
1353.0236,0.113053
1354.8873,0.115540
1356.7510,0.118087
1358.6146,0.120104
1360.4783,0.123035
1362.3420,0.128312
1364.2056,0.132995
1366.0693,0.134990
1367.9330,0.138454
1369.7967,0.142781
1371.6603,0.145915
1373.5240,0.151065
1375.3877,0.157362
1377.2513,0.160857
1379.1150,0.165416
1380.9787,0.171623
1382.8423,0.177922
1384.7060,0.184532
1386.5697,0.193675
1388.4333,0.204359
1390.2970,0.209495
1392.1607,0.211979
1394.0244,0.213496
1395.8880,0.209559
1397.7517,0.199804
1399.6154,0.188448
1401.4790,0.177547
1403.3427,0.167750
1405.2064,0.155046
1407.0700,0.137129
1408.9337,0.118448
1410.7974,0.101305
1412.6610,0.089148
1414.5247,0.083163
1416.3884,0.082674
1418.2520,0.088113
1420.1157,0.098351
1421.9794,0.102082
1423.8431,0.099169
1425.7067,0.089413
1427.5704,0.079165
1429.4341,0.074082
1431.2977,0.073122
1433.1614,0.073137
1435.0251,0.074622
1436.8887,0.079651
1438.7524,0.082604
1440.6161,0.082420
1442.4797,0.083661
1444.3434,0.084831
1446.2071,0.085789
1448.0707,0.086494
1449.9344,0.084890
1451.7981,0.081077
1453.6618,0.077330
1455.5254,0.076176
1457.3891,0.081952
1459.2528,0.084093
1461.1164,0.081444
1462.9801,0.080670
1464.8438,0.082286
1466.7074,0.081968
1468.5711,0.079023
1470.4348,0.077427
1472.2984,0.079323
1474.1621,0.081813
1476.0258,0.081219
1477.8895,0.081096
1479.7531,0.080739
1481.6168,0.081597
1483.4805,0.082159
1485.3441,0.082261
1487.2078,0.084014
1489.0715,0.087903
1490.9351,0.091342
1492.7988,0.090689
1494.6625,0.089906
1496.5261,0.093688
1498.3898,0.097780
1500.2535,0.098208
1502.1171,0.096729
1503.9808,0.095579
1505.8445,0.099498
1507.7082,0.112249
1509.5718,0.111217
1511.4355,0.109172
1513.2992,0.109209
1515.1628,0.109872
1517.0265,0.112554
1518.8902,0.113918
1520.7538,0.115511
1522.6175,0.120671
1524.4812,0.119919
1526.3448,0.121007
1528.2085,0.122196
1530.0722,0.121743
1531.9359,0.122358
1533.7995,0.126391
1535.6632,0.126258
1537.5269,0.123885
1539.3905,0.128377
1541.2542,0.138621
1543.1179,0.138727
1544.9815,0.138966
1546.8452,0.138720
1548.7089,0.138897
1550.5725,0.141497
1552.4362,0.142510
1554.2999,0.143065
1556.1635,0.144473
1558.0272,0.150003
1559.8909,0.167290
1561.7546,0.161556
1563.6182,0.157944
1565.4819,0.159416
1567.3456,0.161502
1569.2092,0.165465
1571.0729,0.170447
1572.9366,0.169909
1574.8002,0.172445
1576.6639,0.180597
1578.5276,0.183774
1580.3912,0.183185
1582.2549,0.185453
1584.1186,0.187524
1585.9822,0.189372
1587.8459,0.189959
1589.7096,0.190560
1591.5733,0.190253
1593.4369,0.189715
1595.3006,0.188199
1597.1643,0.186353
1599.0279,0.183607
1600.8916,0.181318
1602.7553,0.179085
1604.6189,0.177348
1606.4826,0.175303
1608.3463,0.174288
1610.2099,0.172634
1612.0736,0.169986
1613.9373,0.166291
1615.8010,0.163236
1617.6646,0.158221
1619.5283,0.151120
1621.3920,0.145012
1623.2556,0.139665
1625.1193,0.132844
1626.9830,0.125707
1628.8466,0.117007
1630.7103,0.107692
1632.5740,0.099479
1634.4376,0.092895
1636.3013,0.087130
1638.1650,0.082783
1640.0286,0.080130
1641.8923,0.078516
1643.7560,0.078053
1645.6197,0.080131
1647.4833,0.084678
1649.3470,0.085755
1651.2107,0.086127
1653.0743,0.092930
1654.9380,0.099466
1656.8017,0.096380
1658.6653,0.095055
1660.5290,0.094219
1662.3927,0.093104
1664.2563,0.090869
1666.1200,0.087462
1667.9837,0.084372
1669.8474,0.082545
1671.7110,0.081095
1673.5747,0.080029
1675.4384,0.081586
1677.3020,0.084178
1679.1657,0.085586
1681.0294,0.089151
1682.8930,0.093178
1684.7567,0.101119
1686.6204,0.103067
1688.4840,0.100525
1690.3477,0.097653
1692.2114,0.093678
1694.0750,0.088983
1695.9387,0.084725
1697.8024,0.080035
1699.6661,0.075951
1701.5297,0.069687
1703.3934,0.063073
1705.2571,0.055429
1707.1207,0.047098
1708.9844,0.040427
1710.8481,0.035561
1712.7117,0.031522
1714.5754,0.029097
1716.4391,0.027580
1718.3027,0.027248
1720.1664,0.026566
1722.0301,0.025226
1723.8937,0.023458
1725.7574,0.021693
1727.6211,0.019610
1729.4848,0.017944
1731.3484,0.016510
1733.2121,0.015334
1735.0758,0.015234
1736.9394,0.014784
1738.8031,0.013697
1740.6668,0.013847
1742.5304,0.013521
1744.3941,0.013093
1746.2578,0.012571
1748.1214,0.012156
1749.9851,0.012025
1751.8488,0.012478
1753.7125,0.012226
1755.5761,0.011585
1757.4398,0.011379
1759.3035,0.011363
1761.1671,0.011189
1763.0308,0.011649
1764.8945,0.011340
1766.7581,0.010945
1768.6218,0.010948
1770.4855,0.010737
1772.3491,0.010791
1774.2128,0.011746
1776.0765,0.011371
1777.9401,0.011134
1779.8038,0.011042
1781.6675,0.011304
1783.5312,0.011112
1785.3948,0.011246
1787.2585,0.011233
1789.1222,0.011020
1790.9858,0.010883
1792.8495,0.011630
1794.7132,0.011616
1796.5768,0.011259
1798.4405,0.011079
1800.3042,0.011487
1802.1678,0.011901
1804.0315,0.011821
1805.8952,0.011711
1807.7589,0.011819
1809.6225,0.011727
1811.4862,0.011854
1813.3499,0.011790
1815.2135,0.011534
1817.0772,0.011390
1818.9409,0.011585
1820.8045,0.011577
1822.6682,0.011551
1824.5319,0.011435
1826.3955,0.011694
1828.2592,0.011247
1830.1229,0.011171
1831.9865,0.011405
1833.8502,0.011381
1835.7139,0.011242
1837.5776,0.011265
1839.4412,0.011261
1841.3049,0.011107
1843.1686,0.010728
1845.0322,0.011133
1846.8959,0.011379
1848.7596,0.011259
1850.6232,0.011233
1852.4869,0.011239
1854.3506,0.011297
1856.2142,0.011352
1858.0779,0.011172
1859.9416,0.011338
1861.8052,0.011564
1863.6689,0.011686
1865.5326,0.011241
1867.3963,0.011123
1869.2599,0.011580
1871.1236,0.011782
1872.9873,0.011225
1874.8509,0.011085
1876.7146,0.011100
1878.5783,0.011218
1880.4419,0.011303
1882.3056,0.011255
1884.1693,0.011090
1886.0329,0.011126
1887.8966,0.011134
1889.7603,0.011175
1891.6240,0.011040
1893.4876,0.010898
1895.3513,0.010785
1897.2150,0.010870
1899.0786,0.010950
1900.9423,0.011101
1902.8060,0.010858
1904.6696,0.011026
1906.5333,0.010955
1908.3970,0.010854
1910.2606,0.010803
1912.1243,0.010926
1913.9880,0.010891
1915.8516,0.010981
1917.7153,0.010343
1919.5790,0.010295
1921.4427,0.010749
1923.3063,0.011266
1925.1700,0.011332
1927.0337,0.011293
1928.8973,0.010748
1930.7610,0.010395
1932.6247,0.010080
1934.4883,0.010204
1936.3520,0.010211
1938.2157,0.010499
1940.0793,0.009959
1941.9430,0.009539
1943.8067,0.009479
1945.6704,0.009583
1947.5340,0.008824
1949.3977,0.008477
1951.2614,0.008340
1953.1250,0.008004
1954.9887,0.007899
1956.8524,0.008565
1958.7160,0.007528
1960.5797,0.006771
1962.4434,0.005946
1964.3070,0.005279
1966.1707,0.004397
1968.0344,0.003664
1969.8980,0.004180
1971.7617,0.004816
1973.6254,0.004517
1975.4891,0.003551
1977.3527,0.003200
1979.2164,0.005421
1981.0801,0.005544
1982.9437,0.005975
1984.8074,0.006358
1986.6711,0.006624
1988.5347,0.005895
1990.3984,0.006060
1992.2621,0.006829
1994.1257,0.006798
1995.9894,0.005625
1997.8531,0.006326
1999.7167,0.007332
2001.5804,0.006920
2003.4441,0.006195
2005.3078,0.006799
2007.1714,0.006282
2009.0351,0.005432
2010.8988,0.003730
2012.7624,0.004083
2014.6261,0.004243
2016.4898,0.004237
2018.3534,0.003723
2020.2171,0.003188
2022.0808,0.002742
2023.9444,0.004321
2025.8081,0.005467
2027.6718,0.005642
2029.5355,0.004674
2031.3991,0.003256
2033.2628,0.003680
2035.1265,0.004343
2036.9901,0.004151
2038.8538,0.005548
2040.7175,0.006425
2042.5811,0.006944
2044.4448,0.006437
2046.3085,0.006734
2048.1721,0.007650
2050.0358,0.009004
2051.8995,0.009612
2053.7631,0.009381
2055.6268,0.009109
2057.4905,0.009878
2059.3542,0.010283
2061.2178,0.011112
2063.0815,0.011453
2064.9452,0.010811
2066.8088,0.010547
2068.6725,0.010930
2070.5362,0.011297
2072.3998,0.011958
2074.2635,0.012150
2076.1272,0.012555
2077.9908,0.012911
2079.8545,0.012810
2081.7182,0.013040
2083.5819,0.013571
2085.4455,0.013257
2087.3092,0.013005
2089.1729,0.013238
2091.0365,0.013474
2092.9002,0.013479
2094.7639,0.013043
2096.6275,0.013085
2098.4912,0.013601
2100.3549,0.013522
2102.2185,0.013416
2104.0822,0.013508
2105.9459,0.013754
2107.8095,0.014160
2109.6732,0.014634
2111.5369,0.014320
2113.4006,0.013920
2115.2642,0.014217
2117.1279,0.014655
2118.9916,0.015022
2120.8552,0.014893
2122.7189,0.013966
2124.5826,0.014265
2126.4462,0.014477
2128.3099,0.013617
2130.1736,0.013033
2132.0372,0.013347
2133.9009,0.012407
2135.7646,0.011548
2137.6282,0.011858
2139.4919,0.011975
2141.3556,0.011634
2143.2193,0.011649
2145.0829,0.011995
2146.9466,0.011777
2148.8103,0.010563
2150.6739,0.009611
2152.5376,0.008261
2154.4013,0.006787
2156.2649,0.004613
2158.1286,0.003842
2159.9923,0.005497
2161.8559,0.007562
2163.7196,0.008492
2165.5833,0.008640
2167.4470,0.008102
2169.3106,0.008396
2171.1743,0.009016
2173.0380,0.009479
2174.9016,0.008381
2176.7653,0.008369
2178.6290,0.009987
2180.4926,0.010672
2182.3563,0.010993
2184.2200,0.011442
2186.0836,0.010702
2187.9473,0.011065
2189.8110,0.010428
2191.6746,0.010236
2193.5383,0.010969
2195.4020,0.011842
2197.2657,0.012899
2199.1293,0.013093
2200.9930,0.012527
2202.8567,0.012451
2204.7203,0.013161
2206.5840,0.013597
2208.4477,0.013411
2210.3113,0.013491
2212.1750,0.014351
2214.0387,0.014729
2215.9023,0.014460
2217.7660,0.014748
2219.6297,0.014942
2221.4934,0.015042
2223.3570,0.014313
2225.2207,0.013921
2227.0844,0.014793
2228.9480,0.015614
2230.8117,0.015785
2232.6754,0.016433
2234.5390,0.016367
2236.4027,0.015679
2238.2664,0.015766
2240.1300,0.016920
2241.9937,0.017248
2243.8574,0.017053
2245.7210,0.016769
2247.5847,0.016564
2249.4484,0.016794
2251.3121,0.016867
2253.1757,0.016621
2255.0394,0.016766
2256.9031,0.016991
2258.7667,0.017376
2260.6304,0.017978
2262.4941,0.018346
2264.3577,0.018359
2266.2214,0.018057
2268.0851,0.018530
2269.9487,0.019502
2271.8124,0.019844
2273.6761,0.019988
2275.5397,0.019882
2277.4034,0.020031
2279.2671,0.020615
2281.1308,0.021222
2282.9944,0.021458
2284.8581,0.021663
2286.7218,0.021939
2288.5854,0.022007
2290.4491,0.021842
2292.3128,0.021789
2294.1764,0.021709
2296.0401,0.021508
2297.9038,0.021571
2299.7674,0.021844
2301.6311,0.021905
2303.4948,0.022202
2305.3585,0.022477
2307.2221,0.022377
2309.0858,0.022282
2310.9495,0.022318
2312.8131,0.022317
2314.6768,0.022228
2316.5405,0.022151
2318.4041,0.022425
2320.2678,0.022740
2322.1315,0.022924
2323.9951,0.023021
2325.8588,0.022539
2327.7225,0.021683
2329.5861,0.021227
2331.4498,0.021185
2333.3135,0.021269
2335.1772,0.021493
2337.0408,0.021766
2338.9045,0.021730
2340.7682,0.021695
2342.6318,0.022166
2344.4955,0.022524
2346.3592,0.022312
2348.2228,0.021827
2350.0865,0.020969
2351.9502,0.020311
2353.8138,0.020388
2355.6775,0.020719
2357.5412,0.020918
2359.4049,0.021042
2361.2685,0.021445
2363.1322,0.021889
2364.9959,0.021695
2366.8595,0.021479
2368.7232,0.021689
2370.5869,0.021949
2372.4505,0.022245
2374.3142,0.022493
2376.1779,0.022543
2378.0415,0.022531
2379.9052,0.022559
2381.7689,0.022478
2383.6325,0.022268
2385.4962,0.022105
2387.3599,0.022144
2389.2236,0.022379
2391.0872,0.022434
2392.9509,0.022388
2394.8146,0.022377
2396.6782,0.022367
2398.5419,0.022562
2400.4056,0.022651
2402.2692,0.022547
2404.1329,0.022602
2405.9966,0.022504
2407.8602,0.022206
2409.7239,0.022280
2411.5876,0.022679
2413.4512,0.022870
2415.3149,0.022915
2417.1786,0.023191
2419.0423,0.023514
2420.9059,0.023479
2422.7696,0.023476
2424.6333,0.023577
2426.4969,0.023432
2428.3606,0.023337
2430.2243,0.023693
2432.0879,0.024029
2433.9516,0.023992
2435.8153,0.023683
2437.6789,0.023256
2439.5426,0.023258
2441.4063,0.023619
2443.2700,0.024000
2445.1336,0.024170
2446.9973,0.024027
2448.8610,0.023824
2450.7246,0.023681
2452.5883,0.023682
2454.4520,0.023684
2456.3156,0.023402
2458.1793,0.023319
2460.0430,0.023618
2461.9066,0.023607
2463.7703,0.023278
2465.6340,0.023072
2467.4976,0.023222
2469.3613,0.023222
2471.2250,0.022964
2473.0887,0.023068
2474.9523,0.023354
2476.8160,0.023457
2478.6797,0.023568
2480.5433,0.023674
2482.4070,0.023639
2484.2707,0.023777
2486.1343,0.023935
2487.9980,0.023981
2489.8617,0.024378
2491.7253,0.024692
2493.5890,0.024537
2495.4527,0.024534
2497.3164,0.024621
2499.1800,0.024624
2501.0437,0.024716
2502.9074,0.024836
2504.7710,0.024723
2506.6347,0.024900
2508.4984,0.025511
2510.3620,0.025443
2512.2257,0.024814
2514.0894,0.024750
2515.9530,0.025200
2517.8167,0.025574
2519.6804,0.025479
2521.5440,0.025099
2523.4077,0.025220
2525.2714,0.025626
2527.1351,0.025645
2528.9987,0.025701
2530.8624,0.025879
2532.7261,0.025788
2534.5897,0.025886
2536.4534,0.026110
2538.3171,0.026111
2540.1807,0.026218
2542.0444,0.026496
2543.9081,0.026715
2545.7717,0.026505
2547.6354,0.026121
2549.4991,0.026021
2551.3627,0.026046
2553.2264,0.025988
2555.0901,0.026144
2556.9538,0.026347
2558.8174,0.026009
2560.6811,0.025884
2562.5448,0.026377
2564.4084,0.026780
2566.2721,0.026942
2568.1358,0.026993
2569.9994,0.026771
2571.8631,0.026755
2573.7268,0.027180
2575.5904,0.027402
2577.4541,0.027605
2579.3178,0.027973
2581.1815,0.028055
2583.0451,0.027917
2584.9088,0.028032
2586.7725,0.028108
2588.6361,0.028129
2590.4998,0.028440
2592.3635,0.028656
2594.2271,0.028733
2596.0908,0.028888
2597.9545,0.029153
2599.8181,0.029626
2601.6818,0.029944
2603.5455,0.030017
2605.4091,0.030118
2607.2728,0.030197
2609.1365,0.030050
2611.0002,0.030024
2612.8638,0.030207
2614.7275,0.030518
2616.5912,0.030801
2618.4548,0.030690
2620.3185,0.030747
2622.1822,0.031112
2624.0458,0.031390
2625.9095,0.031695
2627.7732,0.031918
2629.6368,0.031935
2631.5005,0.032097
2633.3642,0.032439
2635.2279,0.032810
2637.0915,0.033108
2638.9552,0.033223
2640.8189,0.033528
2642.6825,0.033742
2644.5462,0.033845
2646.4099,0.034004
2648.2735,0.034197
2650.1372,0.034485
2652.0009,0.034621
2653.8645,0.034670
2655.7282,0.034760
2657.5919,0.034759
2659.4555,0.034740
2661.3192,0.034822
2663.1829,0.034985
2665.0466,0.034981
2666.9102,0.034995
2668.7739,0.035161
2670.6376,0.035326
2672.5012,0.035375
2674.3649,0.035434
2676.2286,0.035649
2678.0922,0.035904
2679.9559,0.036103
2681.8196,0.036342
2683.6832,0.036472
2685.5469,0.036617
2687.4106,0.036882
2689.2742,0.037013
2691.1379,0.037164
2693.0016,0.037465
2694.8653,0.037726
2696.7289,0.037966
2698.5926,0.038172
2700.4563,0.038499
2702.3199,0.038997
2704.1836,0.039273
2706.0473,0.039497
2707.9109,0.039880
2709.7746,0.040274
2711.6383,0.040494
2713.5019,0.040598
2715.3656,0.040821
2717.2293,0.041256
2719.0930,0.041753
2720.9566,0.042020
2722.8203,0.042189
2724.6840,0.042652
2726.5476,0.043181
2728.4113,0.043702
2730.2750,0.044143
2732.1386,0.044399
2734.0023,0.044631
2735.8660,0.045105
2737.7296,0.045696
2739.5933,0.046119
2741.4570,0.046444
2743.3206,0.046954
2745.1843,0.047595
2747.0480,0.047917
2748.9117,0.048323
2750.7753,0.049003
2752.6390,0.049612
2754.5027,0.050206
2756.3663,0.050705
2758.2300,0.050878
2760.0937,0.051383
2761.9573,0.052181
2763.8210,0.052687
2765.6847,0.053191
2767.5483,0.053792
2769.4120,0.054359
2771.2757,0.054968
2773.1394,0.055653
2775.0030,0.056276
2776.8667,0.056977
2778.7304,0.057404
2780.5940,0.057551
2782.4577,0.057696
2784.3214,0.057671
2786.1850,0.057528
2788.0487,0.057437
2789.9124,0.057303
2791.7760,0.056871
2793.6397,0.056075
2795.5034,0.055320
2797.3670,0.054871
2799.2307,0.054471
2801.0944,0.054038
2802.9581,0.053618
2804.8217,0.053160
2806.6854,0.052814
2808.5491,0.052723
2810.4127,0.052740
2812.2764,0.052747
2814.1401,0.052878
2816.0037,0.052925
2817.8674,0.052744
2819.7311,0.052626
2821.5947,0.052775
2823.4584,0.053100
2825.3221,0.053244
2827.1857,0.053038
2829.0494,0.052443
2830.9131,0.052095
2832.7768,0.051804
2834.6404,0.051660
2836.5041,0.051970
2838.3678,0.052312
2840.2314,0.052572
2842.0951,0.052735
2843.9588,0.053257
2845.8224,0.053714
2847.6861,0.054365
2849.5498,0.055312
2851.4134,0.056080
2853.2771,0.056689
2855.1408,0.057267
2857.0045,0.057762
2858.8681,0.058111
2860.7318,0.058688
2862.5955,0.059228
2864.4591,0.059517
2866.3228,0.059734
2868.1865,0.059937
2870.0501,0.060191
2871.9138,0.060737
2873.7775,0.061413
2875.6411,0.061685
2877.5048,0.061742
2879.3685,0.062195
2881.2321,0.062831
2883.0958,0.062955
2884.9595,0.063373
2886.8232,0.064187
2888.6868,0.064472
2890.5505,0.064695
2892.4142,0.065334
2894.2778,0.066121
2896.1415,0.066847
2898.0052,0.067295
2899.8688,0.067518
2901.7325,0.067317
2903.5962,0.066952
2905.4598,0.067031
2907.3235,0.067529
2909.1872,0.068104
2911.0509,0.068678
2912.9145,0.069376
2914.7782,0.069997
2916.6419,0.070656
2918.5055,0.071391
2920.3692,0.071920
2922.2329,0.072722
2924.0965,0.073299
2925.9602,0.073777
2927.8239,0.074357
2929.6875,0.075003
2931.5512,0.075434
2933.4149,0.075713
2935.2785,0.076140
2937.1422,0.076703
2939.0059,0.076972
2940.8696,0.077079
2942.7332,0.077180
2944.5969,0.077424
2946.4606,0.077929
2948.3242,0.078150
2950.1879,0.078168
2952.0516,0.078573
2953.9152,0.079099
2955.7789,0.079548
2957.6426,0.079893
2959.5062,0.080212
2961.3699,0.080868
2963.2336,0.081897
2965.0972,0.082432
2966.9609,0.082863
2968.8246,0.083572
2970.6883,0.084454
2972.5519,0.085094
2974.4156,0.085434
2976.2793,0.085990
2978.1429,0.086746
2980.0066,0.087317
2981.8703,0.087375
2983.7339,0.087020
2985.5976,0.087125
2987.4613,0.087627
2989.3249,0.088093
2991.1886,0.088467
2993.0523,0.089188
2994.9160,0.089986
2996.7796,0.090788
2998.6433,0.091808
3000.5070,0.092741
3002.3706,0.093252
3004.2343,0.093927
3006.0980,0.094887
3007.9616,0.096056
3009.8253,0.096450
3011.6890,0.096974
3013.5526,0.097885
3015.4163,0.098613
3017.2800,0.099256
3019.1436,0.099765
3021.0073,0.100232
3022.8710,0.100969
3024.7347,0.101249
3026.5983,0.101581
3028.4620,0.101559
3030.3257,0.101653
3032.1893,0.101925
3034.0530,0.102137
3035.9167,0.102803
3037.7803,0.103392
3039.6440,0.103436
3041.5077,0.103916
3043.3713,0.104628
3045.2350,0.105371
3047.0987,0.105552
3048.9624,0.105701
3050.8260,0.105764
3052.6897,0.105712
3054.5534,0.106075
3056.4170,0.106588
3058.2807,0.106740
3060.1444,0.107082
3062.0080,0.107074
3063.8717,0.107301
3065.7354,0.107553
3067.5990,0.107866
3069.4627,0.107780
3071.3264,0.107406
3073.1900,0.107117
3075.0537,0.107097
3076.9174,0.106866
3078.7811,0.106809
3080.6447,0.106985
3082.5084,0.106818
3084.3721,0.106549
3086.2357,0.106253
3088.0994,0.105199
3089.9631,0.104557
3091.8267,0.104033
3093.6904,0.103473
3095.5541,0.102622
3097.4177,0.101836
3099.2814,0.100668
3101.1451,0.099867
3103.0087,0.099222
3104.8724,0.098212
3106.7361,0.097076
3108.5998,0.096179
3110.4634,0.095493
3112.3271,0.094890
3114.1908,0.094064
3116.0544,0.093216
3117.9181,0.092377
3119.7818,0.091992
3121.6454,0.091403
3123.5091,0.090502
3125.3728,0.089408
3127.2364,0.088633
3129.1001,0.087955
3130.9638,0.086805
3132.8275,0.085906
3134.6911,0.085624
3136.5548,0.085167
3138.4185,0.084960
3140.2821,0.085387
3142.1458,0.085377
3144.0095,0.084546
3145.8731,0.083999
3147.7368,0.083576
3149.6005,0.082965
3151.4641,0.082120
3153.3278,0.081987
3155.1915,0.081909
3157.0551,0.081646
3158.9188,0.081077
3160.7825,0.080752
3162.6462,0.080327
3164.5098,0.079480
3166.3735,0.079080
3168.2372,0.079094
3170.1008,0.078251
3171.9645,0.077889
3173.8282,0.077708
3175.6918,0.077294
3177.5555,0.076521
3179.4192,0.076700
3181.2828,0.077126
3183.1465,0.077422
3185.0102,0.076822
3186.8739,0.076499
3188.7375,0.076418
3190.6012,0.076286
3192.4649,0.076753
3194.3285,0.076872
3196.1922,0.076716
3198.0559,0.076903
3199.9195,0.076968
3201.7832,0.077118
3203.6469,0.077064
3205.5105,0.076914
3207.3742,0.077250
3209.2379,0.077656
3211.1015,0.077645
3212.9652,0.077779
3214.8289,0.078025
3216.6926,0.078504
3218.5562,0.078753
3220.4199,0.079083
3222.2836,0.078696
3224.1472,0.078631
3226.0109,0.079120
3227.8746,0.079727
3229.7382,0.080375
3231.6019,0.080575
3233.4656,0.080544
3235.3292,0.081382
3237.1929,0.082051
3239.0566,0.081430
3240.9202,0.080757
3242.7839,0.081473
3244.6476,0.082560
3246.5113,0.083236
3248.3749,0.083206
3250.2386,0.083576
3252.1023,0.084199
3253.9659,0.084771
3255.8296,0.085185
3257.6933,0.085367
3259.5569,0.085730
3261.4206,0.086100
3263.2843,0.086450
3265.1479,0.086787
3267.0116,0.086842
3268.8753,0.087243
3270.7390,0.087307
3272.6026,0.087099
3274.4663,0.087286
3276.3300,0.087593
3278.1936,0.087385
3280.0573,0.086924
3281.9210,0.086623
3283.7846,0.086248
3285.6483,0.085513
3287.5120,0.085012
3289.3756,0.084278
3291.2393,0.083134
3293.1030,0.082092
3294.9666,0.082043
3296.8303,0.081161
3298.6940,0.079837
3300.5577,0.078276
3302.4213,0.077245
3304.2850,0.077096
3306.1487,0.076902
3308.0123,0.075652
3309.8760,0.074535
3311.7397,0.073803
3313.6033,0.073542
3315.4670,0.073838
3317.3307,0.073999
3319.1943,0.073462
3321.0580,0.073295
3322.9217,0.073620
3324.7854,0.073190
3326.6490,0.073077
3328.5127,0.074052
3330.3764,0.074463
3332.2400,0.073853
3334.1037,0.072507
3335.9674,0.072174
3337.8310,0.072091
3339.6947,0.071078
3341.5584,0.069458
3343.4220,0.068381
3345.2857,0.066940
3347.1494,0.065714
3349.0130,0.064882
3350.8767,0.063584
3352.7404,0.061803
3354.6041,0.061089
3356.4677,0.060249
3358.3314,0.059268
3360.1951,0.058229
3362.0587,0.058083
3363.9224,0.057709
3365.7861,0.056484
3367.6497,0.055916
3369.5134,0.056200
3371.3771,0.056482
3373.2407,0.056276
3375.1044,0.055878
3376.9681,0.055702
3378.8317,0.056204
3380.6954,0.056717
3382.5591,0.057818
3384.4228,0.058921
3386.2864,0.058734
3388.1501,0.057510
3390.0138,0.058334
3391.8774,0.060232
3393.7411,0.060848
3395.6048,0.060766
3397.4684,0.061046
3399.3321,0.061254
3401.1958,0.060264
3403.0594,0.059422
3404.9231,0.058788
3406.7868,0.057587
3408.6505,0.056060
3410.5141,0.054741
3412.3778,0.053097
3414.2415,0.050864
3416.1051,0.048869
3417.9688,0.047652
3419.8325,0.046836
3421.6961,0.045421
3423.5598,0.043401
3425.4235,0.042323
3427.2871,0.040755
3429.1508,0.039446
3431.0145,0.038952
3432.8781,0.037645
3434.7418,0.036387
3436.6055,0.034959
3438.4692,0.034243
3440.3328,0.034201
3442.1965,0.033920
3444.0602,0.033013
3445.9238,0.032387
3447.7875,0.031862
3449.6512,0.031169
3451.5148,0.030231
3453.3785,0.028816
3455.2422,0.028752
3457.1058,0.029834
3458.9695,0.029484
3460.8332,0.029294
3462.6969,0.029556
3464.5605,0.029285
3466.4242,0.027657
3468.2879,0.026577
3470.1515,0.026517
3472.0152,0.025876
3473.8789,0.025209
3475.7425,0.025516
3477.6062,0.024782
3479.4699,0.023722
3481.3335,0.023633
3483.1972,0.023762
3485.0609,0.023158
3486.9245,0.022944
3488.7882,0.022863
3490.6519,0.021490
3492.5156,0.020382
3494.3792,0.020496
3496.2429,0.021209
3498.1066,0.021382
3499.9702,0.020463
3501.8339,0.019681
3503.6976,0.019755
3505.5612,0.019560
3507.4249,0.018201
3509.2886,0.017371
3511.1522,0.017569
3513.0159,0.018242
3514.8796,0.018250
3516.7432,0.017728
3518.6069,0.016584
3520.4706,0.015633
3522.3343,0.015761
3524.1979,0.015752
3526.0616,0.015375
3527.9253,0.015082
3529.7889,0.014794
3531.6526,0.014878
3533.5163,0.014500
3535.3799,0.014491
3537.2436,0.014970
3539.1073,0.014854
3540.9709,0.013924
3542.8346,0.013924
3544.6983,0.013710
3546.5620,0.014224
3548.4256,0.014534
3550.2893,0.013631
3552.1530,0.013100
3554.0166,0.013343
3555.8803,0.012672
3557.7440,0.012218
3559.6076,0.012185
3561.4713,0.011837
3563.3350,0.011733
3565.1986,0.011186
3567.0623,0.010648
3568.9260,0.011257
3570.7896,0.012346
3572.6533,0.012426
3574.5170,0.011299
3576.3807,0.011786
3578.2443,0.012142
3580.1080,0.011643
3581.9717,0.011568
3583.8353,0.012215
3585.6990,0.011293
3587.5627,0.010495
3589.4263,0.011742
3591.2900,0.012356
3593.1537,0.011533
3595.0173,0.011320
3596.8810,0.011080
3598.7447,0.010755
3600.6084,0.010617
3602.4720,0.011266
3604.3357,0.011113
3606.1994,0.010327
3608.0630,0.010361
3609.9267,0.010991
3611.7904,0.011060
3613.6540,0.010553
3615.5177,0.010237
3617.3814,0.010512
3619.2450,0.009798
3621.1087,0.010170
3622.9724,0.011125
3624.8360,0.010600
3626.6997,0.009530
3628.5634,0.008742
3630.4271,0.009360
3632.2907,0.010800
3634.1544,0.010472
3636.0181,0.010846
3637.8817,0.011259
3639.7454,0.011198
3641.6091,0.011023
3643.4727,0.010246
3645.3364,0.009709
3647.2001,0.009454
3649.0637,0.009729
3650.9274,0.010502
3652.7911,0.011708
3654.6547,0.012225
3656.5184,0.011799
3658.3821,0.012476
3660.2458,0.012465
3662.1094,0.012370
3663.9731,0.012508
3665.8368,0.012413
3667.7004,0.012159
3669.5641,0.012605
3671.4278,0.015046
3673.2914,0.018396
3675.1551,0.018878
3677.0188,0.018282
3678.8824,0.015400
3680.7461,0.011992
3682.6098,0.010120
3684.4735,0.009348
3686.3371,0.008973
3688.2008,0.008541
3690.0645,0.008904
3691.9281,0.010152
3693.7918,0.010473
3695.6555,0.010517
3697.5191,0.010148
3699.3828,0.009443
3701.2465,0.009474
3703.1101,0.010069
3704.9738,0.010785
3706.8375,0.010629
3708.7011,0.009801
3710.5648,0.009319
3712.4285,0.009490
3714.2922,0.010504
3716.1558,0.010437
3718.0195,0.009427
3719.8832,0.009300
3721.7468,0.009860
3723.6105,0.009888
3725.4742,0.009816
3727.3378,0.009933
3729.2015,0.009983
3731.0652,0.009535
3732.9288,0.009645
3734.7925,0.010227
3736.6562,0.010338
3738.5199,0.010564
3740.3835,0.010428
3742.2472,0.009493
3744.1109,0.008023
3745.9745,0.008386
3747.8382,0.010691
3749.7019,0.009482
3751.5655,0.009326
3753.4292,0.011097
3755.2929,0.012419
3757.1565,0.011586
3759.0202,0.010663
3760.8839,0.010743
3762.7475,0.011044
3764.6112,0.010976
3766.4749,0.011155
3768.3386,0.011899
3770.2022,0.011791
3772.0659,0.011833
3773.9296,0.012140
3775.7932,0.011820
3777.6569,0.011496
3779.5206,0.011295
3781.3842,0.011963
3783.2479,0.012511
3785.1116,0.011647
3786.9752,0.011191
3788.8389,0.011246
3790.7026,0.011193
3792.5662,0.011010
3794.4299,0.010963
3796.2936,0.010803
3798.1573,0.010694
3800.0209,0.010815
3801.8846,0.010449
3803.7483,0.011906
3805.6119,0.012492
3807.4756,0.011353
3809.3393,0.011778
3811.2029,0.012469
3813.0666,0.011784
3814.9303,0.010575
3816.7939,0.009551
3818.6576,0.010785
3820.5213,0.011420
3822.3850,0.012160
3824.2486,0.013534
3826.1123,0.012447
3827.9760,0.011295
3829.8396,0.011836
3831.7033,0.011815
3833.5670,0.011441
3835.4306,0.011383
3837.2943,0.011643
3839.1580,0.012212
3841.0216,0.012839
3842.8853,0.012818
3844.7490,0.012429
3846.6126,0.011937
3848.4763,0.011179
3850.3400,0.010461
3852.2037,0.009786
3854.0673,0.009614
3855.9310,0.013171
3857.7947,0.014418
3859.6583,0.013249
3861.5220,0.011931
3863.3857,0.011436
3865.2493,0.011315
3867.1130,0.011733
3868.9767,0.011860
3870.8403,0.011874
3872.7040,0.013415
3874.5677,0.013120
3876.4314,0.012550
3878.2950,0.012575
3880.1587,0.011721
3882.0224,0.012177
3883.8860,0.013128
3885.7497,0.012604
3887.6134,0.012814
3889.4770,0.013133
3891.3407,0.012259
3893.2044,0.012266
3895.0680,0.012775
3896.9317,0.012682
3898.7954,0.012345
3900.6590,0.011945
3902.5227,0.012320
3904.3864,0.013372
3906.2501,0.014343
3908.1137,0.014175
3909.9774,0.013394
3911.8411,0.012823
3913.7047,0.012976
3915.5684,0.013122
3917.4321,0.012663
3919.2957,0.012867
3921.1594,0.013215
3923.0231,0.013077
3924.8867,0.012751
3926.7504,0.012976
3928.6141,0.013540
3930.4777,0.013420
3932.3414,0.013298
3934.2051,0.013600
3936.0688,0.013772
3937.9324,0.013213
3939.7961,0.013099
3941.6598,0.013235
3943.5234,0.013205
3945.3871,0.013317
3947.2508,0.013124
3949.1144,0.013586
3950.9781,0.013948
3952.8418,0.013656
3954.7054,0.013824
3956.5691,0.013917
3958.4328,0.013668
3960.2965,0.013355
3962.1601,0.013304
3964.0238,0.013752
3965.8875,0.013558
3967.7511,0.013194
3969.6148,0.013830
3971.4785,0.014520
3973.3421,0.014110
3975.2058,0.013728
3977.0695,0.014069
3978.9331,0.014194
3980.7968,0.013922
3982.6605,0.013580
3984.5241,0.013932
3986.3878,0.014480
3988.2515,0.013807
3990.1152,0.013066
3991.9788,0.013279
3993.8425,0.013625
3995.7062,0.013788
3997.5698,0.013617
3999.4335,0.013352
