Wavenumber,Intensity
650.4205,0.217276
652.2841,0.216570
654.1478,0.213228
656.0115,0.213638
657.8751,0.215490
659.7388,0.219099
661.6025,0.227278
663.4661,0.232864
665.3298,0.235141
667.1935,0.239886
669.0571,0.240494
670.9208,0.232486
672.7845,0.224229
674.6481,0.215449
676.5118,0.207294
678.3755,0.202406
680.2392,0.199388
682.1028,0.195994
683.9665,0.191585
685.8302,0.187741
687.6938,0.184868
689.5575,0.182226
691.4212,0.179948
693.2848,0.177202
695.1485,0.174224
697.0122,0.172182
698.8758,0.171293
700.7395,0.170737
702.6032,0.170020
704.4669,0.166934
706.3305,0.161436
708.1942,0.154838
710.0579,0.147696
711.9215,0.140672
713.7852,0.133805
715.6489,0.127658
717.5125,0.122331
719.3762,0.117682
721.2399,0.113707
723.1035,0.109964
724.9672,0.106619
726.8309,0.103371
728.6945,0.100400
730.5582,0.097811
732.4219,0.094903
734.2856,0.092494
736.1492,0.090795
738.0129,0.090235
739.8766,0.091749
741.7402,0.093998
743.6039,0.095613
745.4676,0.096632
747.3312,0.096914
749.1949,0.096093
751.0586,0.094552
752.9222,0.093216
754.7859,0.092567
756.6496,0.091611
758.5132,0.090682
760.3769,0.090410
762.2406,0.090102
764.1043,0.089706
765.9679,0.089259
767.8316,0.089219
769.6953,0.089946
771.5589,0.090502
773.4226,0.090553
775.2863,0.090777
777.1499,0.091330
779.0136,0.092439
780.8773,0.093769
782.7409,0.094650
784.6046,0.095383
786.4683,0.096519
788.3320,0.097876
790.1956,0.099361
792.0593,0.101049
793.9230,0.102727
795.7866,0.104525
797.6503,0.106365
799.5140,0.107850
801.3776,0.108970
803.2413,0.109720
805.1050,0.109956
806.9686,0.109542
808.8323,0.108714
810.6960,0.107347
812.5596,0.105002
814.4233,0.102282
816.2870,0.099695
818.1507,0.097500
820.0143,0.095567
821.8780,0.093854
823.7417,0.093041
825.6053,0.093296
827.4690,0.094935
829.3327,0.096180
831.1963,0.092255
833.0600,0.083285
834.9237,0.075666
836.7873,0.072306
838.6510,0.071123
840.5147,0.071004
842.3784,0.071544
844.2420,0.071924
846.1057,0.072048
847.9694,0.072189
849.8330,0.072490
851.6967,0.072844
853.5604,0.073034
855.4240,0.073361
857.2877,0.073891
859.1514,0.074263
861.0150,0.074497
862.8787,0.074917
864.7424,0.075356
866.6060,0.075717
868.4697,0.076175
870.3334,0.076805
872.1971,0.077589
874.0607,0.078273
875.9244,0.079081
877.7881,0.080172
879.6517,0.081149
881.5154,0.082009
883.3791,0.083028
885.2427,0.083976
887.1064,0.084710
888.9701,0.085659
890.8337,0.086683
892.6974,0.087738
894.5611,0.089197
896.4247,0.090745
898.2884,0.092245
900.1521,0.094053
902.0158,0.096182
903.8794,0.098883
905.7431,0.102382
907.6068,0.106351
909.4704,0.111195
911.3341,0.117877
913.1978,0.126334
915.0614,0.131925
916.9251,0.126950
918.7888,0.113627
920.6524,0.102940
922.5161,0.098866
924.3798,0.098357
926.2435,0.098997
928.1071,0.100021
929.9708,0.101290
931.8345,0.102796
933.6981,0.104364
935.5618,0.105761
937.4255,0.107187
939.2891,0.108583
941.1528,0.110037
943.0165,0.111555
944.8801,0.113058
946.7438,0.114638
948.6075,0.116119
950.4711,0.117482
952.3348,0.119042
954.1985,0.120792
956.0622,0.122606
957.9258,0.124557
959.7895,0.126660
961.6532,0.128796
963.5168,0.131085
965.3805,0.133748
967.2442,0.136837
969.1078,0.140250
970.9715,0.143842
972.8352,0.147828
974.6988,0.153523
976.5625,0.162232
978.4262,0.176165
980.2899,0.195554
982.1535,0.204985
984.0172,0.185652
985.8809,0.158053
987.7445,0.147197
989.6082,0.147611
991.4719,0.150218
993.3355,0.153212
995.1992,0.156236
997.0629,0.159124
998.9265,0.161964
1000.7902,0.164674
1002.6539,0.167054
1004.5175,0.169378
1006.3812,0.171710
1008.2449,0.173722
1010.1086,0.175327
1011.9722,0.176100
1013.8359,0.175820
1015.6996,0.174652
1017.5632,0.172652
1019.4269,0.169815
1021.2906,0.166257
1023.1542,0.162250
1025.0179,0.158049
1026.8816,0.154096
1028.7452,0.150768
1030.6089,0.147763
1032.4726,0.145088
1034.3362,0.142821
1036.1999,0.141017
1038.0636,0.139540
1039.9273,0.138349
1041.7909,0.137628
1043.6546,0.137383
1045.5183,0.137249
1047.3819,0.136208
1049.2456,0.132741
1051.1093,0.125650
1052.9729,0.115886
1054.8366,0.107037
1056.7003,0.101550
1058.5639,0.098889
1060.4276,0.097777
1062.2913,0.097444
1064.1550,0.097519
1066.0186,0.097889
1067.8823,0.098408
1069.7460,0.099113
1071.6096,0.100150
1073.4733,0.101300
1075.3370,0.102440
1077.2006,0.103426
1079.0643,0.104309
1080.9280,0.105149
1082.7916,0.106139
1084.6553,0.107349
1086.5190,0.108599
1088.3826,0.110062
1090.2463,0.112091
1092.1100,0.114654
1093.9737,0.117798
1095.8373,0.121448
1097.7010,0.125692
1099.5647,0.130519
1101.4283,0.135567
1103.2920,0.140125
1105.1557,0.143375
1107.0193,0.143924
1108.8830,0.140157
1110.7467,0.132045
1112.6103,0.121327
1114.4740,0.110207
1116.3377,0.100184
1118.2014,0.091915
1120.0650,0.085744
1121.9287,0.081397
1123.7924,0.078407
1125.6560,0.076174
1127.5197,0.074224
1129.3834,0.072261
1131.2470,0.070414
1133.1107,0.068983
1134.9744,0.068001
1136.8380,0.067205
1138.7017,0.066582
1140.5654,0.066300
1142.4290,0.066258
1144.2927,0.066276
1146.1564,0.066353
1148.0201,0.066534
1149.8837,0.066794
1151.7474,0.067006
1153.6111,0.067160
1155.4747,0.067356
1157.3384,0.067683
1159.2021,0.068094
1161.0657,0.068624
1162.9294,0.069391
1164.7931,0.070594
1166.6567,0.072369
1168.5204,0.074776
1170.3841,0.077481
1172.2477,0.079575
1174.1114,0.079391
1175.9751,0.076263
1177.8388,0.071868
1179.7024,0.068102
1181.5661,0.065864
1183.4298,0.064941
1185.2934,0.064679
1187.1571,0.064749
1189.0208,0.064969
1190.8844,0.065221
1192.7481,0.065509
1194.6118,0.065795
1196.4754,0.066176
1198.3391,0.066704
1200.2028,0.067286
1202.0665,0.067863
1203.9301,0.068357
1205.7938,0.068730
1207.6575,0.069014
1209.5211,0.069393
1211.3848,0.069885
1213.2485,0.070493
1215.1121,0.071139
1216.9758,0.071802
1218.8395,0.072430
1220.7031,0.073030
1222.5668,0.073567
1224.4305,0.074123
1226.2941,0.074546
1228.1578,0.074950
1230.0215,0.075363
1231.8852,0.075778
1233.7488,0.076181
1235.6125,0.076476
1237.4762,0.076773
1239.3398,0.077227
1241.2035,0.077523
1243.0672,0.077837
1244.9308,0.078308
1246.7945,0.078740
1248.6582,0.079135
1250.5218,0.079629
1252.3855,0.080058
1254.2492,0.080522
1256.1129,0.080966
1257.9765,0.081447
1259.8402,0.082137
1261.7039,0.082881
1263.5675,0.083512
1265.4312,0.084170
1267.2949,0.084650
1269.1585,0.084757
1271.0222,0.084633
1272.8859,0.084596
1274.7495,0.084782
1276.6132,0.085356
1278.4769,0.086286
1280.3405,0.087520
1282.2042,0.088770
1284.0679,0.090137
1285.9316,0.091607
1287.7952,0.093371
1289.6589,0.095408
1291.5226,0.097740
1293.3862,0.100443
1295.2499,0.103623
1297.1136,0.107422
1298.9772,0.111940
1300.8409,0.117347
1302.7046,0.123539
1304.5682,0.129155
1306.4319,0.131060
1308.2956,0.124346
1310.1592,0.108260
1312.0229,0.090447
1313.8866,0.078514
1315.7503,0.073777
1317.6139,0.073318
1319.4776,0.074444
1321.3413,0.076010
1323.2049,0.077860
1325.0686,0.080045
1326.9323,0.082269
1328.7959,0.084615
1330.6596,0.086874
1332.5233,0.088782
1334.3869,0.089898
1336.2506,0.090771
1338.1143,0.091926
1339.9780,0.093248
1341.8416,0.093562
1343.7053,0.093414
1345.5690,0.093751
1347.4326,0.094499
1349.2963,0.095612
1351.1600,0.096828
1353.0236,0.098294
1354.8873,0.100293
1356.7510,0.102245
1358.6146,0.104070
1360.4783,0.106429
1362.3420,0.110116
1364.2056,0.113336
1366.0693,0.115138
1367.9330,0.117997
1369.7967,0.121293
1371.6603,0.123780
1373.5240,0.127717
1375.3877,0.132106
1377.2513,0.134798
1379.1150,0.138447
1380.9787,0.143013
1382.8423,0.147686
1384.7060,0.153029
1386.5697,0.159823
1388.4333,0.167203
1390.2970,0.171215
1392.1607,0.173940
1394.0244,0.175346
1395.8880,0.172103
1397.7517,0.165046
1399.6154,0.156557
1401.4790,0.148476
1403.3427,0.141764
1405.2064,0.132217
1407.0700,0.118288
1408.9337,0.103874
1410.7974,0.090496
1412.6610,0.080885
1414.5247,0.076085
1416.3884,0.075944
1418.2520,0.079986
1420.1157,0.086916
1421.9794,0.089877
1423.8431,0.087898
1425.7067,0.080117
1427.5704,0.072348
1429.4341,0.068538
1431.2977,0.067582
1433.1614,0.067813
1435.0251,0.069495
1436.8887,0.072884
1438.7524,0.074492
1440.6161,0.074796
1442.4797,0.076175
1444.3434,0.077103
1446.2071,0.078057
1448.0707,0.078522
1449.9344,0.077103
1451.7981,0.074406
1453.6618,0.071979
1455.5254,0.071410
1457.3891,0.074720
1459.2528,0.074905
1461.1164,0.073752
1462.9801,0.074102
1464.8438,0.075163
1466.7074,0.074364
1468.5711,0.072672
1470.4348,0.072168
1472.2984,0.073455
1474.1621,0.074251
1476.0258,0.073761
1477.8895,0.073978
1479.7531,0.074227
1481.6168,0.075393
1483.4805,0.076090
1485.3441,0.076675
1487.2078,0.078493
1489.0715,0.081540
1490.9351,0.083993
1492.7988,0.083877
1494.6625,0.084365
1496.5261,0.087708
1498.3898,0.090273
1500.2535,0.090790
1502.1171,0.090415
1503.9808,0.090595
1505.8445,0.094530
1507.7082,0.102022
1509.5718,0.100741
1511.4355,0.100404
1513.2992,0.101251
1515.1628,0.102474
1517.0265,0.104660
1518.8902,0.105332
1520.7538,0.106683
1522.6175,0.109405
1524.4812,0.108699
1526.3448,0.110205
1528.2085,0.110727
1530.0722,0.110382
1531.9359,0.111547
1533.7995,0.114077
1535.6632,0.113300
1537.5269,0.112693
1539.3905,0.116494
1541.2542,0.121036
1543.1179,0.120750
1544.9815,0.121325
1546.8452,0.121324
1548.7089,0.121812
1550.5725,0.123393
1552.4362,0.123448
1554.2999,0.123929
1556.1635,0.124957
1558.0272,0.128700
1559.8909,0.136779
1561.7546,0.132971
1563.6182,0.132152
1565.4819,0.133720
1567.3456,0.135197
1569.2092,0.137890
1571.0729,0.140381
1572.9366,0.140324
1574.8002,0.143106
1576.6639,0.148032
1578.5276,0.149563
1580.3912,0.150036
1582.2549,0.152264
1584.1186,0.153796
1585.9822,0.155150
1587.8459,0.155810
1589.7096,0.156497
1591.5733,0.156285
1593.4369,0.156087
1595.3006,0.155259
1597.1643,0.154509
1599.0279,0.152911
1600.8916,0.151394
1602.7553,0.150041
1604.6189,0.149145
1606.4826,0.148093
1608.3463,0.147651
1610.2099,0.146711
1612.0736,0.145401
1613.9373,0.143315
1615.8010,0.141459
1617.6646,0.136844
1619.5283,0.131382
1621.3920,0.127950
1623.2556,0.124235
1625.1193,0.118369
1626.9830,0.113640
1628.8466,0.107550
1630.7103,0.100481
1632.5740,0.094413
1634.4376,0.089484
1636.3013,0.082875
1638.1650,0.078046
1640.0286,0.076568
1641.8923,0.075810
1643.7560,0.075881
1645.6197,0.077609
1647.4833,0.079596
1649.3470,0.080312
1651.2107,0.082070
1653.0743,0.086331
1654.9380,0.086811
1656.8017,0.085870
1658.6653,0.086052
1660.5290,0.085288
1662.3927,0.083638
1664.2563,0.080508
1666.1200,0.077764
1667.9837,0.076017
1669.8474,0.073378
1671.7110,0.070522
1673.5747,0.070123
1675.4384,0.071255
1677.3020,0.072190
1679.1657,0.073684
1681.0294,0.076862
1682.8930,0.080159
1684.7567,0.084432
1686.6204,0.083838
1688.4840,0.083232
1690.3477,0.081488
1692.2114,0.078179
1694.0750,0.075196
1695.9387,0.072109
1697.8024,0.067031
1699.6661,0.064028
1701.5297,0.057786
1703.3934,0.052191
1705.2571,0.047165
1707.1207,0.039710
1708.9844,0.034390
1710.8481,0.030911
1712.7117,0.028087
1714.5754,0.026464
1716.4391,0.024695
1718.3027,0.023257
1720.1664,0.022114
1722.0301,0.021866
1723.8937,0.021227
1725.7574,0.019581
1727.6211,0.018211
1729.4848,0.017265
1731.3484,0.016297
1733.2121,0.015345
1735.0758,0.013917
1736.9394,0.012846
1738.8031,0.013453
1740.6668,0.013309
1742.5304,0.012770
1744.3941,0.013002
1746.2578,0.012928
1748.1214,0.012865
1749.9851,0.012245
1751.8488,0.011780
1753.7125,0.011462
1755.5761,0.011725
1757.4398,0.012000
1759.3035,0.011591
1761.1671,0.011719
1763.0308,0.011396
1764.8945,0.011199
1766.7581,0.011668
1768.6218,0.011794
1770.4855,0.011597
1772.3491,0.011657
1774.2128,0.010837
1776.0765,0.010743
1777.9401,0.011250
1779.8038,0.011525
1781.6675,0.011697
1783.5312,0.011436
1785.3948,0.011605
1787.2585,0.011453
1789.1222,0.011800
1790.9858,0.012157
1792.8495,0.012060
1794.7132,0.011469
1796.5768,0.011681
1798.4405,0.011986
1800.3042,0.012209
1802.1678,0.012034
1804.0315,0.011995
1805.8952,0.012154
1807.7589,0.012338
1809.6225,0.012242
1811.4862,0.012435
1813.3499,0.012424
1815.2135,0.012343
1817.0772,0.012293
1818.9409,0.012126
1820.8045,0.012083
1822.6682,0.012200
1824.5319,0.012169
1826.3955,0.012163
1828.2592,0.012161
1830.1229,0.012475
1831.9865,0.011858
1833.8502,0.011896
1835.7139,0.011992
1837.5776,0.012033
1839.4412,0.011985
1841.3049,0.011960
1843.1686,0.012031
1845.0322,0.011779
1846.8959,0.011428
1848.7596,0.011632
1850.6232,0.011808
1852.4869,0.012269
1854.3506,0.012338
1856.2142,0.012201
1858.0779,0.012252
1859.9416,0.012452
1861.8052,0.012384
1863.6689,0.012258
1865.5326,0.012244
1867.3963,0.012407
1869.2599,0.012317
1871.1236,0.011652
1872.9873,0.011823
1874.8509,0.012077
1876.7146,0.011930
1878.5783,0.012009
1880.4419,0.012159
1882.3056,0.012063
1884.1693,0.011981
1886.0329,0.012155
1887.8966,0.012384
1889.7603,0.012161
1891.6240,0.011451
1893.4876,0.011554
1895.3513,0.011692
1897.2150,0.011487
1899.0786,0.011721
1900.9423,0.012111
1902.8060,0.012240
1904.6696,0.012400
1906.5333,0.012367
1908.3970,0.012139
1910.2606,0.011922
1912.1243,0.011979
1913.9880,0.011641
1915.8516,0.011363
1917.7153,0.011685
1919.5790,0.011725
1921.4427,0.011549
1923.3063,0.011520
1925.1700,0.011306
1927.0337,0.011604
1928.8973,0.011936
1930.7610,0.011831
1932.6247,0.011822
1934.4883,0.012104
1936.3520,0.011563
1938.2157,0.011250
1940.0793,0.011067
1941.9430,0.010793
1943.8067,0.010692
1945.6704,0.010866
1947.5340,0.010360
1949.3977,0.009718
1951.2614,0.009261
1953.1250,0.009016
1954.9887,0.009167
1956.8524,0.009674
1958.7160,0.009501
1960.5797,0.008901
1962.4434,0.007975
1964.3070,0.007054
1966.1707,0.007085
1968.0344,0.006839
1969.8980,0.005870
1971.7617,0.005295
1973.6254,0.005259
1975.4891,0.005750
1977.3527,0.005614
1979.2164,0.005400
1981.0801,0.005984
1982.9437,0.006377
1984.8074,0.006810
1986.6711,0.007811
1988.5347,0.008445
1990.3984,0.008007
1992.2621,0.007947
1994.1257,0.008074
1995.9894,0.007975
1997.8531,0.008420
1999.7167,0.008225
2001.5804,0.007840
2003.4441,0.007942
2005.3078,0.007021
2007.1714,0.005851
2009.0351,0.005431
2010.8988,0.005586
2012.7624,0.006372
2014.6261,0.006444
2016.4898,0.006061
2018.3534,0.005604
2020.2171,0.005721
2022.0808,0.006604
2023.9444,0.005949
2025.8081,0.005609
2027.6718,0.006036
2029.5355,0.004514
2031.3991,0.003792
2033.2628,0.004538
2035.1265,0.005157
2036.9901,0.006002
2038.8538,0.007367
2040.7175,0.007443
2042.5811,0.006872
2044.4448,0.007889
2046.3085,0.008879
2048.1721,0.009268
2050.0358,0.010540
2051.8995,0.011006
2053.7631,0.010504
2055.6268,0.010819
2057.4905,0.011972
2059.3542,0.012651
2061.2178,0.012305
2063.0815,0.011939
2064.9452,0.012272
2066.8088,0.012859
2068.6725,0.013178
2070.5362,0.013292
2072.3998,0.012993
2074.2635,0.013014
2076.1272,0.012981
2077.9908,0.013248
2079.8545,0.014187
2081.7182,0.014931
2083.5819,0.014796
2085.4455,0.014414
2087.3092,0.014617
2089.1729,0.015183
2091.0365,0.015317
2092.9002,0.015087
2094.7639,0.014583
2096.6275,0.014438
2098.4912,0.014691
2100.3549,0.014541
2102.2185,0.014705
2104.0822,0.015653
2105.9459,0.016422
2107.8095,0.016420
2109.6732,0.015924
2111.5369,0.015621
2113.4006,0.015623
2115.2642,0.015496
2117.1279,0.015157
2118.9916,0.015380
2120.8552,0.015476
2122.7189,0.015301
2124.5826,0.015311
2126.4462,0.015346
2128.3099,0.015019
2130.1736,0.014454
2132.0372,0.014469
2133.9009,0.014330
2135.7646,0.013560
2137.6282,0.013420
2139.4919,0.012997
2141.3556,0.012371
2143.2193,0.012839
2145.0829,0.013459
2146.9466,0.012292
2148.8103,0.010699
2150.6739,0.010231
2152.5376,0.010910
2154.4013,0.010305
2156.2649,0.008453
2158.1286,0.007518
2159.9923,0.007016
2161.8559,0.006403
2163.7196,0.007657
2165.5833,0.009440
2167.4470,0.010567
2169.3106,0.010738
2171.1743,0.010725
2173.0380,0.010909
2174.9016,0.010350
2176.7653,0.009568
2178.6290,0.009673
2180.4926,0.010560
2182.3563,0.011693
2184.2200,0.011943
2186.0836,0.011683
2187.9473,0.011677
2189.8110,0.012080
2191.6746,0.012066
2193.5383,0.012069
2195.4020,0.012491
2197.2657,0.013466
2199.1293,0.013880
2200.9930,0.014345
2202.8567,0.014343
2204.7203,0.013690
2206.5840,0.013315
2208.4477,0.013468
2210.3113,0.013535
2212.1750,0.013959
2214.0387,0.014503
2215.9023,0.015474
2217.7660,0.016233
2219.6297,0.016144
2221.4934,0.016237
2223.3570,0.016194
2225.2207,0.015679
2227.0844,0.016133
2228.9480,0.016428
2230.8117,0.016479
2232.6754,0.016223
2234.5390,0.015654
2236.4027,0.015788
2238.2664,0.017181
2240.1300,0.018138
2241.9937,0.017984
2243.8574,0.017566
2245.7210,0.017553
2247.5847,0.017467
2249.4484,0.017812
2251.3121,0.017912
2253.1757,0.017725
2255.0394,0.017462
2256.9031,0.017431
2258.7667,0.018164
2260.6304,0.018910
2262.4941,0.018620
2264.3577,0.018519
2266.2214,0.019417
2268.0851,0.020493
2269.9487,0.020287
2271.8124,0.020008
2273.6761,0.020324
2275.5397,0.020645
2277.4034,0.020657
2279.2671,0.020881
2281.1308,0.021059
2282.9944,0.021203
2284.8581,0.021611
2286.7218,0.022192
2288.5854,0.022386
2290.4491,0.022267
2292.3128,0.021929
2294.1764,0.021919
2296.0401,0.022021
2297.9038,0.021959
2299.7674,0.022158
2301.6311,0.022559
2303.4948,0.022716
2305.3585,0.023130
2307.2221,0.023307
2309.0858,0.023090
2310.9495,0.023090
2312.8131,0.023144
2314.6768,0.022927
2316.5405,0.022741
2318.4041,0.022701
2320.2678,0.022725
2322.1315,0.022668
2323.9951,0.022806
2325.8588,0.022727
2327.7225,0.022570
2329.5861,0.022349
2331.4498,0.022231
2333.3135,0.022103
2335.1772,0.022211
2337.0408,0.022234
2338.9045,0.022308
2340.7682,0.022464
2342.6318,0.022612
2344.4955,0.022389
2346.3592,0.022048
2348.2228,0.021816
2350.0865,0.021969
2351.9502,0.022183
2353.8138,0.022129
2355.6775,0.022038
2357.5412,0.022110
2359.4049,0.022152
2361.2685,0.022115
2363.1322,0.021764
2364.9959,0.021742
2366.8595,0.021853
2368.7232,0.021912
2370.5869,0.022402
2372.4505,0.022794
2374.3142,0.022825
2376.1779,0.022924
2378.0415,0.022942
2379.9052,0.023045
2381.7689,0.023182
2383.6325,0.022959
2385.4962,0.022738
2387.3599,0.023129
2389.2236,0.023177
2391.0872,0.023036
2392.9509,0.023041
2394.8146,0.022963
2396.6782,0.022980
2398.5419,0.023194
2400.4056,0.023223
2402.2692,0.023197
2404.1329,0.023241
2405.9966,0.023377
2407.8602,0.023400
2409.7239,0.023398
2411.5876,0.023293
2413.4512,0.023317
2415.3149,0.023492
2417.1786,0.023595
2419.0423,0.023546
2420.9059,0.023736
2422.7696,0.023996
2424.6333,0.024014
2426.4969,0.023743
2428.3606,0.023620
2430.2243,0.023842
2432.0879,0.024187
2433.9516,0.024008
2435.8153,0.023873
2437.6789,0.023846
2439.5426,0.023884
2441.4063,0.023987
2443.2700,0.024177
2445.1336,0.024193
2446.9973,0.024097
2448.8610,0.023972
2450.7246,0.023987
2452.5883,0.023951
2454.4520,0.023990
2456.3156,0.023977
2458.1793,0.024116
2460.0430,0.024032
2461.9066,0.023862
2463.7703,0.023792
2465.6340,0.023772
2467.4976,0.023752
2469.3613,0.023851
2471.2250,0.024018
2473.0887,0.024064
2474.9523,0.023926
2476.8160,0.023946
2478.6797,0.024071
2480.5433,0.024340
2482.4070,0.024438
2484.2707,0.024258
2486.1343,0.024001
2487.9980,0.024192
2489.8617,0.024404
2491.7253,0.024751
2493.5890,0.025004
2495.4527,0.024889
2497.3164,0.024520
2499.1800,0.024645
2501.0437,0.024857
2502.9074,0.025033
2504.7710,0.024768
2506.6347,0.024770
2508.4984,0.025285
2510.3620,0.025593
2512.2257,0.025375
2514.0894,0.025335
2515.9530,0.025612
2517.8167,0.025786
2519.6804,0.025753
2521.5440,0.026073
2523.4077,0.026300
2525.2714,0.025883
2527.1351,0.025761
2528.9987,0.026175
2530.8624,0.025905
2532.7261,0.025771
2534.5897,0.026245
2536.4534,0.026294
2538.3171,0.026193
2540.1807,0.026625
2542.0444,0.026542
2543.9081,0.026158
2545.7717,0.026236
2547.6354,0.026486
2549.4991,0.026570
2551.3627,0.026682
2553.2264,0.026278
2555.0901,0.026424
2556.9538,0.026838
2558.8174,0.026821
2560.6811,0.026760
2562.5448,0.026725
2564.4084,0.026697
2566.2721,0.026839
2568.1358,0.027112
2569.9994,0.027322
2571.8631,0.027286
2573.7268,0.027427
2575.5904,0.027450
2577.4541,0.027711
2579.3178,0.028028
2581.1815,0.028263
2583.0451,0.028373
2584.9088,0.028272
2586.7725,0.028272
2588.6361,0.028834
2590.4998,0.028929
2592.3635,0.028544
2594.2271,0.028443
2596.0908,0.028713
2597.9545,0.029051
2599.8181,0.029275
2601.6818,0.029241
2603.5455,0.029362
2605.4091,0.029701
2607.2728,0.030014
2609.1365,0.030028
2611.0002,0.029986
2612.8638,0.030001
2614.7275,0.030124
2616.5912,0.030150
2618.4548,0.030468
2620.3185,0.030715
2622.1822,0.030764
2624.0458,0.030911
2625.9095,0.031068
2627.7732,0.031316
2629.6368,0.031851
2631.5005,0.032188
2633.3642,0.032417
2635.2279,0.032364
2637.0915,0.032201
2638.9552,0.032467
2640.8189,0.032823
2642.6825,0.032834
2644.5462,0.032987
2646.4099,0.033228
2648.2735,0.033478
2650.1372,0.033659
2652.0009,0.033798
2653.8645,0.033792
2655.7282,0.033902
2657.5919,0.034126
2659.4555,0.034322
2661.3192,0.034247
2663.1829,0.034197
2665.0466,0.034256
2666.9102,0.034100
2668.7739,0.034074
2670.6376,0.034417
2672.5012,0.034565
2674.3649,0.034710
2676.2286,0.034833
2678.0922,0.035073
2679.9559,0.035316
2681.8196,0.035406
2683.6832,0.035519
2685.5469,0.035654
2687.4106,0.035707
2689.2742,0.035827
2691.1379,0.036021
2693.0016,0.036117
2694.8653,0.036349
2696.7289,0.036635
2698.5926,0.036927
2700.4563,0.037421
2702.3199,0.037704
2704.1836,0.037724
2706.0473,0.037891
2707.9109,0.038250
2709.7746,0.038443
2711.6383,0.038467
2713.5019,0.038637
2715.3656,0.038951
2717.2293,0.039385
2719.0930,0.039756
2720.9566,0.039934
2722.8203,0.040282
2724.6840,0.040658
2726.5476,0.040991
2728.4113,0.041348
2730.2750,0.041606
2732.1386,0.041698
2734.0023,0.041936
2735.8660,0.042324
2737.7296,0.042814
2739.5933,0.043169
2741.4570,0.043507
2743.3206,0.043891
2745.1843,0.044224
2747.0480,0.044600
2748.9117,0.045107
2750.7753,0.045516
2752.6390,0.045915
2754.5027,0.046253
2756.3663,0.046572
2758.2300,0.046975
2760.0937,0.047420
2761.9573,0.047778
2763.8210,0.048226
2765.6847,0.048621
2767.5483,0.048937
2769.4120,0.049545
2771.2757,0.050033
2773.1394,0.050340
2775.0030,0.050908
2776.8667,0.051670
2778.7304,0.051987
2780.5940,0.051985
2782.4577,0.052167
2784.3214,0.052313
2786.1850,0.052097
2788.0487,0.051813
2789.9124,0.051793
2791.7760,0.051392
2793.6397,0.050759
2795.5034,0.050271
2797.3670,0.049977
2799.2307,0.049740
2801.0944,0.049374
2802.9581,0.048923
2804.8217,0.048709
2806.6854,0.048684
2808.5491,0.048434
2810.4127,0.048459
2812.2764,0.048695
2814.1401,0.048529
2816.0037,0.048480
2817.8674,0.048657
2819.7311,0.048824
2821.5947,0.049007
2823.4584,0.049126
2825.3221,0.048939
2827.1857,0.048686
2829.0494,0.048510
2830.9131,0.048157
2832.7768,0.048016
2834.6404,0.048105
2836.5041,0.048311
2838.3678,0.048612
2840.2314,0.049136
2842.0951,0.049402
2843.9588,0.049280
2845.8224,0.049648
2847.6861,0.050187
2849.5498,0.050627
2851.4134,0.051365
2853.2771,0.052081
2855.1408,0.052755
2857.0045,0.053355
2858.8681,0.053863
2860.7318,0.054057
2862.5955,0.054330
2864.4591,0.054585
2866.3228,0.054577
2868.1865,0.054934
2870.0501,0.055276
2871.9138,0.055539
2873.7775,0.055754
2875.6411,0.055963
2877.5048,0.056300
2879.3685,0.056683
2881.2321,0.057044
2883.0958,0.057202
2884.9595,0.057422
2886.8232,0.057864
2888.6868,0.058412
2890.5505,0.058734
2892.4142,0.059181
2894.2778,0.059924
2896.1415,0.060280
2898.0052,0.060446
2899.8688,0.060706
2901.7325,0.060535
2903.5962,0.060371
2905.4598,0.060556
2907.3235,0.061145
2909.1872,0.061412
2911.0509,0.061805
2912.9145,0.062272
2914.7782,0.062805
2916.6419,0.063782
2918.5055,0.064642
2920.3692,0.064975
2922.2329,0.065332
2924.0965,0.065635
2925.9602,0.066044
2927.8239,0.066600
2929.6875,0.066808
2931.5512,0.067144
2933.4149,0.067462
2935.2785,0.067517
2937.1422,0.067922
2939.0059,0.068156
2940.8696,0.068033
2942.7332,0.068088
2944.5969,0.068296
2946.4606,0.068508
2948.3242,0.068960
2950.1879,0.069275
2952.0516,0.069358
2953.9152,0.069746
2955.7789,0.070428
2957.6426,0.070686
2959.5062,0.070909
2961.3699,0.071229
2963.2336,0.071826
2965.0972,0.072434
2966.9609,0.072857
2968.8246,0.073180
2970.6883,0.073303
2972.5519,0.073388
2974.4156,0.073894
2976.2793,0.074389
2978.1429,0.074546
2980.0066,0.074754
2981.8703,0.074961
2983.7339,0.074741
2985.5976,0.074879
2987.4613,0.075270
2989.3249,0.075474
2991.1886,0.075782
2993.0523,0.076426
2994.9160,0.077066
2996.7796,0.077701
2998.6433,0.078246
3000.5070,0.078957
3002.3706,0.079769
3004.2343,0.080468
3006.0980,0.080814
3007.9616,0.081182
3009.8253,0.081711
3011.6890,0.082371
3013.5526,0.083023
3015.4163,0.084016
3017.2800,0.084753
3019.1436,0.084939
3021.0073,0.084792
3022.8710,0.085293
3024.7347,0.085788
3026.5983,0.085990
3028.4620,0.085839
3030.3257,0.085887
3032.1893,0.086475
3034.0530,0.087086
3035.9167,0.087226
3037.7803,0.087597
3039.6440,0.087787
3041.5077,0.088041
3043.3713,0.088604
3045.2350,0.089154
3047.0987,0.089451
3048.9624,0.089547
3050.8260,0.089371
3052.6897,0.089604
3054.5534,0.090063
3056.4170,0.090450
3058.2807,0.090358
3060.1444,0.090237
3062.0080,0.090246
3063.8717,0.090687
3065.7354,0.090751
3067.5990,0.090849
3069.4627,0.090881
3071.3264,0.090603
3073.1900,0.090512
3075.0537,0.090690
3076.9174,0.090559
3078.7811,0.090614
3080.6447,0.090565
3082.5084,0.090405
3084.3721,0.089888
3086.2357,0.089667
3088.0994,0.089490
3089.9631,0.088905
3091.8267,0.088113
3093.6904,0.087706
3095.5541,0.087340
3097.4177,0.086760
3099.2814,0.085347
3101.1451,0.084736
3103.0087,0.084436
3104.8724,0.083702
3106.7361,0.082809
3108.5998,0.082481
3110.4634,0.082278
3112.3271,0.081710
3114.1908,0.080956
3116.0544,0.080613
3117.9181,0.080110
3119.7818,0.079528
3121.6454,0.078754
3123.5091,0.078019
3125.3728,0.077375
3127.2364,0.076990
3129.1001,0.076787
3130.9638,0.076510
3132.8275,0.075701
3134.6911,0.075225
3136.5548,0.074476
3138.4185,0.073868
3140.2821,0.073772
3142.1458,0.073746
3144.0095,0.073364
3145.8731,0.073244
3147.7368,0.073040
3149.6005,0.072536
3151.4641,0.072240
3153.3278,0.072578
3155.1915,0.072287
3157.0551,0.071515
3158.9188,0.071110
3160.7825,0.071216
3162.6462,0.070802
3164.5098,0.070816
3166.3735,0.070301
3168.2372,0.069773
3170.1008,0.069941
3171.9645,0.069699
3173.8282,0.069132
3175.6918,0.069213
3177.5555,0.069178
3179.4192,0.068954
3181.2828,0.068761
3183.1465,0.068577
3185.0102,0.068407
3186.8739,0.068563
3188.7375,0.068346
3190.6012,0.068497
3192.4649,0.068614
3194.3285,0.068427
3196.1922,0.068143
3198.0559,0.068701
3199.9195,0.069332
3201.7832,0.069492
3203.6469,0.069370
3205.5105,0.069364
3207.3742,0.069381
3209.2379,0.069642
3211.1015,0.069989
3212.9652,0.069974
3214.8289,0.069778
3216.6926,0.070236
3218.5562,0.070399
3220.4199,0.070428
3222.2836,0.070222
3224.1472,0.070353
3226.0109,0.070740
3227.8746,0.071177
3229.7382,0.071056
3231.6019,0.071495
3233.4656,0.072345
3235.3292,0.072641
3237.1929,0.072560
3239.0566,0.072538
3240.9202,0.072421
3242.7839,0.072769
3244.6476,0.073127
3246.5113,0.073410
3248.3749,0.074025
3250.2386,0.074827
3252.1023,0.075341
3253.9659,0.076146
3255.8296,0.076658
3257.6933,0.076335
3259.5569,0.076191
3261.4206,0.076723
3263.2843,0.076841
3265.1479,0.076989
3267.0116,0.077349
3268.8753,0.077625
3270.7390,0.078030
3272.6026,0.078749
3274.4663,0.078047
3276.3300,0.077868
3278.1936,0.078073
3280.0573,0.077364
3281.9210,0.076584
3283.7846,0.076257
3285.6483,0.076000
3287.5120,0.075509
3289.3756,0.074335
3291.2393,0.074016
3293.1030,0.073784
3294.9666,0.072866
3296.8303,0.071893
3298.6940,0.071691
3300.5577,0.070977
3302.4213,0.069703
3304.2850,0.068730
3306.1487,0.068047
3308.0123,0.067614
3309.8760,0.067429
3311.7397,0.066838
3313.6033,0.066489
3315.4670,0.065879
3317.3307,0.065821
3319.1943,0.066168
3321.0580,0.065699
3322.9217,0.065513
3324.7854,0.065963
3326.6490,0.065844
3328.5127,0.065669
3330.3764,0.065508
3332.2400,0.065524
3334.1037,0.065013
3335.9674,0.065178
3337.8310,0.065159
3339.6947,0.064028
3341.5584,0.062554
3343.4220,0.061764
3345.2857,0.060654
3347.1494,0.059745
3349.0130,0.058017
3350.8767,0.056742
3352.7404,0.056976
3354.6041,0.056157
3356.4677,0.054122
3358.3314,0.053418
3360.1951,0.052873
3362.0587,0.052825
3363.9224,0.052749
3365.7861,0.051948
3367.6497,0.051480
3369.5134,0.052517
3371.3771,0.052521
3373.2407,0.051344
3375.1044,0.050329
3376.9681,0.050931
3378.8317,0.051721
3380.6954,0.051871
3382.5591,0.051404
3384.4228,0.051800
3386.2864,0.052272
3388.1501,0.052840
3390.0138,0.053822
3391.8774,0.055030
3393.7411,0.055088
3395.6048,0.054880
3397.4684,0.054908
3399.3321,0.054797
3401.1958,0.054500
3403.0594,0.054337
3404.9231,0.053242
3406.7868,0.051911
3408.6505,0.050694
3410.5141,0.050066
3412.3778,0.048022
3414.2415,0.046127
3416.1051,0.045036
3417.9688,0.044269
3419.8325,0.043112
3421.6961,0.042169
3423.5598,0.041205
3425.4235,0.040163
3427.2871,0.039033
3429.1508,0.038369
3431.0145,0.036805
3432.8781,0.035671
3434.7418,0.035425
3436.6055,0.034887
3438.4692,0.033358
3440.3328,0.033050
3442.1965,0.033244
3444.0602,0.032399
3445.9238,0.031331
3447.7875,0.031460
3449.6512,0.030488
3451.5148,0.029517
3453.3785,0.029168
3455.2422,0.028870
3457.1058,0.028680
3458.9695,0.028631
3460.8332,0.028132
3462.6969,0.028152
3464.5605,0.028189
3466.4242,0.027331
3468.2879,0.026478
3470.1515,0.026753
3472.0152,0.026482
3473.8789,0.025742
3475.7425,0.025967
3477.6062,0.025886
3479.4699,0.024388
3481.3335,0.024175
3483.1972,0.024213
3485.0609,0.023528
3486.9245,0.023004
3488.7882,0.022680
3490.6519,0.022388
3492.5156,0.022410
3494.3792,0.021618
3496.2429,0.021448
3498.1066,0.021626
3499.9702,0.021577
3501.8339,0.021380
3503.6976,0.021088
3505.5612,0.020146
3507.4249,0.020109
3509.2886,0.020068
3511.1522,0.019154
3513.0159,0.018525
3514.8796,0.018823
3516.7432,0.018684
3518.6069,0.018760
3520.4706,0.018852
3522.3343,0.018594
3524.1979,0.017831
3526.0616,0.017525
3527.9253,0.017554
3529.7889,0.017168
3531.6526,0.016417
3533.5163,0.016269
3535.3799,0.016041
3537.2436,0.016077
3539.1073,0.015926
3540.9709,0.016003
3542.8346,0.015664
3544.6983,0.015367
3546.5620,0.015009
3548.4256,0.014704
3550.2893,0.014545
3552.1530,0.014620
3554.0166,0.014074
3555.8803,0.014120
3557.7440,0.014257
3559.6076,0.014485
3561.4713,0.015026
3563.3350,0.014992
3565.1986,0.013686
3567.0623,0.012869
3568.9260,0.012903
3570.7896,0.012775
3572.6533,0.012772
3574.5170,0.013095
3576.3807,0.013070
3578.2443,0.013761
3580.1080,0.013927
3581.9717,0.013265
3583.8353,0.012972
3585.6990,0.013567
3587.5627,0.013493
3589.4263,0.012704
3591.2900,0.011913
3593.1537,0.012601
3595.0173,0.012824
3596.8810,0.012287
3598.7447,0.012204
3600.6084,0.012327
3602.4720,0.011621
3604.3357,0.011688
3606.1994,0.012585
3608.0630,0.012860
3609.9267,0.011739
3611.7904,0.011583
3613.6540,0.012644
3615.5177,0.012615
3617.3814,0.011989
3619.2450,0.012764
3621.1087,0.013022
3622.9724,0.012377
3624.8360,0.011759
3626.6997,0.012145
3628.5634,0.012692
3630.4271,0.012199
3632.2907,0.010887
3634.1544,0.011999
3636.0181,0.012180
3637.8817,0.012283
3639.7454,0.012585
3641.6091,0.012438
3643.4727,0.012348
3645.3364,0.012604
3647.2001,0.013457
3649.0637,0.013138
3650.9274,0.011230
3652.7911,0.010948
3654.6547,0.011607
3656.5184,0.013600
3658.3821,0.013514
3660.2458,0.012737
3662.1094,0.013179
3663.9731,0.013570
3665.8368,0.013853
3667.7004,0.014629
3669.5641,0.016402
3671.4278,0.017996
3673.2914,0.018419
3675.1551,0.021392
3677.0188,0.020480
3678.8824,0.013351
3680.7461,0.010891
3682.6098,0.010105
3684.4735,0.010769
3686.3371,0.011524
3688.2008,0.011885
3690.0645,0.011141
3691.9281,0.009704
3693.7918,0.010698
3695.6555,0.011810
3697.5191,0.012222
3699.3828,0.011641
3701.2465,0.011747
3703.1101,0.011559
3704.9738,0.011117
3706.8375,0.011305
3708.7011,0.011293
3710.5648,0.011162
3712.4285,0.011167
3714.2922,0.010626
3716.1558,0.011172
3718.0195,0.011919
3719.8832,0.012194
3721.7468,0.012308
3723.6105,0.012567
3725.4742,0.011929
3727.3378,0.011678
3729.2015,0.011036
3731.0652,0.011427
3732.9288,0.011877
3734.7925,0.011069
3736.6562,0.011150
3738.5199,0.010164
3740.3835,0.009785
3742.2472,0.011382
3744.1109,0.012290
3745.9745,0.012602
3747.8382,0.010678
3749.7019,0.012045
3751.5655,0.011618
3753.4292,0.010484
3755.2929,0.010814
3757.1565,0.012340
3759.0202,0.012546
3760.8839,0.012061
3762.7475,0.011762
3764.6112,0.012371
3766.4749,0.013339
3768.3386,0.013360
3770.2022,0.013276
3772.0659,0.012737
3773.9296,0.012338
3775.7932,0.012950
3777.6569,0.012934
3779.5206,0.013157
3781.3842,0.012963
3783.2479,0.013237
3785.1116,0.013580
3786.9752,0.013014
3788.8389,0.013044
3790.7026,0.013361
3792.5662,0.012798
3794.4299,0.013104
3796.2936,0.013847
3798.1573,0.013714
3800.0209,0.013100
3801.8846,0.013608
3803.7483,0.011683
3805.6119,0.011704
3807.4756,0.013825
3809.3393,0.013270
3811.2029,0.012243
3813.0666,0.012774
3814.9303,0.013061
3816.7939,0.013772
3818.6576,0.012625
3820.5213,0.013176
3822.3850,0.013503
3824.2486,0.012044
3826.1123,0.012349
3827.9760,0.013425
3829.8396,0.013303
3831.7033,0.013436
3833.5670,0.013516
3835.4306,0.013522
3837.2943,0.013164
3839.1580,0.013128
3841.0216,0.013124
3842.8853,0.013187
3844.7490,0.012858
3846.6126,0.012309
3848.4763,0.012593
3850.3400,0.013603
3852.2037,0.014293
3854.0673,0.014886
3855.9310,0.012477
3857.7947,0.012027
3859.6583,0.012881
3861.5220,0.013562
3863.3857,0.014189
3865.2493,0.014275
3867.1130,0.013048
3868.9767,0.012929
3870.8403,0.014876
3872.7040,0.014047
3874.5677,0.013805
3876.4314,0.013737
3878.2950,0.013575
3880.1587,0.014607
3882.0224,0.014595
3883.8860,0.013562
3885.7497,0.014202
3887.6134,0.014446
3889.4770,0.013406
3891.3407,0.013999
3893.2044,0.014005
3895.0680,0.013253
3896.9317,0.013403
3898.7954,0.014614
3900.6590,0.015088
3902.5227,0.014491
3904.3864,0.015126
3906.2501,0.015327
3908.1137,0.014438
3909.9774,0.014423
3911.8411,0.014610
3913.7047,0.014748
3915.5684,0.014255
3917.4321,0.014440
3919.2957,0.014264
3921.1594,0.013952
3923.0231,0.013957
3924.8867,0.014789
3926.7504,0.015046
3928.6141,0.014753
3930.4777,0.015007
3932.3414,0.015241
3934.2051,0.014887
3936.0688,0.014783
3937.9324,0.014715
3939.7961,0.014579
3941.6598,0.014798
3943.5234,0.015265
3945.3871,0.015163
3947.2508,0.014876
3949.1144,0.014712
3950.9781,0.015271
3952.8418,0.015673
3954.7054,0.015534
3956.5691,0.015029
3958.4328,0.014850
3960.2965,0.014650
3962.1601,0.014625
3964.0238,0.014902
3965.8875,0.015188
3967.7511,0.014921
3969.6148,0.014969
3971.4785,0.014987
3973.3421,0.014900
3975.2058,0.015232
3977.0695,0.015197
3978.9331,0.014720
3980.7968,0.014847
3982.6605,0.015326
3984.5241,0.015169
3986.3878,0.014803
3988.2515,0.015139
3990.1152,0.014901
3991.9788,0.014775
3993.8425,0.014845
3995.7062,0.015362
3997.5698,0.015670
3999.4335,0.015388
