Wavenumber,Intensity
650.4205,0.217383
652.2841,0.211732
654.1478,0.208278
656.0115,0.204712
657.8751,0.201520
659.7388,0.202496
661.6025,0.203757
663.4661,0.202184
665.3298,0.202343
667.1935,0.202970
669.0571,0.203444
670.9208,0.199050
672.7845,0.195427
674.6481,0.194035
676.5118,0.193475
678.3755,0.193223
680.2392,0.193223
682.1028,0.191178
683.9665,0.190624
685.8302,0.191730
687.6938,0.191730
689.5575,0.190387
691.4212,0.190354
693.2848,0.190260
695.1485,0.190802
697.0122,0.190488
698.8758,0.191202
700.7395,0.192852
702.6032,0.191859
704.4669,0.188200
706.3305,0.183875
708.1942,0.176433
710.0579,0.167712
711.9215,0.159815
713.7852,0.152067
715.6489,0.144352
717.5125,0.137746
719.3762,0.131803
721.2399,0.126329
723.1035,0.121309
724.9672,0.116183
726.8309,0.111184
728.6945,0.107492
730.5582,0.103578
732.4219,0.099828
734.2856,0.096736
736.1492,0.094170
738.0129,0.093256
739.8766,0.094611
741.7402,0.097554
743.6039,0.100983
745.4676,0.103140
747.3312,0.103353
749.1949,0.102755
751.0586,0.101971
752.9222,0.100889
754.7859,0.099585
756.6496,0.098507
758.5132,0.097986
760.3769,0.097457
762.2406,0.097009
764.1043,0.096273
765.9679,0.095906
767.8316,0.095980
769.6953,0.096013
771.5589,0.095508
773.4226,0.095382
775.2863,0.095842
777.1499,0.096606
779.0136,0.097354
780.8773,0.097825
782.7409,0.098756
784.6046,0.100356
786.4683,0.101670
788.3320,0.103159
790.1956,0.105001
792.0593,0.106887
793.9230,0.108258
795.7866,0.109410
797.6503,0.110661
799.5140,0.112133
801.3776,0.113278
803.2413,0.113943
805.1050,0.114118
806.9686,0.113420
808.8323,0.111562
810.6960,0.108776
812.5596,0.105668
814.4233,0.102498
816.2870,0.099237
818.1507,0.096312
820.0143,0.093866
821.8780,0.092053
823.7417,0.091156
825.6053,0.091211
827.4690,0.092784
829.3327,0.094106
831.1963,0.089212
833.0600,0.078154
834.9237,0.068667
836.7873,0.064206
838.6510,0.062645
840.5147,0.062250
842.3784,0.062344
844.2420,0.062313
846.1057,0.062161
847.9694,0.061571
849.8330,0.060464
851.6967,0.059392
853.5604,0.058644
855.4240,0.058146
857.2877,0.057785
859.1514,0.057250
861.0150,0.056594
862.8787,0.056409
864.7424,0.056259
866.6060,0.055876
868.4697,0.055960
870.3334,0.056167
872.1971,0.056314
874.0607,0.056626
875.9244,0.057040
877.7881,0.057396
879.6517,0.057959
881.5154,0.058536
883.3791,0.058711
885.2427,0.058849
887.1064,0.059338
888.9701,0.059845
890.8337,0.060278
892.6974,0.061014
894.5611,0.061910
896.4247,0.063048
898.2884,0.064445
900.1521,0.065985
902.0158,0.067876
903.8794,0.070324
905.7431,0.073625
907.6068,0.077843
909.4704,0.083094
911.3341,0.089842
913.1978,0.097827
915.0614,0.102506
916.9251,0.096150
918.7888,0.081331
920.6524,0.069120
922.5161,0.063446
924.3798,0.061557
926.2435,0.061111
928.1071,0.061365
929.9708,0.061901
931.8345,0.062655
933.6981,0.063517
935.5618,0.064248
937.4255,0.064942
939.2891,0.065741
941.1528,0.066565
943.0165,0.067354
944.8801,0.068368
946.7438,0.069555
948.6075,0.070620
950.4711,0.071665
952.3348,0.072825
954.1985,0.074175
956.0622,0.075625
957.9258,0.077053
959.7895,0.078457
961.6532,0.079976
963.5168,0.081815
965.3805,0.083931
967.2442,0.086541
969.1078,0.089484
970.9715,0.092387
972.8352,0.095755
974.6988,0.100878
976.5625,0.109844
978.4262,0.125450
980.2899,0.147681
982.1535,0.157964
984.0172,0.134819
985.8809,0.101540
987.7445,0.085271
989.6082,0.081993
991.4719,0.082179
993.3355,0.083298
995.1992,0.084422
997.0629,0.085062
998.9265,0.085666
1000.7902,0.086533
1002.6539,0.087676
1004.5175,0.089078
1006.3812,0.090581
1008.2449,0.091977
1010.1086,0.093173
1011.9722,0.094192
1013.8359,0.094878
1015.6996,0.095211
1017.5632,0.095251
1019.4269,0.095104
1021.2906,0.094917
1023.1542,0.094688
1025.0179,0.094495
1026.8816,0.094493
1028.7452,0.094731
1030.6089,0.095194
1032.4726,0.096069
1034.3362,0.097427
1036.1999,0.098943
1038.0636,0.100706
1039.9273,0.103033
1041.7909,0.105930
1043.6546,0.109443
1045.5183,0.113314
1047.3819,0.116359
1049.2456,0.116425
1051.1093,0.111425
1052.9729,0.102366
1054.8366,0.093386
1056.7003,0.087374
1058.5639,0.084488
1060.4276,0.083626
1062.2913,0.083740
1064.1550,0.084308
1066.0186,0.085193
1067.8823,0.086433
1069.7460,0.087971
1071.6096,0.089524
1073.4733,0.091107
1075.3370,0.092876
1077.2006,0.094903
1079.0643,0.097103
1080.9280,0.099438
1082.7916,0.102130
1084.6553,0.104991
1086.5190,0.108013
1088.3826,0.111492
1090.2463,0.115380
1092.1100,0.119736
1093.9737,0.124896
1095.8373,0.130641
1097.7010,0.136726
1099.5647,0.143345
1101.4283,0.150204
1103.2920,0.156569
1105.1557,0.161528
1107.0193,0.163205
1108.8830,0.159904
1110.7467,0.151699
1112.6103,0.140185
1114.4740,0.127666
1116.3377,0.116102
1118.2014,0.106578
1120.0650,0.099363
1121.9287,0.094300
1123.7924,0.090954
1125.6560,0.088529
1127.5197,0.086348
1129.3834,0.084119
1131.2470,0.081729
1133.1107,0.079287
1134.9744,0.077150
1136.8380,0.075394
1138.7017,0.074047
1140.5654,0.073219
1142.4290,0.072727
1144.2927,0.072327
1146.1564,0.071957
1148.0201,0.071786
1149.8837,0.071728
1151.7474,0.071842
1153.6111,0.072401
1155.4747,0.073193
1157.3384,0.074244
1159.2021,0.075690
1161.0657,0.077380
1162.9294,0.079456
1164.7931,0.081999
1166.6567,0.085062
1168.5204,0.088838
1170.3841,0.093093
1172.2477,0.096592
1174.1114,0.097258
1175.9751,0.093942
1177.8388,0.088414
1179.7024,0.083552
1181.5661,0.080491
1183.4298,0.078802
1185.2934,0.077833
1187.1571,0.077160
1189.0208,0.076485
1190.8844,0.075792
1192.7481,0.075286
1194.6118,0.075095
1196.4754,0.074983
1198.3391,0.074923
1200.2028,0.075107
1202.0665,0.075279
1203.9301,0.075275
1205.7938,0.075236
1207.6575,0.075275
1209.5211,0.075502
1211.3848,0.075869
1213.2485,0.076212
1215.1121,0.076655
1216.9758,0.077229
1218.8395,0.077621
1220.7031,0.077758
1222.5668,0.077769
1224.4305,0.077836
1226.2941,0.078059
1228.1578,0.078280
1230.0215,0.078584
1231.8852,0.079041
1233.7488,0.079481
1235.6125,0.079889
1237.4762,0.080363
1239.3398,0.080922
1241.2035,0.081458
1243.0672,0.082032
1244.9308,0.082679
1246.7945,0.083288
1248.6582,0.083870
1250.5218,0.084443
1252.3855,0.085108
1254.2492,0.085831
1256.1129,0.086389
1257.9765,0.086960
1259.8402,0.087879
1261.7039,0.089098
1263.5675,0.090517
1265.4312,0.091961
1267.2949,0.092772
1269.1585,0.092797
1271.0222,0.092619
1272.8859,0.092673
1274.7495,0.093152
1276.6132,0.094106
1278.4769,0.095461
1280.3405,0.097110
1282.2042,0.098885
1284.0679,0.100691
1285.9316,0.102666
1287.7952,0.104989
1289.6589,0.107622
1291.5226,0.110618
1293.3862,0.114339
1295.2499,0.119050
1297.1136,0.124606
1298.9772,0.130995
1300.8409,0.138820
1302.7046,0.147683
1304.5682,0.155046
1306.4319,0.156456
1308.2956,0.147231
1310.1592,0.127898
1312.0229,0.106737
1313.8866,0.091885
1315.7503,0.085585
1317.6139,0.084940
1319.4776,0.086987
1321.3413,0.089856
1323.2049,0.092940
1325.0686,0.096480
1326.9323,0.100260
1328.7959,0.103597
1330.6596,0.105777
1332.5233,0.106445
1334.3869,0.105833
1336.2506,0.104965
1338.1143,0.105224
1339.9780,0.106641
1341.8416,0.107031
1343.7053,0.106668
1345.5690,0.107174
1347.4326,0.108386
1349.2963,0.110081
1351.1600,0.112127
1353.0236,0.114474
1354.8873,0.117318
1356.7510,0.119927
1358.6146,0.121783
1360.4783,0.124168
1362.3420,0.128586
1364.2056,0.132500
1366.0693,0.134346
1367.9330,0.137679
1369.7967,0.141873
1371.6603,0.145330
1373.5240,0.150537
1375.3877,0.156358
1377.2513,0.159477
1379.1150,0.163197
1380.9787,0.168323
1382.8423,0.173787
1384.7060,0.180095
1386.5697,0.188689
1388.4333,0.198060
1390.2970,0.202895
1392.1607,0.205745
1394.0244,0.207497
1395.8880,0.203673
1397.7517,0.195789
1399.6154,0.186652
1401.4790,0.177298
1403.3427,0.169431
1405.2064,0.157748
1407.0700,0.140643
1408.9337,0.123331
1410.7974,0.107188
1412.6610,0.095046
1414.5247,0.088737
1416.3884,0.087567
1418.2520,0.092191
1420.1157,0.101362
1421.9794,0.105351
1423.8431,0.103148
1425.7067,0.093891
1427.5704,0.083335
1429.4341,0.076673
1431.2977,0.073716
1433.1614,0.072936
1435.0251,0.074120
1436.8887,0.078444
1438.7524,0.081316
1440.6161,0.081885
1442.4797,0.083518
1444.3434,0.085215
1446.2071,0.086677
1448.0707,0.087711
1449.9344,0.086096
1451.7981,0.082648
1453.6618,0.079275
1455.5254,0.078652
1457.3891,0.083620
1459.2528,0.085796
1461.1164,0.084311
1462.9801,0.084510
1464.8438,0.085822
1466.7074,0.084853
1468.5711,0.082150
1470.4348,0.080912
1472.2984,0.082527
1474.1621,0.084332
1476.0258,0.083121
1477.8895,0.081591
1479.7531,0.080690
1481.6168,0.081144
1483.4805,0.081447
1485.3441,0.081473
1487.2078,0.082805
1489.0715,0.086098
1490.9351,0.088703
1492.7988,0.087901
1494.6625,0.087447
1496.5261,0.090077
1498.3898,0.092858
1500.2535,0.092940
1502.1171,0.091725
1503.9808,0.091075
1505.8445,0.094446
1507.7082,0.104450
1509.5718,0.104288
1511.4355,0.103345
1513.2992,0.103905
1515.1628,0.105011
1517.0265,0.107201
1518.8902,0.108262
1520.7538,0.109868
1522.6175,0.113018
1524.4812,0.112572
1526.3448,0.113484
1528.2085,0.114214
1530.0722,0.113705
1531.9359,0.114816
1533.7995,0.118283
1535.6632,0.118249
1537.5269,0.117057
1539.3905,0.121430
1541.2542,0.131195
1543.1179,0.132862
1544.9815,0.134344
1546.8452,0.135415
1548.7089,0.136967
1550.5725,0.140330
1552.4362,0.142517
1554.2999,0.144000
1556.1635,0.146307
1558.0272,0.152343
1559.8909,0.166245
1561.7546,0.162279
1563.6182,0.160358
1565.4819,0.162180
1567.3456,0.164635
1569.2092,0.168648
1571.0729,0.172521
1572.9366,0.172811
1574.8002,0.175885
1576.6639,0.182756
1578.5276,0.184880
1580.3912,0.185058
1582.2549,0.187311
1584.1186,0.189491
1585.9822,0.191230
1587.8459,0.192470
1589.7096,0.193327
1591.5733,0.193318
1593.4369,0.192762
1595.3006,0.191758
1597.1643,0.190334
1599.0279,0.188398
1600.8916,0.186305
1602.7553,0.184338
1604.6189,0.182422
1606.4826,0.181023
1608.3463,0.179963
1610.2099,0.178020
1612.0736,0.174962
1613.9373,0.171700
1615.8010,0.168801
1617.6646,0.162013
1619.5283,0.153106
1621.3920,0.147695
1623.2556,0.141456
1625.1193,0.132795
1626.9830,0.124915
1628.8466,0.115662
1630.7103,0.105747
1632.5740,0.097843
1634.4376,0.090614
1636.3013,0.082102
1638.1650,0.075219
1640.0286,0.072354
1641.8923,0.070064
1643.7560,0.069368
1645.6197,0.070795
1647.4833,0.073999
1649.3470,0.075268
1651.2107,0.077084
1653.0743,0.083415
1654.9380,0.088906
1656.8017,0.087914
1658.6653,0.088888
1660.5290,0.090298
1662.3927,0.091316
1664.2563,0.090473
1666.1200,0.088989
1667.9837,0.088314
1669.8474,0.088007
1671.7110,0.086759
1673.5747,0.086657
1675.4384,0.088452
1677.3020,0.090320
1679.1657,0.091671
1681.0294,0.094687
1682.8930,0.098696
1684.7567,0.104146
1686.6204,0.104363
1688.4840,0.102986
1690.3477,0.100960
1692.2114,0.097626
1694.0750,0.094482
1695.9387,0.091010
1697.8024,0.085750
1699.6661,0.082450
1701.5297,0.074610
1703.3934,0.067493
1705.2571,0.060575
1707.1207,0.051010
1708.9844,0.043965
1710.8481,0.038967
1712.7117,0.034917
1714.5754,0.032429
1716.4391,0.030576
1718.3027,0.029521
1720.1664,0.027996
1722.0301,0.026858
1723.8937,0.025000
1725.7574,0.022485
1727.6211,0.020059
1729.4848,0.018120
1731.3484,0.016398
1733.2121,0.015393
1735.0758,0.013958
1736.9394,0.013211
1738.8031,0.012924
1740.6668,0.012560
1742.5304,0.012139
1744.3941,0.011888
1746.2578,0.011402
1748.1214,0.011202
1749.9851,0.010879
1751.8488,0.010668
1753.7125,0.010302
1755.5761,0.010271
1757.4398,0.010274
1759.3035,0.010270
1761.1671,0.010065
1763.0308,0.010125
1764.8945,0.010001
1766.7581,0.010041
1768.6218,0.010029
1770.4855,0.009771
1772.3491,0.009356
1774.2128,0.009379
1776.0765,0.009456
1777.9401,0.009781
1779.8038,0.009897
1781.6675,0.009869
1783.5312,0.009733
1785.3948,0.009992
1787.2585,0.010035
1789.1222,0.010049
1790.9858,0.009902
1792.8495,0.010078
1794.7132,0.010092
1796.5768,0.009994
1798.4405,0.009970
1800.3042,0.010177
1802.1678,0.010024
1804.0315,0.010005
1805.8952,0.010076
1807.7589,0.010420
1809.6225,0.010633
1811.4862,0.010598
1813.3499,0.010276
1815.2135,0.010183
1817.0772,0.010082
1818.9409,0.010277
1820.8045,0.010291
1822.6682,0.010189
1824.5319,0.010143
1826.3955,0.010324
1828.2592,0.010285
1830.1229,0.010291
1831.9865,0.009811
1833.8502,0.009542
1835.7139,0.009385
1837.5776,0.009757
1839.4412,0.009963
1841.3049,0.010122
1843.1686,0.010068
1845.0322,0.009945
1846.8959,0.009648
1848.7596,0.009968
1850.6232,0.009847
1852.4869,0.009808
1854.3506,0.009857
1856.2142,0.009927
1858.0779,0.010135
1859.9416,0.010448
1861.8052,0.010247
1863.6689,0.010111
1865.5326,0.009933
1867.3963,0.010058
1869.2599,0.010195
1871.1236,0.010081
1872.9873,0.009858
1874.8509,0.010048
1876.7146,0.009949
1878.5783,0.009943
1880.4419,0.009925
1882.3056,0.010280
1884.1693,0.010484
1886.0329,0.010431
1887.8966,0.009924
1889.7603,0.009502
1891.6240,0.009229
1893.4876,0.009947
1895.3513,0.010308
1897.2150,0.010066
1899.0786,0.009631
1900.9423,0.009966
1902.8060,0.010343
1904.6696,0.010429
1906.5333,0.010177
1908.3970,0.010225
1910.2606,0.009943
1912.1243,0.009942
1913.9880,0.010216
1915.8516,0.010488
1917.7153,0.010087
1919.5790,0.010004
1921.4427,0.009813
1923.3063,0.009941
1925.1700,0.010164
1927.0337,0.009876
1928.8973,0.009467
1930.7610,0.009896
1932.6247,0.010250
1934.4883,0.010296
1936.3520,0.009934
1938.2157,0.009918
1940.0793,0.009266
1941.9430,0.009177
1943.8067,0.009007
1945.6704,0.009484
1947.5340,0.008876
1949.3977,0.008552
1951.2614,0.008285
1953.1250,0.008514
1954.9887,0.008428
1956.8524,0.008039
1958.7160,0.007038
1960.5797,0.007587
1962.4434,0.007351
1964.3070,0.005974
1966.1707,0.003690
1968.0344,0.003590
1969.8980,0.002990
1971.7617,0.002883
1973.6254,0.003103
1975.4891,0.003632
1977.3527,0.003386
1979.2164,0.005607
1981.0801,0.007305
1982.9437,0.007669
1984.8074,0.006840
1986.6711,0.007236
1988.5347,0.007285
1990.3984,0.007186
1992.2621,0.007025
1994.1257,0.007077
1995.9894,0.006347
1997.8531,0.006779
1999.7167,0.007648
2001.5804,0.008989
2003.4441,0.008564
2005.3078,0.007285
2007.1714,0.005750
2009.0351,0.005364
2010.8988,0.004861
2012.7624,0.004360
2014.6261,0.004343
2016.4898,0.005462
2018.3534,0.005166
2020.2171,0.005708
2022.0808,0.005307
2023.9444,0.005045
2025.8081,0.005241
2027.6718,0.006337
2029.5355,0.005396
2031.3991,0.004700
2033.2628,0.004980
2035.1265,0.006405
2036.9901,0.007335
2038.8538,0.007110
2040.7175,0.005968
2042.5811,0.006760
2044.4448,0.007704
2046.3085,0.008391
2048.1721,0.008450
2050.0358,0.009374
2051.8995,0.010137
2053.7631,0.010949
2055.6268,0.011339
2057.4905,0.011607
2059.3542,0.011017
2061.2178,0.011525
2063.0815,0.012021
2064.9452,0.012124
2066.8088,0.011974
2068.6725,0.011748
2070.5362,0.011467
2072.3998,0.012797
2074.2635,0.013531
2076.1272,0.013330
2077.9908,0.012964
2079.8545,0.012777
2081.7182,0.013036
2083.5819,0.013625
2085.4455,0.013115
2087.3092,0.013136
2089.1729,0.013872
2091.0365,0.014054
2092.9002,0.013912
2094.7639,0.014096
2096.6275,0.013577
2098.4912,0.013437
2100.3549,0.013630
2102.2185,0.014018
2104.0822,0.014080
2105.9459,0.014172
2107.8095,0.014178
2109.6732,0.014377
2111.5369,0.014599
2113.4006,0.014972
2115.2642,0.014759
2117.1279,0.014284
2118.9916,0.014255
2120.8552,0.014347
2122.7189,0.014453
2124.5826,0.014602
2126.4462,0.014354
2128.3099,0.014359
2130.1736,0.014049
2132.0372,0.013294
2133.9009,0.011839
2135.7646,0.011595
2137.6282,0.012495
2139.4919,0.012537
2141.3556,0.011995
2143.2193,0.011090
2145.0829,0.010655
2146.9466,0.010530
2148.8103,0.009437
2150.6739,0.009775
2152.5376,0.008882
2154.4013,0.007642
2156.2649,0.007190
2158.1286,0.007203
2159.9923,0.006764
2161.8559,0.007464
2163.7196,0.006433
2165.5833,0.005947
2167.4470,0.006637
2169.3106,0.008900
2171.1743,0.010390
2173.0380,0.011700
2174.9016,0.010908
2176.7653,0.010957
2178.6290,0.009444
2180.4926,0.009110
2182.3563,0.009538
2184.2200,0.010397
2186.0836,0.010398
2187.9473,0.011517
2189.8110,0.012298
2191.6746,0.012484
2193.5383,0.012362
2195.4020,0.012108
2197.2657,0.012235
2199.1293,0.013223
2200.9930,0.013016
2202.8567,0.012911
2204.7203,0.013067
2206.5840,0.013722
2208.4477,0.014704
2210.3113,0.014823
2212.1750,0.014070
2214.0387,0.014311
2215.9023,0.014346
2217.7660,0.014788
2219.6297,0.015318
2221.4934,0.014819
2223.3570,0.014586
2225.2207,0.015614
2227.0844,0.015952
2228.9480,0.015859
2230.8117,0.015600
2232.6754,0.016250
2234.5390,0.016851
2236.4027,0.017068
2238.2664,0.016590
2240.1300,0.017174
2241.9937,0.017513
2243.8574,0.017447
2245.7210,0.016805
2247.5847,0.016735
2249.4484,0.017640
2251.3121,0.018458
2253.1757,0.017841
2255.0394,0.017681
2256.9031,0.017966
2258.7667,0.018254
2260.6304,0.018526
2262.4941,0.018890
2264.3577,0.018948
2266.2214,0.018839
2268.0851,0.018804
2269.9487,0.019959
2271.8124,0.020806
2273.6761,0.020581
2275.5397,0.020571
2277.4034,0.021187
2279.2671,0.021156
2281.1308,0.021041
2282.9944,0.021686
2284.8581,0.022427
2286.7218,0.022454
2288.5854,0.022480
2290.4491,0.022548
2292.3128,0.022631
2294.1764,0.022282
2296.0401,0.022009
2297.9038,0.021991
2299.7674,0.022480
2301.6311,0.022661
2303.4948,0.022577
2305.3585,0.022568
2307.2221,0.022542
2309.0858,0.022817
2310.9495,0.023150
2312.8131,0.022989
2314.6768,0.022645
2316.5405,0.022668
2318.4041,0.022797
2320.2678,0.023107
2322.1315,0.023314
2323.9951,0.023168
2325.8588,0.022848
2327.7225,0.022393
2329.5861,0.022234
2331.4498,0.021897
2333.3135,0.021570
2335.1772,0.021631
2337.0408,0.021732
2338.9045,0.021632
2340.7682,0.021824
2342.6318,0.021937
2344.4955,0.022162
2346.3592,0.022437
2348.2228,0.022022
2350.0865,0.021399
2351.9502,0.021323
2353.8138,0.021153
2355.6775,0.021201
2357.5412,0.021144
2359.4049,0.020957
2361.2685,0.021087
2363.1322,0.021195
2364.9959,0.021474
2366.8595,0.021658
2368.7232,0.021888
2370.5869,0.022250
2372.4505,0.022678
2374.3142,0.022701
2376.1779,0.022594
2378.0415,0.022964
2379.9052,0.023093
2381.7689,0.022809
2383.6325,0.022654
2385.4962,0.022697
2387.3599,0.022918
2389.2236,0.022907
2391.0872,0.022705
2392.9509,0.022797
2394.8146,0.022908
2396.6782,0.022894
2398.5419,0.022652
2400.4056,0.022888
2402.2692,0.023261
2404.1329,0.023441
2405.9966,0.023789
2407.8602,0.024153
2409.7239,0.024111
2411.5876,0.023745
2413.4512,0.023689
2415.3149,0.023852
2417.1786,0.023829
2419.0423,0.023940
2420.9059,0.023909
2422.7696,0.024072
2424.6333,0.024438
2426.4969,0.024502
2428.3606,0.024334
2430.2243,0.024308
2432.0879,0.024149
2433.9516,0.024292
2435.8153,0.024582
2437.6789,0.025162
2439.5426,0.025207
2441.4063,0.024895
2443.2700,0.024390
2445.1336,0.024164
2446.9973,0.024352
2448.8610,0.024555
2450.7246,0.024849
2452.5883,0.024989
2454.4520,0.024824
2456.3156,0.024874
2458.1793,0.024949
2460.0430,0.024720
2461.9066,0.024452
2463.7703,0.024416
2465.6340,0.024413
2467.4976,0.024287
2469.3613,0.024450
2471.2250,0.024783
2473.0887,0.024851
2474.9523,0.024780
2476.8160,0.025008
2478.6797,0.024968
2480.5433,0.024599
2482.4070,0.024414
2484.2707,0.024619
2486.1343,0.025168
2487.9980,0.025478
2489.8617,0.025592
2491.7253,0.025412
2493.5890,0.025739
2495.4527,0.025949
2497.3164,0.026210
2499.1800,0.026379
2501.0437,0.025997
2502.9074,0.026229
2504.7710,0.026535
2506.6347,0.026638
2508.4984,0.026825
2510.3620,0.026898
2512.2257,0.026818
2514.0894,0.026593
2515.9530,0.026749
2517.8167,0.027377
2519.6804,0.027459
2521.5440,0.027206
2523.4077,0.027312
2525.2714,0.027589
2527.1351,0.027988
2528.9987,0.027799
2530.8624,0.027837
2532.7261,0.027712
2534.5897,0.027528
2536.4534,0.027864
2538.3171,0.028080
2540.1807,0.027976
2542.0444,0.027969
2543.9081,0.028056
2545.7717,0.028294
2547.6354,0.028438
2549.4991,0.028506
2551.3627,0.028375
2553.2264,0.028130
2555.0901,0.028118
2556.9538,0.028497
2558.8174,0.028930
2560.6811,0.028914
2562.5448,0.029089
2564.4084,0.029084
2566.2721,0.029046
2568.1358,0.029138
2569.9994,0.029198
2571.8631,0.029470
2573.7268,0.029783
2575.5904,0.029696
2577.4541,0.030121
2579.3178,0.030676
2581.1815,0.030779
2583.0451,0.030651
2584.9088,0.030489
2586.7725,0.030686
2588.6361,0.031030
2590.4998,0.031391
2592.3635,0.031463
2594.2271,0.031576
2596.0908,0.031773
2597.9545,0.031983
2599.8181,0.032329
2601.6818,0.032640
2603.5455,0.032789
2605.4091,0.032883
2607.2728,0.032908
2609.1365,0.033315
2611.0002,0.033118
2612.8638,0.032816
2614.7275,0.033076
2616.5912,0.033414
2618.4548,0.033556
2620.3185,0.033702
2622.1822,0.034206
2624.0458,0.034509
2625.9095,0.034672
2627.7732,0.035110
2629.6368,0.035423
2631.5005,0.035663
2633.3642,0.035808
2635.2279,0.035850
2637.0915,0.036317
2638.9552,0.036712
2640.8189,0.036846
2642.6825,0.037035
2644.5462,0.037386
2646.4099,0.037587
2648.2735,0.037894
2650.1372,0.038226
2652.0009,0.038322
2653.8645,0.038308
2655.7282,0.038250
2657.5919,0.038418
2659.4555,0.038719
2661.3192,0.038764
2663.1829,0.038644
2665.0466,0.038818
2666.9102,0.038897
2668.7739,0.038930
2670.6376,0.039126
2672.5012,0.039270
2674.3649,0.039542
2676.2286,0.039808
2678.0922,0.040085
2679.9559,0.040325
2681.8196,0.040519
2683.6832,0.040721
2685.5469,0.040883
2687.4106,0.041128
2689.2742,0.041386
2691.1379,0.041422
2693.0016,0.041715
2694.8653,0.042249
2696.7289,0.042650
2698.5926,0.043059
2700.4563,0.043331
2702.3199,0.043642
2704.1836,0.044103
2706.0473,0.044484
2707.9109,0.044831
2709.7746,0.045137
2711.6383,0.045517
2713.5019,0.045796
2715.3656,0.046259
2717.2293,0.046638
2719.0930,0.047004
2720.9566,0.047433
2722.8203,0.047852
2724.6840,0.048339
2726.5476,0.049075
2728.4113,0.049604
2730.2750,0.049990
2732.1386,0.050504
2734.0023,0.051063
2735.8660,0.051470
2737.7296,0.052035
2739.5933,0.052552
2741.4570,0.052943
2743.3206,0.053378
2745.1843,0.053779
2747.0480,0.054293
2748.9117,0.055169
2750.7753,0.056141
2752.6390,0.056816
2754.5027,0.057125
2756.3663,0.057627
2758.2300,0.058346
2760.0937,0.058904
2761.9573,0.059530
2763.8210,0.060347
2765.6847,0.060981
2767.5483,0.061563
2769.4120,0.062117
2771.2757,0.062728
2773.1394,0.063536
2775.0030,0.064570
2776.8667,0.065583
2778.7304,0.066233
2780.5940,0.066514
2782.4577,0.066743
2784.3214,0.066757
2786.1850,0.066762
2788.0487,0.066630
2789.9124,0.066551
2791.7760,0.066207
2793.6397,0.065448
2795.5034,0.064604
2797.3670,0.064217
2799.2307,0.064018
2801.0944,0.063597
2802.9581,0.062745
2804.8217,0.062089
2806.6854,0.061892
2808.5491,0.061862
2810.4127,0.061700
2812.2764,0.061638
2814.1401,0.061513
2816.0037,0.061339
2817.8674,0.061327
2819.7311,0.061436
2821.5947,0.061756
2823.4584,0.062310
2825.3221,0.062256
2827.1857,0.062058
2829.0494,0.061758
2830.9131,0.061293
2832.7768,0.061094
2834.6404,0.061181
2836.5041,0.061130
2838.3678,0.061274
2840.2314,0.061912
2842.0951,0.062287
2843.9588,0.062489
2845.8224,0.062861
2847.6861,0.063180
2849.5498,0.063739
2851.4134,0.064563
2853.2771,0.065425
2855.1408,0.066033
2857.0045,0.066783
2858.8681,0.067771
2860.7318,0.068583
2862.5955,0.068963
2864.4591,0.069298
2866.3228,0.069529
2868.1865,0.069741
2870.0501,0.069942
2871.9138,0.070262
2873.7775,0.070825
2875.6411,0.071334
2877.5048,0.071637
2879.3685,0.071818
2881.2321,0.071689
2883.0958,0.072166
2884.9595,0.073118
2886.8232,0.073803
2888.6868,0.074254
2890.5505,0.074891
2892.4142,0.075446
2894.2778,0.075960
2896.1415,0.076152
2898.0052,0.076576
2899.8688,0.077176
2901.7325,0.077194
2903.5962,0.076826
2905.4598,0.077072
2907.3235,0.076920
2909.1872,0.077011
2911.0509,0.077738
2912.9145,0.078409
2914.7782,0.078893
2916.6419,0.079677
2918.5055,0.080252
2920.3692,0.080720
2922.2329,0.081366
2924.0965,0.082018
2925.9602,0.082515
2927.8239,0.083183
2929.6875,0.083700
2931.5512,0.084539
2933.4149,0.085609
2935.2785,0.086465
2937.1422,0.087181
2939.0059,0.087951
2940.8696,0.088557
2942.7332,0.088661
2944.5969,0.088464
2946.4606,0.088631
2948.3242,0.088717
2950.1879,0.088855
2952.0516,0.088979
2953.9152,0.089111
2955.7789,0.089690
2957.6426,0.090343
2959.5062,0.090273
2961.3699,0.090444
2963.2336,0.091348
2965.0972,0.092649
2966.9609,0.093811
2968.8246,0.094829
2970.6883,0.095721
2972.5519,0.096924
2974.4156,0.097707
2976.2793,0.098527
2978.1429,0.099259
2980.0066,0.099896
2981.8703,0.100466
2983.7339,0.100768
2985.5976,0.100437
2987.4613,0.100985
2989.3249,0.102112
2991.1886,0.103359
2993.0523,0.104103
2994.9160,0.104588
2996.7796,0.105001
2998.6433,0.105750
3000.5070,0.106661
3002.3706,0.107400
3004.2343,0.108201
3006.0980,0.109211
3007.9616,0.109412
3009.8253,0.109919
3011.6890,0.111147
3013.5526,0.112137
3015.4163,0.112748
3017.2800,0.113494
3019.1436,0.113647
3021.0073,0.113970
3022.8710,0.114515
3024.7347,0.114876
3026.5983,0.114979
3028.4620,0.115200
3030.3257,0.115283
3032.1893,0.116010
3034.0530,0.116767
3035.9167,0.117213
3037.7803,0.117242
3039.6440,0.117446
3041.5077,0.117828
3043.3713,0.118322
3045.2350,0.118638
3047.0987,0.119170
3048.9624,0.119389
3050.8260,0.119435
3052.6897,0.119523
3054.5534,0.119955
3056.4170,0.120274
3058.2807,0.120803
3060.1444,0.120761
3062.0080,0.120553
3063.8717,0.120434
3065.7354,0.121025
3067.5990,0.121135
3069.4627,0.120711
3071.3264,0.120340
3073.1900,0.120309
3075.0537,0.120098
3076.9174,0.120115
3078.7811,0.119946
3080.6447,0.119826
3082.5084,0.119717
3084.3721,0.119280
3086.2357,0.118367
3088.0994,0.117816
3089.9631,0.117113
3091.8267,0.116501
3093.6904,0.115590
3095.5541,0.114403
3097.4177,0.113550
3099.2814,0.113009
3101.1451,0.112532
3103.0087,0.111676
3104.8724,0.110035
3106.7361,0.109221
3108.5998,0.108546
3110.4634,0.107639
3112.3271,0.106318
3114.1908,0.105227
3116.0544,0.104600
3117.9181,0.104310
3119.7818,0.103690
3121.6454,0.103141
3123.5091,0.102417
3125.3728,0.100929
3127.2364,0.099435
3129.1001,0.098805
3130.9638,0.097974
3132.8275,0.097384
3134.6911,0.096680
3136.5548,0.096042
3138.4185,0.095792
3140.2821,0.095646
3142.1458,0.095108
3144.0095,0.094278
3145.8731,0.093421
3147.7368,0.092960
3149.6005,0.092350
3151.4641,0.091601
3153.3278,0.091425
3155.1915,0.091638
3157.0551,0.090954
3158.9188,0.089337
3160.7825,0.088298
3162.6462,0.087983
3164.5098,0.087503
3166.3735,0.086679
3168.2372,0.085851
3170.1008,0.085882
3171.9645,0.085555
3173.8282,0.084816
3175.6918,0.084410
3177.5555,0.084339
3179.4192,0.083884
3181.2828,0.083090
3183.1465,0.082179
3185.0102,0.081815
3186.8739,0.081618
3188.7375,0.081446
3190.6012,0.081218
3192.4649,0.081388
3194.3285,0.081659
3196.1922,0.081544
3198.0559,0.081040
3199.9195,0.080947
3201.7832,0.080822
3203.6469,0.080689
3205.5105,0.080651
3207.3742,0.080800
3209.2379,0.080960
3211.1015,0.080987
3212.9652,0.080668
3214.8289,0.081010
3216.6926,0.081248
3218.5562,0.081526
3220.4199,0.081469
3222.2836,0.081093
3224.1472,0.081011
3226.0109,0.081560
3227.8746,0.081778
3229.7382,0.081446
3231.6019,0.081429
3233.4656,0.082379
3235.3292,0.083250
3237.1929,0.083468
3239.0566,0.082939
3240.9202,0.082582
3242.7839,0.082957
3244.6476,0.083566
3246.5113,0.083796
3248.3749,0.084404
3250.2386,0.085393
3252.1023,0.085914
3253.9659,0.086014
3255.8296,0.086241
3257.6933,0.086394
3259.5569,0.086763
3261.4206,0.086995
3263.2843,0.087267
3265.1479,0.087667
3267.0116,0.088120
3268.8753,0.088422
3270.7390,0.088644
3272.6026,0.088601
3274.4663,0.088543
3276.3300,0.088604
3278.1936,0.089062
3280.0573,0.089210
3281.9210,0.088221
3283.7846,0.087147
3285.6483,0.086908
3287.5120,0.086855
3289.3756,0.086686
3291.2393,0.085580
3293.1030,0.084519
3294.9666,0.084340
3296.8303,0.083813
3298.6940,0.082803
3300.5577,0.081869
3302.4213,0.080496
3304.2850,0.079496
3306.1487,0.078567
3308.0123,0.078155
3309.8760,0.077723
3311.7397,0.077046
3313.6033,0.075964
3315.4670,0.075437
3317.3307,0.076051
3319.1943,0.076648
3321.0580,0.076607
3322.9217,0.076852
3324.7854,0.076400
3326.6490,0.076210
3328.5127,0.076610
3330.3764,0.077072
3332.2400,0.076865
3334.1037,0.076856
3335.9674,0.077020
3337.8310,0.076427
3339.6947,0.074907
3341.5584,0.073902
3343.4220,0.073215
3345.2857,0.072106
3347.1494,0.070628
3349.0130,0.069677
3350.8767,0.068948
3352.7404,0.067547
3354.6041,0.066301
3356.4677,0.065700
3358.3314,0.064522
3360.1951,0.062656
3362.0587,0.061558
3363.9224,0.060519
3365.7861,0.059624
3367.6497,0.058621
3369.5134,0.057331
3371.3771,0.058191
3373.2407,0.059514
3375.1044,0.059239
3376.9681,0.058318
3378.8317,0.058160
3380.6954,0.058899
3382.5591,0.059846
3384.4228,0.059201
3386.2864,0.058516
3388.1501,0.059203
3390.0138,0.059130
3391.8774,0.059441
3393.7411,0.060416
3395.6048,0.060534
3397.4684,0.060593
3399.3321,0.060498
3401.1958,0.060722
3403.0594,0.060945
3404.9231,0.060545
3406.7868,0.058823
3408.6505,0.056662
3410.5141,0.054738
3412.3778,0.053335
3414.2415,0.052784
3416.1051,0.051018
3417.9688,0.048396
3419.8325,0.046757
3421.6961,0.045650
3423.5598,0.044086
3425.4235,0.041612
3427.2871,0.040022
3429.1508,0.039282
3431.0145,0.037394
3432.8781,0.035326
3434.7418,0.034252
3436.6055,0.033740
3438.4692,0.033269
3440.3328,0.033139
3442.1965,0.032656
3444.0602,0.031166
3445.9238,0.029727
3447.7875,0.028640
3449.6512,0.028065
3451.5148,0.027847
3453.3785,0.027415
3455.2422,0.026993
3457.1058,0.026432
3458.9695,0.025537
3460.8332,0.025219
3462.6969,0.024933
3464.5605,0.024266
3466.4242,0.024393
3468.2879,0.024482
3470.1515,0.023942
3472.0152,0.023355
3473.8789,0.022754
3475.7425,0.021364
3477.6062,0.020306
3479.4699,0.020695
3481.3335,0.021425
3483.1972,0.021938
3485.0609,0.021006
3486.9245,0.019274
3488.7882,0.018485
3490.6519,0.017781
3492.5156,0.017116
3494.3792,0.017206
3496.2429,0.017426
3498.1066,0.017259
3499.9702,0.016938
3501.8339,0.016727
3503.6976,0.016225
3505.5612,0.015587
3507.4249,0.015503
3509.2886,0.015187
3511.1522,0.014427
3513.0159,0.013996
3514.8796,0.013552
3516.7432,0.013182
3518.6069,0.012847
3520.4706,0.013104
3522.3343,0.013583
3524.1979,0.013103
3526.0616,0.012090
3527.9253,0.011482
3529.7889,0.011176
3531.6526,0.011812
3533.5163,0.011603
3535.3799,0.010578
3537.2436,0.010903
3539.1073,0.010894
3540.9709,0.010198
3542.8346,0.009509
3544.6983,0.009389
3546.5620,0.009186
3548.4256,0.008620
3550.2893,0.009094
3552.1530,0.010157
3554.0166,0.010324
3555.8803,0.009210
3557.7440,0.008624
3559.6076,0.009075
3561.4713,0.009005
3563.3350,0.008072
3565.1986,0.007393
3567.0623,0.007174
3568.9260,0.007075
3570.7896,0.007643
3572.6533,0.008257
3574.5170,0.007897
3576.3807,0.007482
3578.2443,0.008228
3580.1080,0.009281
3581.9717,0.009128
3583.8353,0.008040
3585.6990,0.007677
3587.5627,0.006848
3589.4263,0.005419
3591.2900,0.005857
3593.1537,0.007127
3595.0173,0.008057
3596.8810,0.008762
3598.7447,0.008614
3600.6084,0.007750
3602.4720,0.007898
3604.3357,0.008240
3606.1994,0.008104
3608.0630,0.008222
3609.9267,0.007631
3611.7904,0.007094
3613.6540,0.006562
3615.5177,0.005716
3617.3814,0.006516
3619.2450,0.007465
3621.1087,0.007530
3622.9724,0.007872
3624.8360,0.007860
3626.6997,0.007631
3628.5634,0.007625
3630.4271,0.007029
3632.2907,0.006733
3634.1544,0.007464
3636.0181,0.008088
3637.8817,0.008203
3639.7454,0.008181
3641.6091,0.008325
3643.4727,0.008661
3645.3364,0.008678
3647.2001,0.007641
3649.0637,0.006202
3650.9274,0.006236
3652.7911,0.007404
3654.6547,0.008526
3656.5184,0.009374
3658.3821,0.009149
3660.2458,0.008209
3662.1094,0.008337
3663.9731,0.009051
3665.8368,0.009319
3667.7004,0.009660
3669.5641,0.010168
3671.4278,0.009682
3673.2914,0.009688
3675.1551,0.010866
3677.0188,0.010301
3678.8824,0.008059
3680.7461,0.007631
3682.6098,0.007795
3684.4735,0.008254
3686.3371,0.008766
3688.2008,0.008733
3690.0645,0.007642
3691.9281,0.006722
3693.7918,0.007401
3695.6555,0.008660
3697.5191,0.009239
3699.3828,0.009432
3701.2465,0.009793
3703.1101,0.009206
3704.9738,0.008555
3706.8375,0.008760
3708.7011,0.008914
3710.5648,0.008745
3712.4285,0.008348
3714.2922,0.008040
3716.1558,0.008542
3718.0195,0.008937
3719.8832,0.008651
3721.7468,0.008390
3723.6105,0.008636
3725.4742,0.008697
3727.3378,0.008575
3729.2015,0.008617
3731.0652,0.008611
3732.9288,0.008103
3734.7925,0.006885
3736.6562,0.007131
3738.5199,0.007999
3740.3835,0.008485
3742.2472,0.008885
3744.1109,0.008672
3745.9745,0.007867
3747.8382,0.007218
3749.7019,0.007420
3751.5655,0.007272
3753.4292,0.007852
3755.2929,0.009085
3757.1565,0.009443
3759.0202,0.009405
3760.8839,0.009422
3762.7475,0.010241
3764.6112,0.010566
3766.4749,0.010177
3768.3386,0.010319
3770.2022,0.010400
3772.0659,0.010046
3773.9296,0.009956
3775.7932,0.010159
3777.6569,0.010455
3779.5206,0.010510
3781.3842,0.010283
3783.2479,0.010591
3785.1116,0.010492
3786.9752,0.010224
3788.8389,0.010660
3790.7026,0.011060
3792.5662,0.010858
3794.4299,0.010440
3796.2936,0.010350
3798.1573,0.010794
3800.0209,0.010707
3801.8846,0.009660
3803.7483,0.009190
3805.6119,0.010261
3807.4756,0.010854
3809.3393,0.010652
3811.2029,0.010606
3813.0666,0.010699
3814.9303,0.010401
3816.7939,0.009715
3818.6576,0.009230
3820.5213,0.009850
3822.3850,0.010214
3824.2486,0.009952
3826.1123,0.010659
3827.9760,0.010853
3829.8396,0.010706
3831.7033,0.010573
3833.5670,0.010027
3835.4306,0.009869
3837.2943,0.010062
3839.1580,0.009805
3841.0216,0.009888
3842.8853,0.010476
3844.7490,0.010390
3846.6126,0.010057
3848.4763,0.010170
3850.3400,0.010790
3852.2037,0.011082
3854.0673,0.010314
3855.9310,0.009638
3857.7947,0.009776
3859.6583,0.010219
3861.5220,0.010929
3863.3857,0.011461
3865.2493,0.011213
3867.1130,0.010619
3868.9767,0.010550
3870.8403,0.010278
3872.7040,0.010295
3874.5677,0.011145
3876.4314,0.011566
3878.2950,0.011563
3880.1587,0.011597
3882.0224,0.011573
3883.8860,0.011643
3885.7497,0.011818
3887.6134,0.011790
3889.4770,0.011100
3891.3407,0.011006
3893.2044,0.011448
3895.0680,0.011487
3896.9317,0.011520
3898.7954,0.011411
3900.6590,0.011775
3902.5227,0.012519
3904.3864,0.012354
3906.2501,0.011687
3908.1137,0.011365
3909.9774,0.011892
3911.8411,0.012296
3913.7047,0.011752
3915.5684,0.011395
3917.4321,0.011765
3919.2957,0.011974
3921.1594,0.012152
3923.0231,0.012485
3924.8867,0.013008
3926.7504,0.012746
3928.6141,0.012405
3930.4777,0.012482
3932.3414,0.012602
3934.2051,0.013002
3936.0688,0.013131
3937.9324,0.012446
3939.7961,0.011784
3941.6598,0.012031
3943.5234,0.012464
3945.3871,0.012000
3947.2508,0.012082
3949.1144,0.012768
3950.9781,0.012905
3952.8418,0.012869
3954.7054,0.013028
3956.5691,0.013260
3958.4328,0.013166
3960.2965,0.012967
3962.1601,0.012734
3964.0238,0.012705
3965.8875,0.013006
3967.7511,0.013214
3969.6148,0.013359
3971.4785,0.013176
3973.3421,0.012533
3975.2058,0.012698
3977.0695,0.013007
3978.9331,0.013131
3980.7968,0.013333
3982.6605,0.013194
3984.5241,0.013020
3986.3878,0.013015
3988.2515,0.012887
3990.1152,0.012824
3991.9788,0.012775
3993.8425,0.012717
3995.7062,0.012848
3997.5698,0.013053
3999.4335,0.012702
