Wavenumber,Intensity
650.4205,0.240499
652.2841,0.234607
654.1478,0.233630
656.0115,0.231983
657.8751,0.231405
659.7388,0.228638
661.6025,0.227436
663.4661,0.228946
665.3298,0.230206
667.1935,0.231624
669.0571,0.231703
670.9208,0.226276
672.7845,0.222861
674.6481,0.219479
676.5118,0.218321
678.3755,0.218246
680.2392,0.218258
682.1028,0.217681
683.9665,0.216286
685.8302,0.214707
687.6938,0.216021
689.5575,0.217358
691.4212,0.217572
693.2848,0.216655
695.1485,0.216662
697.0122,0.217247
698.8758,0.218788
700.7395,0.219412
702.6032,0.218760
704.4669,0.215611
706.3305,0.209304
708.1942,0.200389
710.0579,0.190164
711.9215,0.179763
713.7852,0.171216
715.6489,0.162750
717.5125,0.154521
719.3762,0.148119
721.2399,0.142803
723.1035,0.136784
724.9672,0.131349
726.8309,0.126238
728.6945,0.120752
730.5582,0.115448
732.4219,0.110481
734.2856,0.106035
736.1492,0.103265
738.0129,0.101779
739.8766,0.101823
741.7402,0.104328
743.6039,0.108006
745.4676,0.110275
747.3312,0.111007
749.1949,0.109730
751.0586,0.108114
752.9222,0.107267
754.7859,0.106937
756.6496,0.106772
758.5132,0.105774
760.3769,0.103811
762.2406,0.102391
764.1043,0.101662
765.9679,0.100901
767.8316,0.100277
769.6953,0.100553
771.5589,0.101042
773.4226,0.101202
775.2863,0.101542
777.1499,0.102611
779.0136,0.103854
780.8773,0.105277
782.7409,0.106706
784.6046,0.108168
786.4683,0.110504
788.3320,0.113569
790.1956,0.116235
792.0593,0.118390
793.9230,0.120427
795.7866,0.122217
797.6503,0.123739
799.5140,0.124973
801.3776,0.125890
803.2413,0.126311
805.1050,0.125972
806.9686,0.124899
808.8323,0.123092
810.6960,0.120400
812.5596,0.116765
814.4233,0.112909
816.2870,0.109487
818.1507,0.106384
820.0143,0.103399
821.8780,0.101012
823.7417,0.099940
825.6053,0.100452
827.4690,0.102691
829.3327,0.104422
831.1963,0.099010
833.0600,0.086214
834.9237,0.074915
836.7873,0.069516
838.6510,0.067550
840.5147,0.066730
842.3784,0.066875
844.2420,0.067659
846.1057,0.068601
847.9694,0.068780
849.8330,0.067266
851.6967,0.065284
853.5604,0.064522
855.4240,0.064467
857.2877,0.063965
859.1514,0.062790
861.0150,0.061671
862.8787,0.061010
864.7424,0.060773
866.6060,0.060841
868.4697,0.060947
870.3334,0.061163
872.1971,0.061506
874.0607,0.061651
875.9244,0.062046
877.7881,0.062773
879.6517,0.063375
881.5154,0.063629
883.3791,0.064172
885.2427,0.064808
887.1064,0.065334
888.9701,0.066222
890.8337,0.067165
892.6974,0.068205
894.5611,0.069844
896.4247,0.071669
898.2884,0.072957
900.1521,0.074012
902.0158,0.075851
903.8794,0.078797
905.7431,0.082987
907.6068,0.088383
909.4704,0.094306
911.3341,0.101320
913.1978,0.110175
915.0614,0.115488
916.9251,0.107946
918.7888,0.090938
920.6524,0.076999
922.5161,0.070635
924.3798,0.068840
926.2435,0.068697
928.1071,0.069056
929.9708,0.069512
931.8345,0.070292
933.6981,0.071282
935.5618,0.072241
937.4255,0.073293
939.2891,0.074311
941.1528,0.075259
943.0165,0.076403
944.8801,0.077573
946.7438,0.078733
948.6075,0.080023
950.4711,0.081242
952.3348,0.082465
954.1985,0.083853
956.0622,0.085241
957.9258,0.086706
959.7895,0.088351
961.6532,0.090075
963.5168,0.091996
965.3805,0.094375
967.2442,0.097227
969.1078,0.100576
970.9715,0.104116
972.8352,0.108200
974.6988,0.114615
976.5625,0.125726
978.4262,0.145071
980.2899,0.172104
982.1535,0.183453
984.0172,0.154439
985.8809,0.114813
987.7445,0.096237
989.6082,0.093206
991.4719,0.094124
993.3355,0.095720
995.1992,0.097356
997.0629,0.098581
998.9265,0.099499
1000.7902,0.100604
1002.6539,0.102000
1004.5175,0.103596
1006.3812,0.105420
1008.2449,0.107280
1010.1086,0.109073
1011.9722,0.110710
1013.8359,0.111885
1015.6996,0.112591
1017.5632,0.112973
1019.4269,0.112989
1021.2906,0.112555
1023.1542,0.111685
1025.0179,0.110499
1026.8816,0.109384
1028.7452,0.108765
1030.6089,0.108686
1032.4726,0.109155
1034.3362,0.110082
1036.1999,0.111453
1038.0636,0.113510
1039.9273,0.116221
1041.7909,0.119674
1043.6546,0.124002
1045.5183,0.128581
1047.3819,0.132061
1049.2456,0.132117
1051.1093,0.126481
1052.9729,0.116329
1054.8366,0.106131
1056.7003,0.099306
1058.5639,0.096098
1060.4276,0.094875
1062.2913,0.094294
1064.1550,0.094263
1066.0186,0.094960
1067.8823,0.096188
1069.7460,0.097674
1071.6096,0.099358
1073.4733,0.101248
1075.3370,0.103308
1077.2006,0.105517
1079.0643,0.107980
1080.9280,0.110812
1082.7916,0.113858
1084.6553,0.117060
1086.5190,0.120515
1088.3826,0.124465
1090.2463,0.129267
1092.1100,0.134961
1093.9737,0.141420
1095.8373,0.148523
1097.7010,0.156222
1099.5647,0.164437
1101.4283,0.172833
1103.2920,0.180811
1105.1557,0.186986
1107.0193,0.189091
1108.8830,0.185105
1110.7467,0.174970
1112.6103,0.160851
1114.4740,0.145691
1116.3377,0.131855
1118.2014,0.120436
1120.0650,0.111726
1121.9287,0.105687
1123.7924,0.101761
1125.6560,0.098882
1127.5197,0.096186
1129.3834,0.093467
1131.2470,0.090794
1133.1107,0.088182
1134.9744,0.085555
1136.8380,0.082925
1138.7017,0.080698
1140.5654,0.079265
1142.4290,0.078452
1144.2927,0.077944
1146.1564,0.077563
1148.0201,0.077292
1149.8837,0.077215
1151.7474,0.077446
1153.6111,0.078046
1155.4747,0.078916
1157.3384,0.080032
1159.2021,0.081490
1161.0657,0.083321
1162.9294,0.085669
1164.7931,0.088861
1166.6567,0.092957
1168.5204,0.097795
1170.3841,0.102999
1172.2477,0.106913
1174.1114,0.106984
1175.9751,0.102364
1177.8388,0.095531
1179.7024,0.089755
1181.5661,0.086330
1183.4298,0.084748
1185.2934,0.083949
1187.1571,0.083296
1189.0208,0.082625
1190.8844,0.081946
1192.7481,0.081276
1194.6118,0.080651
1196.4754,0.080309
1198.3391,0.080282
1200.2028,0.080381
1202.0665,0.080562
1203.9301,0.080859
1205.7938,0.081157
1207.6575,0.081429
1209.5211,0.081883
1211.3848,0.082579
1213.2485,0.083325
1215.1121,0.083910
1216.9758,0.084259
1218.8395,0.084301
1220.7031,0.084130
1222.5668,0.084042
1224.4305,0.084262
1226.2941,0.084660
1228.1578,0.084929
1230.0215,0.085306
1231.8852,0.085888
1233.7488,0.086422
1235.6125,0.086907
1237.4762,0.087409
1239.3398,0.087993
1241.2035,0.088686
1243.0672,0.089414
1244.9308,0.090053
1246.7945,0.090703
1248.6582,0.091487
1250.5218,0.092426
1252.3855,0.093408
1254.2492,0.094347
1256.1129,0.095299
1257.9765,0.096409
1259.8402,0.098017
1261.7039,0.099908
1263.5675,0.101604
1265.4312,0.103058
1267.2949,0.103738
1269.1585,0.103326
1271.0222,0.102711
1272.8859,0.102584
1274.7495,0.102969
1276.6132,0.103887
1278.4769,0.105319
1280.3405,0.107204
1282.2042,0.109396
1284.0679,0.111806
1285.9316,0.114440
1287.7952,0.117407
1289.6589,0.120694
1291.5226,0.124423
1293.3862,0.129174
1295.2499,0.135220
1297.1136,0.142640
1298.9772,0.151800
1300.8409,0.163149
1302.7046,0.175684
1304.5682,0.185211
1306.4319,0.185528
1308.2956,0.171502
1310.1592,0.145217
1312.0229,0.118394
1313.8866,0.101047
1315.7503,0.094446
1317.6139,0.094207
1319.4776,0.096592
1321.3413,0.099296
1323.2049,0.102343
1325.0686,0.106114
1326.9323,0.109449
1328.7959,0.111643
1330.6596,0.112987
1332.5233,0.113764
1334.3869,0.114056
1336.2506,0.114480
1338.1143,0.116338
1339.9780,0.119187
1341.8416,0.119732
1343.7053,0.119171
1345.5690,0.119967
1347.4326,0.121675
1349.2963,0.124129
1351.1600,0.127160
1353.0236,0.130734
1354.8873,0.134884
1356.7510,0.137792
1358.6146,0.138440
1360.4783,0.139570
1362.3420,0.144261
1364.2056,0.148957
1366.0693,0.150896
1367.9330,0.154986
1369.7967,0.160491
1371.6603,0.164801
1373.5240,0.171728
1375.3877,0.180094
1377.2513,0.184870
1379.1150,0.190895
1380.9787,0.199243
1382.8423,0.207774
1384.7060,0.217067
1386.5697,0.230112
1388.4333,0.245001
1390.2970,0.251563
1392.1607,0.253775
1394.0244,0.254613
1395.8880,0.248842
1397.7517,0.237501
1399.6154,0.225109
1401.4790,0.213101
1403.3427,0.202378
1405.2064,0.186533
1407.0700,0.163666
1408.9337,0.140740
1410.7974,0.119813
1412.6610,0.104383
1414.5247,0.096275
1416.3884,0.094572
1418.2520,0.100423
1420.1157,0.111914
1421.9794,0.116517
1423.8431,0.113823
1425.7067,0.102894
1427.5704,0.090353
1429.4341,0.082460
1431.2977,0.079102
1433.1614,0.078396
1435.0251,0.080322
1436.8887,0.086376
1438.7524,0.089737
1440.6161,0.090076
1442.4797,0.092060
1444.3434,0.093927
1446.2071,0.095618
1448.0707,0.097324
1449.9344,0.095911
1451.7981,0.091956
1453.6618,0.087684
1455.5254,0.086460
1457.3891,0.093160
1459.2528,0.096735
1461.1164,0.094785
1462.9801,0.094937
1464.8438,0.096570
1466.7074,0.094267
1468.5711,0.089085
1470.4348,0.086476
1472.2984,0.088603
1474.1621,0.091532
1476.0258,0.090804
1477.8895,0.089862
1479.7531,0.089188
1481.6168,0.089995
1483.4805,0.090322
1485.3441,0.090109
1487.2078,0.091770
1489.0715,0.096329
1490.9351,0.100262
1492.7988,0.099085
1494.6625,0.098327
1496.5261,0.102579
1498.3898,0.107122
1500.2535,0.107399
1502.1171,0.105981
1503.9808,0.104875
1505.8445,0.109499
1507.7082,0.125186
1509.5718,0.124577
1511.4355,0.122280
1513.2992,0.122408
1515.1628,0.123264
1517.0265,0.125778
1518.8902,0.126270
1520.7538,0.127414
1522.6175,0.131301
1524.4812,0.129802
1526.3448,0.130151
1528.2085,0.130677
1530.0722,0.129104
1531.9359,0.129505
1533.7995,0.133595
1535.6632,0.133165
1537.5269,0.130838
1539.3905,0.136823
1541.2542,0.150247
1543.1179,0.151395
1544.9815,0.153189
1546.8452,0.154193
1548.7089,0.155667
1550.5725,0.160338
1552.4362,0.163161
1554.2999,0.164845
1556.1635,0.167814
1558.0272,0.177001
1559.8909,0.202584
1561.7546,0.195716
1563.6182,0.191331
1565.4819,0.194076
1567.3456,0.197489
1569.2092,0.203908
1571.0729,0.210886
1572.9366,0.209657
1574.8002,0.212606
1576.6639,0.223746
1578.5276,0.227305
1580.3912,0.225969
1582.2549,0.228404
1584.1186,0.230964
1585.9822,0.232663
1587.8459,0.233778
1589.7096,0.234543
1591.5733,0.234424
1593.4369,0.233991
1595.3006,0.232847
1597.1643,0.230372
1599.0279,0.226866
1600.8916,0.223566
1602.7553,0.220668
1604.6189,0.217896
1606.4826,0.215426
1608.3463,0.213657
1610.2099,0.211523
1612.0736,0.207801
1613.9373,0.203166
1615.8010,0.199082
1617.6646,0.192455
1619.5283,0.182446
1621.3920,0.174691
1623.2556,0.166857
1625.1193,0.157027
1626.9830,0.147232
1628.8466,0.135550
1630.7103,0.122904
1632.5740,0.112494
1634.4376,0.103349
1636.3013,0.093963
1638.1650,0.087318
1640.0286,0.084395
1641.8923,0.081966
1643.7560,0.081078
1645.6197,0.082924
1647.4833,0.088062
1649.3470,0.089604
1651.2107,0.090943
1653.0743,0.099695
1654.9380,0.108362
1656.8017,0.105645
1658.6653,0.105395
1660.5290,0.106129
1662.3927,0.107142
1664.2563,0.106314
1666.1200,0.103752
1667.9837,0.102209
1669.8474,0.102559
1671.7110,0.102798
1673.5747,0.103718
1675.4384,0.107537
1677.3020,0.111239
1679.1657,0.112242
1681.0294,0.114945
1682.8930,0.119170
1684.7567,0.127705
1686.6204,0.128576
1688.4840,0.125026
1690.3477,0.121716
1692.2114,0.116682
1694.0750,0.111296
1695.9387,0.106029
1697.8024,0.099668
1699.6661,0.095176
1701.5297,0.086195
1703.3934,0.077651
1705.2571,0.068642
1707.1207,0.057355
1708.9844,0.049186
1710.8481,0.043283
1712.7117,0.038638
1714.5754,0.035663
1716.4391,0.033012
1718.3027,0.031576
1720.1664,0.030229
1722.0301,0.029060
1723.8937,0.026874
1725.7574,0.024210
1727.6211,0.021804
1729.4848,0.019867
1731.3484,0.017972
1733.2121,0.016842
1735.0758,0.015359
1736.9394,0.014568
1738.8031,0.014255
1740.6668,0.013844
1742.5304,0.013299
1744.3941,0.013036
1746.2578,0.012370
1748.1214,0.012061
1749.9851,0.011716
1751.8488,0.011465
1753.7125,0.011263
1755.5761,0.011345
1757.4398,0.011164
1759.3035,0.010931
1761.1671,0.010805
1763.0308,0.010889
1764.8945,0.010708
1766.7581,0.010748
1768.6218,0.010576
1770.4855,0.010417
1772.3491,0.010464
1774.2128,0.010566
1776.0765,0.010306
1777.9401,0.010549
1779.8038,0.010599
1781.6675,0.010575
1783.5312,0.010495
1785.3948,0.010753
1787.2585,0.010776
1789.1222,0.010715
1790.9858,0.010750
1792.8495,0.010959
1794.7132,0.010606
1796.5768,0.010525
1798.4405,0.010634
1800.3042,0.010883
1802.1678,0.010788
1804.0315,0.010893
1805.8952,0.011052
1807.7589,0.011182
1809.6225,0.011056
1811.4862,0.011204
1813.3499,0.011119
1815.2135,0.010966
1817.0772,0.010802
1818.9409,0.011090
1820.8045,0.011017
1822.6682,0.010896
1824.5319,0.010820
1826.3955,0.010776
1828.2592,0.010359
1830.1229,0.010260
1831.9865,0.010208
1833.8502,0.010359
1835.7139,0.010324
1837.5776,0.010316
1839.4412,0.010190
1841.3049,0.010344
1843.1686,0.010249
1845.0322,0.010533
1846.8959,0.010651
1848.7596,0.010608
1850.6232,0.010511
1852.4869,0.010693
1854.3506,0.010665
1856.2142,0.010921
1858.0779,0.010840
1859.9416,0.010810
1861.8052,0.010695
1863.6689,0.010564
1865.5326,0.010322
1867.3963,0.010588
1869.2599,0.010555
1871.1236,0.010478
1872.9873,0.010466
1874.8509,0.010544
1876.7146,0.010411
1878.5783,0.010595
1880.4419,0.010676
1882.3056,0.010748
1884.1693,0.010543
1886.0329,0.010656
1887.8966,0.010597
1889.7603,0.010544
1891.6240,0.010576
1893.4876,0.011174
1895.3513,0.011023
1897.2150,0.010597
1899.0786,0.010366
1900.9423,0.010417
1902.8060,0.010307
1904.6696,0.010567
1906.5333,0.010869
1908.3970,0.011178
1910.2606,0.010635
1912.1243,0.010344
1913.9880,0.010196
1915.8516,0.010154
1917.7153,0.010044
1919.5790,0.010126
1921.4427,0.010072
1923.3063,0.010389
1925.1700,0.010411
1927.0337,0.010406
1928.8973,0.009983
1930.7610,0.009535
1932.6247,0.009299
1934.4883,0.010223
1936.3520,0.010118
1938.2157,0.009931
1940.0793,0.009864
1941.9430,0.009367
1943.8067,0.008275
1945.6704,0.008619
1947.5340,0.008415
1949.3977,0.008710
1951.2614,0.008779
1953.1250,0.008508
1954.9887,0.007973
1956.8524,0.008482
1958.7160,0.007754
1960.5797,0.007088
1962.4434,0.006339
1964.3070,0.005107
1966.1707,0.003337
1968.0344,0.003431
1969.8980,0.003241
1971.7617,0.003466
1973.6254,0.002531
1975.4891,0.002270
1977.3527,0.002803
1979.2164,0.003678
1981.0801,0.003885
1982.9437,0.005919
1984.8074,0.006978
1986.6711,0.006816
1988.5347,0.005954
1990.3984,0.007027
1992.2621,0.007185
1994.1257,0.006458
1995.9894,0.006193
1997.8531,0.006345
1999.7167,0.006644
2001.5804,0.007481
2003.4441,0.007190
2005.3078,0.007013
2007.1714,0.005379
2009.0351,0.005266
2010.8988,0.004354
2012.7624,0.004081
2014.6261,0.004230
2016.4898,0.004445
2018.3534,0.004071
2020.2171,0.004678
2022.0808,0.004937
2023.9444,0.004052
2025.8081,0.002610
2027.6718,0.003858
2029.5355,0.005213
2031.3991,0.005169
2033.2628,0.003755
2035.1265,0.003689
2036.9901,0.003557
2038.8538,0.004334
2040.7175,0.006084
2042.5811,0.007229
2044.4448,0.007052
2046.3085,0.007899
2048.1721,0.008257
2050.0358,0.009129
2051.8995,0.009714
2053.7631,0.009859
2055.6268,0.009618
2057.4905,0.010156
2059.3542,0.010395
2061.2178,0.011183
2063.0815,0.011093
2064.9452,0.011039
2066.8088,0.011924
2068.6725,0.012813
2070.5362,0.012487
2072.3998,0.012816
2074.2635,0.012827
2076.1272,0.013021
2077.9908,0.013032
2079.8545,0.013891
2081.7182,0.013873
2083.5819,0.013784
2085.4455,0.013782
2087.3092,0.013776
2089.1729,0.013873
2091.0365,0.013973
2092.9002,0.013999
2094.7639,0.014625
2096.6275,0.014475
2098.4912,0.013806
2100.3549,0.013801
2102.2185,0.014190
2104.0822,0.014358
2105.9459,0.014746
2107.8095,0.014398
2109.6732,0.014255
2111.5369,0.014583
2113.4006,0.015198
2115.2642,0.015338
2117.1279,0.015404
2118.9916,0.015367
2120.8552,0.015011
2122.7189,0.014384
2124.5826,0.014652
2126.4462,0.014522
2128.3099,0.014134
2130.1736,0.012915
2132.0372,0.012631
2133.9009,0.013045
2135.7646,0.013281
2137.6282,0.012870
2139.4919,0.012718
2141.3556,0.012419
2143.2193,0.011317
2145.0829,0.009064
2146.9466,0.008786
2148.8103,0.009558
2150.6739,0.009234
2152.5376,0.007049
2154.4013,0.005563
2156.2649,0.004293
2158.1286,0.003238
2159.9923,0.002196
2161.8559,0.004420
2163.7196,0.005921
2165.5833,0.008181
2167.4470,0.008354
2169.3106,0.007735
2171.1743,0.007795
2173.0380,0.009055
2174.9016,0.009980
2176.7653,0.009526
2178.6290,0.008213
2180.4926,0.008330
2182.3563,0.008337
2184.2200,0.009865
2186.0836,0.009456
2187.9473,0.009820
2189.8110,0.011039
2191.6746,0.011152
2193.5383,0.011608
2195.4020,0.011590
2197.2657,0.010908
2199.1293,0.011934
2200.9930,0.011850
2202.8567,0.012601
2204.7203,0.012760
2206.5840,0.013569
2208.4477,0.013658
2210.3113,0.013513
2212.1750,0.013859
2214.0387,0.014040
2215.9023,0.014074
2217.7660,0.013880
2219.6297,0.013345
2221.4934,0.013803
2223.3570,0.014282
2225.2207,0.015036
2227.0844,0.015612
2228.9480,0.016209
2230.8117,0.015907
2232.6754,0.015916
2234.5390,0.016432
2236.4027,0.016361
2238.2664,0.016612
2240.1300,0.017222
2241.9937,0.016834
2243.8574,0.016807
2245.7210,0.016508
2247.5847,0.016621
2249.4484,0.017406
2251.3121,0.017520
2253.1757,0.017278
2255.0394,0.017958
2256.9031,0.018668
2258.7667,0.018863
2260.6304,0.018441
2262.4941,0.018712
2264.3577,0.019348
2266.2214,0.019523
2268.0851,0.019058
2269.9487,0.019675
2271.8124,0.020392
2273.6761,0.021033
2275.5397,0.021068
2277.4034,0.021425
2279.2671,0.022145
2281.1308,0.022657
2282.9944,0.022604
2284.8581,0.022754
2286.7218,0.022907
2288.5854,0.022981
2290.4491,0.023035
2292.3128,0.022755
2294.1764,0.022398
2296.0401,0.022513
2297.9038,0.022701
2299.7674,0.022901
2301.6311,0.023310
2303.4948,0.023652
2305.3585,0.023713
2307.2221,0.023740
2309.0858,0.023892
2310.9495,0.024038
2312.8131,0.024027
2314.6768,0.023643
2316.5405,0.023232
2318.4041,0.023417
2320.2678,0.023579
2322.1315,0.023718
2323.9951,0.023782
2325.8588,0.023580
2327.7225,0.022952
2329.5861,0.022560
2331.4498,0.022308
2333.3135,0.022093
2335.1772,0.022009
2337.0408,0.021981
2338.9045,0.022408
2340.7682,0.022963
2342.6318,0.022958
2344.4955,0.022821
2346.3592,0.022658
2348.2228,0.022434
2350.0865,0.022073
2351.9502,0.022079
2353.8138,0.022146
2355.6775,0.021948
2357.5412,0.021914
2359.4049,0.022139
2361.2685,0.021566
2363.1322,0.021526
2364.9959,0.022125
2366.8595,0.022360
2368.7232,0.022318
2370.5869,0.023077
2372.4505,0.023478
2374.3142,0.023659
2376.1779,0.023708
2378.0415,0.023462
2379.9052,0.023209
2381.7689,0.023138
2383.6325,0.023100
2385.4962,0.023299
2387.3599,0.023464
2389.2236,0.023563
2391.0872,0.023663
2392.9509,0.023689
2394.8146,0.023661
2396.6782,0.023820
2398.5419,0.023928
2400.4056,0.023980
2402.2692,0.024116
2404.1329,0.024209
2405.9966,0.024103
2407.8602,0.024047
2409.7239,0.024171
2411.5876,0.024371
2413.4512,0.024210
2415.3149,0.024151
2417.1786,0.024577
2419.0423,0.024735
2420.9059,0.024701
2422.7696,0.025082
2424.6333,0.025073
2426.4969,0.025133
2428.3606,0.025182
2430.2243,0.025260
2432.0879,0.025443
2433.9516,0.025563
2435.8153,0.025743
2437.6789,0.025762
2439.5426,0.025532
2441.4063,0.025496
2443.2700,0.025360
2445.1336,0.025197
2446.9973,0.025352
2448.8610,0.025686
2450.7246,0.025890
2452.5883,0.025755
2454.4520,0.025655
2456.3156,0.025529
2458.1793,0.025361
2460.0430,0.025401
2461.9066,0.025493
2463.7703,0.025124
2465.6340,0.024801
2467.4976,0.025239
2469.3613,0.025566
2471.2250,0.025566
2473.0887,0.025573
2474.9523,0.025526
2476.8160,0.025567
2478.6797,0.025377
2480.5433,0.025443
2482.4070,0.025946
2484.2707,0.025878
2486.1343,0.026033
2487.9980,0.026498
2489.8617,0.026694
2491.7253,0.027009
2493.5890,0.027232
2495.4527,0.027330
2497.3164,0.027489
2499.1800,0.027322
2501.0437,0.027253
2502.9074,0.027333
2504.7710,0.027547
2506.6347,0.027607
2508.4984,0.027644
2510.3620,0.027851
2512.2257,0.028006
2514.0894,0.028060
2515.9530,0.028067
2517.8167,0.027873
2519.6804,0.027824
2521.5440,0.028022
2523.4077,0.028262
2525.2714,0.028397
2527.1351,0.028426
2528.9987,0.028504
2530.8624,0.028685
2532.7261,0.028898
2534.5897,0.029020
2536.4534,0.028589
2538.3171,0.028232
2540.1807,0.028579
2542.0444,0.028690
2543.9081,0.028649
2545.7717,0.029088
2547.6354,0.029485
2549.4991,0.028810
2551.3627,0.028552
2553.2264,0.029379
2555.0901,0.029426
2556.9538,0.029387
2558.8174,0.029477
2560.6811,0.029689
2562.5448,0.029834
2564.4084,0.030001
2566.2721,0.029904
2568.1358,0.030084
2569.9994,0.030270
2571.8631,0.030583
2573.7268,0.030947
2575.5904,0.031019
2577.4541,0.030993
2579.3178,0.031011
2581.1815,0.031362
2583.0451,0.031888
2584.9088,0.031695
2586.7725,0.031638
2588.6361,0.032276
2590.4998,0.032682
2592.3635,0.032620
2594.2271,0.032812
2596.0908,0.033143
2597.9545,0.032964
2599.8181,0.032942
2601.6818,0.033253
2603.5455,0.033577
2605.4091,0.033872
2607.2728,0.034073
2609.1365,0.033965
2611.0002,0.033931
2612.8638,0.034091
2614.7275,0.034262
2616.5912,0.034611
2618.4548,0.034912
2620.3185,0.035051
2622.1822,0.035380
2624.0458,0.035475
2625.9095,0.035682
2627.7732,0.036116
2629.6368,0.036526
2631.5005,0.036726
2633.3642,0.037025
2635.2279,0.037281
2637.0915,0.037477
2638.9552,0.037505
2640.8189,0.037781
2642.6825,0.038227
2644.5462,0.038594
2646.4099,0.038848
2648.2735,0.039093
2650.1372,0.039377
2652.0009,0.039401
2653.8645,0.039526
2655.7282,0.039768
2657.5919,0.040051
2659.4555,0.040261
2661.3192,0.040331
2663.1829,0.040373
2665.0466,0.040471
2666.9102,0.040414
2668.7739,0.040445
2670.6376,0.040695
2672.5012,0.040884
2674.3649,0.040926
2676.2286,0.041127
2678.0922,0.041266
2679.9559,0.041636
2681.8196,0.042268
2683.6832,0.042547
2685.5469,0.042424
2687.4106,0.042443
2689.2742,0.042814
2691.1379,0.043096
2693.0016,0.043415
2694.8653,0.043837
2696.7289,0.044265
2698.5926,0.044744
2700.4563,0.045142
2702.3199,0.045455
2704.1836,0.045940
2706.0473,0.046372
2707.9109,0.046701
2709.7746,0.047126
2711.6383,0.047487
2713.5019,0.047799
2715.3656,0.048263
2717.2293,0.048890
2719.0930,0.049238
2720.9566,0.049299
2722.8203,0.049847
2724.6840,0.050615
2726.5476,0.051274
2728.4113,0.051863
2730.2750,0.052307
2732.1386,0.052987
2734.0023,0.053355
2735.8660,0.053701
2737.7296,0.054435
2739.5933,0.055156
2741.4570,0.055644
2743.3206,0.056238
2745.1843,0.056685
2747.0480,0.057181
2748.9117,0.058108
2750.7753,0.058943
2752.6390,0.059497
2754.5027,0.059889
2756.3663,0.060555
2758.2300,0.061284
2760.0937,0.062173
2761.9573,0.063112
2763.8210,0.063806
2765.6847,0.064388
2767.5483,0.065292
2769.4120,0.066233
2771.2757,0.067107
2773.1394,0.067985
2775.0030,0.068941
2776.8667,0.069921
2778.7304,0.070801
2780.5940,0.071283
2782.4577,0.071394
2784.3214,0.071396
2786.1850,0.071438
2788.0487,0.071121
2789.9124,0.070888
2791.7760,0.070520
2793.6397,0.069808
2795.5034,0.069044
2797.3670,0.068556
2799.2307,0.068142
2801.0944,0.067610
2802.9581,0.066747
2804.8217,0.065956
2806.6854,0.065251
2808.5491,0.064791
2810.4127,0.064663
2812.2764,0.064666
2814.1401,0.064614
2816.0037,0.064517
2817.8674,0.064393
2819.7311,0.064819
2821.5947,0.065040
2823.4584,0.065039
2825.3221,0.065020
2827.1857,0.064850
2829.0494,0.064536
2830.9131,0.064172
2832.7768,0.063851
2834.6404,0.063921
2836.5041,0.064017
2838.3678,0.064245
2840.2314,0.064738
2842.0951,0.065291
2843.9588,0.065860
2845.8224,0.066431
2847.6861,0.066928
2849.5498,0.067658
2851.4134,0.068560
2853.2771,0.069408
2855.1408,0.070116
2857.0045,0.071313
2858.8681,0.072413
2860.7318,0.073191
2862.5955,0.074054
2864.4591,0.074441
2866.3228,0.074358
2868.1865,0.074597
2870.0501,0.074885
2871.9138,0.075033
2873.7775,0.075362
2875.6411,0.076050
2877.5048,0.076573
2879.3685,0.077034
2881.2321,0.077594
2883.0958,0.078137
2884.9595,0.078623
2886.8232,0.079133
2888.6868,0.079561
2890.5505,0.080117
2892.4142,0.080646
2894.2778,0.081504
2896.1415,0.081916
2898.0052,0.082022
2899.8688,0.082361
2901.7325,0.082438
2903.5962,0.082224
2905.4598,0.082134
2907.3235,0.082251
2909.1872,0.082789
2911.0509,0.083377
2912.9145,0.083925
2914.7782,0.084823
2916.6419,0.086184
2918.5055,0.086984
2920.3692,0.087676
2922.2329,0.088218
2924.0965,0.088821
2925.9602,0.089547
2927.8239,0.090463
2929.6875,0.091209
2931.5512,0.091905
2933.4149,0.092844
2935.2785,0.093502
2937.1422,0.093843
2939.0059,0.094430
2940.8696,0.094785
2942.7332,0.095128
2944.5969,0.095584
2946.4606,0.095854
2948.3242,0.095995
2950.1879,0.096726
2952.0516,0.097365
2953.9152,0.097689
2955.7789,0.097628
2957.6426,0.097458
2959.5062,0.097945
2961.3699,0.098851
2963.2336,0.099883
2965.0972,0.101153
2966.9609,0.102069
2968.8246,0.103347
2970.6883,0.104783
2972.5519,0.105494
2974.4156,0.106246
2976.2793,0.107291
2978.1429,0.107906
2980.0066,0.108586
2981.8703,0.109288
2983.7339,0.109408
2985.5976,0.109294
2987.4613,0.110045
2989.3249,0.111108
2991.1886,0.111990
2993.0523,0.113049
2994.9160,0.114398
2996.7796,0.115374
2998.6433,0.116066
3000.5070,0.116481
3002.3706,0.117553
3004.2343,0.119302
3006.0980,0.120435
3007.9616,0.120609
3009.8253,0.121533
3011.6890,0.123002
3013.5526,0.124198
3015.4163,0.124790
3017.2800,0.125404
3019.1436,0.125553
3021.0073,0.125623
3022.8710,0.126066
3024.7347,0.126766
3026.5983,0.127344
3028.4620,0.127537
3030.3257,0.127514
3032.1893,0.127949
3034.0530,0.128461
3035.9167,0.129323
3037.7803,0.129739
3039.6440,0.130045
3041.5077,0.130422
3043.3713,0.131222
3045.2350,0.131774
3047.0987,0.132151
3048.9624,0.132442
3050.8260,0.132790
3052.6897,0.133031
3054.5534,0.133507
3056.4170,0.133634
3058.2807,0.133800
3060.1444,0.133967
3062.0080,0.134308
3063.8717,0.134598
3065.7354,0.134683
3067.5990,0.134400
3069.4627,0.134682
3071.3264,0.134868
3073.1900,0.134555
3075.0537,0.134132
3076.9174,0.134012
3078.7811,0.133547
3080.6447,0.132905
3082.5084,0.132331
3084.3721,0.132209
3086.2357,0.131560
3088.0994,0.130229
3089.9631,0.129114
3091.8267,0.128301
3093.6904,0.127012
3095.5541,0.125891
3097.4177,0.125243
3099.2814,0.124417
3101.1451,0.123182
3103.0087,0.122392
3104.8724,0.121319
3106.7361,0.120231
3108.5998,0.119181
3110.4634,0.118347
3112.3271,0.117327
3114.1908,0.115640
3116.0544,0.114270
3117.9181,0.114014
3119.7818,0.113596
3121.6454,0.112805
3123.5091,0.111752
3125.3728,0.110172
3127.2364,0.109020
3129.1001,0.108634
3130.9638,0.107761
3132.8275,0.107329
3134.6911,0.106552
3136.5548,0.105240
3138.4185,0.104568
3140.2821,0.105065
3142.1458,0.104705
3144.0095,0.103543
3145.8731,0.102693
3147.7368,0.102038
3149.6005,0.101143
3151.4641,0.100463
3153.3278,0.100319
3155.1915,0.100106
3157.0551,0.098941
3158.9188,0.097894
3160.7825,0.096818
3162.6462,0.095684
3164.5098,0.094816
3166.3735,0.094481
3168.2372,0.094066
3170.1008,0.093401
3171.9645,0.092505
3173.8282,0.091921
3175.6918,0.091533
3177.5555,0.091008
3179.4192,0.089994
3181.2828,0.089463
3183.1465,0.089200
3185.0102,0.088745
3186.8739,0.088478
3188.7375,0.088369
3190.6012,0.087658
3192.4649,0.087299
3194.3285,0.087010
3196.1922,0.086646
3198.0559,0.086733
3199.9195,0.086983
3201.7832,0.086593
3203.6469,0.086647
3205.5105,0.087126
3207.3742,0.087013
3209.2379,0.087021
3211.1015,0.087022
3212.9652,0.086833
3214.8289,0.087331
3216.6926,0.087554
3218.5562,0.087719
3220.4199,0.087851
3222.2836,0.087780
3224.1472,0.088129
3226.0109,0.088040
3227.8746,0.087458
3229.7382,0.087876
3231.6019,0.087970
3233.4656,0.088376
3235.3292,0.089255
3237.1929,0.089625
3239.0566,0.089262
3240.9202,0.089230
3242.7839,0.089346
3244.6476,0.089301
3246.5113,0.090223
3248.3749,0.091562
3250.2386,0.092547
3252.1023,0.093176
3253.9659,0.092622
3255.8296,0.092725
3257.6933,0.093719
3259.5569,0.094055
3261.4206,0.093765
3263.2843,0.094499
3265.1479,0.095399
3267.0116,0.095828
3268.8753,0.095911
3270.7390,0.095598
3272.6026,0.095765
3274.4663,0.096181
3276.3300,0.095715
3278.1936,0.095248
3280.0573,0.094490
3281.9210,0.093970
3283.7846,0.094089
3285.6483,0.093211
3287.5120,0.091757
3289.3756,0.091620
3291.2393,0.091150
3293.1030,0.090050
3294.9666,0.089062
3296.8303,0.088643
3298.6940,0.088116
3300.5577,0.087355
3302.4213,0.085793
3304.2850,0.084335
3306.1487,0.083459
3308.0123,0.082566
3309.8760,0.081916
3311.7397,0.081927
3313.6033,0.081761
3315.4670,0.081655
3317.3307,0.081328
3319.1943,0.081244
3321.0580,0.081699
3322.9217,0.081991
3324.7854,0.081432
3326.6490,0.081298
3328.5127,0.082721
3330.3764,0.083650
3332.2400,0.082725
3334.1037,0.082069
3335.9674,0.081956
3337.8310,0.081596
3339.6947,0.080161
3341.5584,0.078090
3343.4220,0.077130
3345.2857,0.076082
3347.1494,0.074259
3349.0130,0.073335
3350.8767,0.072772
3352.7404,0.071479
3354.6041,0.069424
3356.4677,0.067292
3358.3314,0.066140
3360.1951,0.065889
3362.0587,0.064859
3363.9224,0.063439
3365.7861,0.062250
3367.6497,0.061527
3369.5134,0.061760
3371.3771,0.061908
3373.2407,0.061846
3375.1044,0.061886
3376.9681,0.061405
3378.8317,0.061122
3380.6954,0.061504
3382.5591,0.062182
3384.4228,0.061897
3386.2864,0.061181
3388.1501,0.061849
3390.0138,0.063141
3391.8774,0.062389
3393.7411,0.062088
3395.6048,0.063101
3397.4684,0.063041
3399.3321,0.062674
3401.1958,0.062760
3403.0594,0.062561
3404.9231,0.061749
3406.7868,0.060536
3408.6505,0.059329
3410.5141,0.057784
3412.3778,0.054789
3414.2415,0.051363
3416.1051,0.049842
3417.9688,0.049089
3419.8325,0.047689
3421.6961,0.045563
3423.5598,0.042958
3425.4235,0.041249
3427.2871,0.040831
3429.1508,0.040185
3431.0145,0.038666
3432.8781,0.036974
3434.7418,0.035253
3436.6055,0.033686
3438.4692,0.033050
3440.3328,0.032495
3442.1965,0.031632
3444.0602,0.030182
3445.9238,0.028478
3447.7875,0.028074
3449.6512,0.027834
3451.5148,0.027204
3453.3785,0.027187
3455.2422,0.027297
3457.1058,0.026728
3458.9695,0.026375
3460.8332,0.026440
3462.6969,0.025309
3464.5605,0.023018
3466.4242,0.021897
3468.2879,0.022705
3470.1515,0.022683
3472.0152,0.022164
3473.8789,0.021762
3475.7425,0.020989
3477.6062,0.020822
3479.4699,0.020292
3481.3335,0.019324
3483.1972,0.018336
3485.0609,0.017688
3486.9245,0.018379
3488.7882,0.018486
3490.6519,0.016846
3492.5156,0.016338
3494.3792,0.016850
3496.2429,0.016881
3498.1066,0.016337
3499.9702,0.014938
3501.8339,0.013655
3503.6976,0.013778
3505.5612,0.014440
3507.4249,0.014243
3509.2886,0.013602
3511.1522,0.012714
3513.0159,0.011670
3514.8796,0.011544
3516.7432,0.011699
3518.6069,0.011233
3520.4706,0.010872
3522.3343,0.010670
3524.1979,0.009645
3526.0616,0.009123
3527.9253,0.010084
3529.7889,0.010533
3531.6526,0.010533
3533.5163,0.010336
3535.3799,0.009076
3537.2436,0.008346
3539.1073,0.008407
3540.9709,0.008202
3542.8346,0.008426
3544.6983,0.009090
3546.5620,0.008990
3548.4256,0.007503
3550.2893,0.006401
3552.1530,0.007071
3554.0166,0.008137
3555.8803,0.007588
3557.7440,0.006797
3559.6076,0.007309
3561.4713,0.007647
3563.3350,0.006549
3565.1986,0.005368
3567.0623,0.004795
3568.9260,0.005115
3570.7896,0.006910
3572.6533,0.007307
3574.5170,0.006534
3576.3807,0.006402
3578.2443,0.006263
3580.1080,0.006193
3581.9717,0.006932
3583.8353,0.007110
3585.6990,0.006259
3587.5627,0.004823
3589.4263,0.003840
3591.2900,0.004217
3593.1537,0.005114
3595.0173,0.006167
3596.8810,0.006805
3598.7447,0.007402
3600.6084,0.007616
3602.4720,0.006906
3604.3357,0.006557
3606.1994,0.006508
3608.0630,0.005891
3609.9267,0.004529
3611.7904,0.003773
3613.6540,0.004946
3615.5177,0.006210
3617.3814,0.006253
3619.2450,0.005704
3621.1087,0.005498
3622.9724,0.006270
3624.8360,0.007099
3626.6997,0.006959
3628.5634,0.005639
3630.4271,0.004120
3632.2907,0.005117
3634.1544,0.006919
3636.0181,0.007503
3637.8817,0.007430
3639.7454,0.007482
3641.6091,0.007470
3643.4727,0.007125
3645.3364,0.006614
3647.2001,0.005905
3649.0637,0.004782
3650.9274,0.005072
3652.7911,0.006204
3654.6547,0.006430
3656.5184,0.006752
3658.3821,0.007434
3660.2458,0.008119
3662.1094,0.008146
3663.9731,0.007740
3665.8368,0.007640
3667.7004,0.007735
3669.5641,0.007489
3671.4278,0.007677
3673.2914,0.009240
3675.1551,0.009744
3677.0188,0.008768
3678.8824,0.007809
3680.7461,0.007145
3682.6098,0.006834
3684.4735,0.007182
3686.3371,0.006794
3688.2008,0.005906
3690.0645,0.005947
3691.9281,0.006960
3693.7918,0.007495
3695.6555,0.007637
3697.5191,0.007889
3699.3828,0.008008
3701.2465,0.007737
3703.1101,0.007255
3704.9738,0.007136
3706.8375,0.007217
3708.7011,0.006832
3710.5648,0.006466
3712.4285,0.006685
3714.2922,0.006964
3716.1558,0.007236
3718.0195,0.007853
3719.8832,0.008544
3721.7468,0.008382
3723.6105,0.007874
3725.4742,0.007618
3727.3378,0.007163
3729.2015,0.007043
3731.0652,0.006995
3732.9288,0.006384
3734.7925,0.005427
3736.6562,0.004987
3738.5199,0.005561
3740.3835,0.006477
3742.2472,0.006352
3744.1109,0.005795
3745.9745,0.005733
3747.8382,0.005313
3749.7019,0.005399
3751.5655,0.005309
3753.4292,0.005576
3755.2929,0.007003
3757.1565,0.007859
3759.0202,0.008156
3760.8839,0.008224
3762.7475,0.008617
3764.6112,0.008997
3766.4749,0.009008
3768.3386,0.009291
3770.2022,0.009239
3772.0659,0.008732
3773.9296,0.009133
3775.7932,0.009582
3777.6569,0.009227
3779.5206,0.008837
3781.3842,0.009357
3783.2479,0.009807
3785.1116,0.009227
3786.9752,0.008889
3788.8389,0.009056
3790.7026,0.009318
3792.5662,0.009577
3794.4299,0.009426
3796.2936,0.008705
3798.1573,0.008015
3800.0209,0.008570
3801.8846,0.008813
3803.7483,0.008405
3805.6119,0.008827
3807.4756,0.009269
3809.3393,0.009560
3811.2029,0.009559
3813.0666,0.009354
3814.9303,0.008778
3816.7939,0.008241
3818.6576,0.008060
3820.5213,0.007833
3822.3850,0.007703
3824.2486,0.008611
3826.1123,0.009509
3827.9760,0.009472
3829.8396,0.009270
3831.7033,0.009018
3833.5670,0.008620
3835.4306,0.008551
3837.2943,0.008405
3839.1580,0.008065
3841.0216,0.008682
3842.8853,0.009613
3844.7490,0.009820
3846.6126,0.009684
3848.4763,0.009536
3850.3400,0.009655
3852.2037,0.009033
3854.0673,0.006946
3855.9310,0.006872
3857.7947,0.009003
3859.6583,0.009578
3861.5220,0.009410
3863.3857,0.009304
3865.2493,0.008988
3867.1130,0.009184
3868.9767,0.009487
3870.8403,0.008681
3872.7040,0.008654
3874.5677,0.009255
3876.4314,0.009595
3878.2950,0.010215
3880.1587,0.010458
3882.0224,0.010551
3883.8860,0.010318
3885.7497,0.009732
3887.6134,0.009697
3889.4770,0.009769
3891.3407,0.009772
3893.2044,0.009252
3895.0680,0.009315
3896.9317,0.010217
3898.7954,0.009919
3900.6590,0.009133
3902.5227,0.009582
3904.3864,0.009903
3906.2501,0.010029
3908.1137,0.010817
3909.9774,0.010950
3911.8411,0.010743
3913.7047,0.011193
3915.5684,0.011189
3917.4321,0.010694
3919.2957,0.010601
3921.1594,0.010741
3923.0231,0.010761
3924.8867,0.010941
3926.7504,0.011153
3928.6141,0.011223
3930.4777,0.011292
3932.3414,0.011090
3934.2051,0.010945
3936.0688,0.011259
3937.9324,0.011213
3939.7961,0.010990
3941.6598,0.011132
3943.5234,0.011066
3945.3871,0.011252
3947.2508,0.011426
3949.1144,0.011370
3950.9781,0.011314
3952.8418,0.010957
3954.7054,0.011293
3956.5691,0.011692
3958.4328,0.011376
3960.2965,0.011216
3962.1601,0.011416
3964.0238,0.011619
3965.8875,0.011434
3967.7511,0.011235
3969.6148,0.011294
3971.4785,0.011566
3973.3421,0.011973
3975.2058,0.011700
3977.0695,0.011239
3978.9331,0.011523
3980.7968,0.011918
3982.6605,0.011604
3984.5241,0.011046
3986.3878,0.011295
3988.2515,0.012118
3990.1152,0.012096
3991.9788,0.011693
3993.8425,0.011736
3995.7062,0.011551
3997.5698,0.011679
3999.4335,0.011677
