Wavenumber,Intensity
650.4205,0.128839
652.2841,0.126179
654.1478,0.123657
656.0115,0.118281
657.8751,0.111463
659.7388,0.103672
661.6025,0.098410
663.4661,0.095625
665.3298,0.092412
667.1935,0.090085
669.0571,0.092062
670.9208,0.091554
672.7845,0.090404
674.6481,0.089954
676.5118,0.089414
678.3755,0.090870
680.2392,0.092576
682.1028,0.092632
683.9665,0.093094
685.8302,0.092799
687.6938,0.093017
689.5575,0.092638
691.4212,0.092506
693.2848,0.092939
695.1485,0.094782
697.0122,0.096242
698.8758,0.096300
700.7395,0.096325
702.6032,0.096228
704.4669,0.094230
706.3305,0.092110
708.1942,0.089552
710.0579,0.086287
711.9215,0.082373
713.7852,0.078135
715.6489,0.074040
717.5125,0.071732
719.3762,0.069363
721.2399,0.065931
723.1035,0.062653
724.9672,0.060798
726.8309,0.059173
728.6945,0.056979
730.5582,0.055010
732.4219,0.053566
734.2856,0.051909
736.1492,0.050505
738.0129,0.049571
739.8766,0.049888
741.7402,0.051283
743.6039,0.052906
745.4676,0.053924
747.3312,0.054032
749.1949,0.053787
751.0586,0.053450
752.9222,0.053335
754.7859,0.053069
756.6496,0.052807
758.5132,0.052444
760.3769,0.052132
762.2406,0.052114
764.1043,0.051776
765.9679,0.051634
767.8316,0.051573
769.6953,0.051447
771.5589,0.051615
773.4226,0.051995
775.2863,0.052421
777.1499,0.053269
779.0136,0.053682
780.8773,0.053710
782.7409,0.054158
784.6046,0.055188
786.4683,0.056111
788.3320,0.057581
790.1956,0.059072
792.0593,0.059876
793.9230,0.060554
795.7866,0.061480
797.6503,0.062696
799.5140,0.063642
801.3776,0.064324
803.2413,0.065207
805.1050,0.065579
806.9686,0.065564
808.8323,0.065705
810.6960,0.065477
812.5596,0.063991
814.4233,0.062325
816.2870,0.061170
818.1507,0.060648
820.0143,0.060668
821.8780,0.060661
823.7417,0.061101
825.6053,0.062952
827.4690,0.066183
829.3327,0.069305
831.1963,0.070014
833.0600,0.067956
834.9237,0.065972
836.7873,0.065775
838.6510,0.065938
840.5147,0.065268
842.3784,0.064093
844.2420,0.062461
846.1057,0.059697
847.9694,0.055139
849.8330,0.048003
851.6967,0.039942
853.5604,0.033480
855.4240,0.029404
857.2877,0.027560
859.1514,0.026776
861.0150,0.026072
862.8787,0.025675
864.7424,0.025690
866.6060,0.026073
868.4697,0.026711
870.3334,0.027425
872.1971,0.028381
874.0607,0.029349
875.9244,0.030480
877.7881,0.032113
879.6517,0.034237
881.5154,0.036858
883.3791,0.039330
885.2427,0.040312
887.1064,0.039519
888.9701,0.037316
890.8337,0.034176
892.6974,0.031307
894.5611,0.029522
896.4247,0.029130
898.2884,0.029475
900.1521,0.029826
902.0158,0.030542
903.8794,0.031829
905.7431,0.033727
907.6068,0.036229
909.4704,0.038876
911.3341,0.041732
913.1978,0.045285
915.0614,0.047609
916.9251,0.045183
918.7888,0.038936
920.6524,0.033580
922.5161,0.031022
924.3798,0.030353
926.2435,0.030408
928.1071,0.030611
929.9708,0.031067
931.8345,0.031898
933.6981,0.032995
935.5618,0.034376
937.4255,0.035907
939.2891,0.037402
941.1528,0.038717
943.0165,0.039579
944.8801,0.039587
946.7438,0.038374
948.6075,0.036661
950.4711,0.035681
952.3348,0.035513
954.1985,0.035751
956.0622,0.036303
957.9258,0.037007
959.7895,0.037835
961.6532,0.038784
963.5168,0.040038
965.3805,0.041562
967.2442,0.043227
969.1078,0.045230
970.9715,0.047401
972.8352,0.049739
974.6988,0.053381
976.5625,0.059577
978.4262,0.069890
980.2899,0.083926
982.1535,0.091662
984.0172,0.082962
985.8809,0.069890
987.7445,0.065113
989.6082,0.064383
991.4719,0.060458
993.3355,0.052728
995.1992,0.044698
997.0629,0.039267
998.9265,0.036432
1000.7902,0.035182
1002.6539,0.034838
1004.5175,0.034790
1006.3812,0.035067
1008.2449,0.035679
1010.1086,0.036322
1011.9722,0.036947
1013.8359,0.037634
1015.6996,0.038454
1017.5632,0.039418
1019.4269,0.040302
1021.2906,0.041150
1023.1542,0.042122
1025.0179,0.043055
1026.8816,0.043792
1028.7452,0.044714
1030.6089,0.045846
1032.4726,0.047000
1034.3362,0.048288
1036.1999,0.049760
1038.0636,0.051391
1039.9273,0.053266
1041.7909,0.055577
1043.6546,0.058347
1045.5183,0.061324
1047.3819,0.064106
1049.2456,0.065724
1051.1093,0.065106
1052.9729,0.062522
1054.8366,0.059732
1056.7003,0.058294
1058.5639,0.058018
1060.4276,0.057545
1062.2913,0.055503
1064.1550,0.052395
1066.0186,0.049893
1067.8823,0.048697
1069.7460,0.048566
1071.6096,0.049101
1073.4733,0.049956
1075.3370,0.051047
1077.2006,0.052232
1079.0643,0.053561
1080.9280,0.055070
1082.7916,0.056809
1084.6553,0.058685
1086.5190,0.060493
1088.3826,0.062448
1090.2463,0.064660
1092.1100,0.067190
1093.9737,0.070207
1095.8373,0.073609
1097.7010,0.077317
1099.5647,0.081317
1101.4283,0.085552
1103.2920,0.089489
1105.1557,0.092417
1107.0193,0.093860
1108.8830,0.093203
1110.7467,0.089989
1112.6103,0.084991
1114.4740,0.079501
1116.3377,0.074194
1118.2014,0.069491
1120.0650,0.065967
1121.9287,0.063669
1123.7924,0.062299
1125.6560,0.061651
1127.5197,0.061186
1129.3834,0.060342
1131.2470,0.058948
1133.1107,0.057448
1134.9744,0.056117
1136.8380,0.054981
1138.7017,0.054235
1140.5654,0.053925
1142.4290,0.054015
1144.2927,0.054452
1146.1564,0.055318
1148.0201,0.056736
1149.8837,0.058466
1151.7474,0.060314
1153.6111,0.062135
1155.4747,0.063333
1157.3384,0.062831
1159.2021,0.059904
1161.0657,0.055533
1162.9294,0.051729
1164.7931,0.049831
1166.6567,0.049887
1168.5204,0.051037
1170.3841,0.052630
1172.2477,0.054256
1174.1114,0.054878
1175.9751,0.053823
1177.8388,0.051915
1179.7024,0.050247
1181.5661,0.049243
1183.4298,0.048894
1185.2934,0.048962
1187.1571,0.048932
1189.0208,0.048790
1190.8844,0.048666
1192.7481,0.048453
1194.6118,0.048279
1196.4754,0.048286
1198.3391,0.048415
1200.2028,0.048689
1202.0665,0.049051
1203.9301,0.049263
1205.7938,0.049248
1207.6575,0.049267
1209.5211,0.049486
1211.3848,0.049813
1213.2485,0.050157
1215.1121,0.050626
1216.9758,0.051220
1218.8395,0.051695
1220.7031,0.052028
1222.5668,0.052377
1224.4305,0.052820
1226.2941,0.053345
1228.1578,0.053869
1230.0215,0.054363
1231.8852,0.054875
1233.7488,0.055468
1235.6125,0.056024
1237.4762,0.056634
1239.3398,0.057401
1241.2035,0.058159
1243.0672,0.059001
1244.9308,0.060012
1246.7945,0.061017
1248.6582,0.062131
1250.5218,0.063542
1252.3855,0.065165
1254.2492,0.067003
1256.1129,0.069077
1257.9765,0.071146
1259.8402,0.072903
1261.7039,0.073544
1263.5675,0.072417
1265.4312,0.069863
1267.2949,0.066905
1269.1585,0.064669
1271.0222,0.063700
1272.8859,0.063935
1274.7495,0.064899
1276.6132,0.066400
1278.4769,0.068402
1280.3405,0.070672
1282.2042,0.073020
1284.0679,0.075369
1285.9316,0.078011
1287.7952,0.081402
1289.6589,0.085308
1291.5226,0.088975
1293.3862,0.091125
1295.2499,0.090701
1297.1136,0.088516
1298.9772,0.087191
1300.8409,0.088855
1302.7046,0.093329
1304.5682,0.097565
1306.4319,0.097360
1308.2956,0.090964
1310.1592,0.080299
1312.0229,0.070166
1313.8866,0.064203
1315.7503,0.062636
1317.6139,0.063871
1319.4776,0.066531
1321.3413,0.069570
1323.2049,0.072786
1325.0686,0.076515
1326.9323,0.080670
1328.7959,0.084845
1330.6596,0.088167
1332.5233,0.089068
1334.3869,0.086565
1336.2506,0.082139
1338.1143,0.079047
1339.9780,0.078493
1341.8416,0.077539
1343.7053,0.075343
1345.5690,0.073187
1347.4326,0.071904
1349.2963,0.072069
1351.1600,0.073304
1353.0236,0.075182
1354.8873,0.077982
1356.7510,0.081055
1358.6146,0.083463
1360.4783,0.085863
1362.3420,0.090172
1364.2056,0.094522
1366.0693,0.096936
1367.9330,0.100741
1369.7967,0.105694
1371.6603,0.109688
1373.5240,0.115413
1375.3877,0.122190
1377.2513,0.126301
1379.1150,0.130519
1380.9787,0.135888
1382.8423,0.141221
1384.7060,0.146252
1386.5697,0.151698
1388.4333,0.155067
1390.2970,0.152826
1392.1607,0.149513
1394.0244,0.147865
1395.8880,0.145946
1397.7517,0.143030
1399.6154,0.139758
1401.4790,0.133351
1403.3427,0.124689
1405.2064,0.111601
1407.0700,0.096769
1408.9337,0.086878
1410.7974,0.080599
1412.6610,0.075231
1414.5247,0.069684
1416.3884,0.064982
1418.2520,0.062885
1420.1157,0.061944
1421.9794,0.060111
1423.8431,0.057704
1425.7067,0.053036
1427.5704,0.048432
1429.4341,0.045449
1431.2977,0.043003
1433.1614,0.041241
1435.0251,0.041688
1436.8887,0.045740
1438.7524,0.049050
1440.6161,0.050824
1442.4797,0.054308
1444.3434,0.058121
1446.2071,0.061391
1448.0707,0.063432
1449.9344,0.061386
1451.7981,0.057118
1453.6618,0.053519
1455.5254,0.053520
1457.3891,0.060751
1459.2528,0.065223
1461.1164,0.064906
1462.9801,0.066314
1464.8438,0.068793
1466.7074,0.067555
1468.5711,0.063266
1470.4348,0.060450
1472.2984,0.061206
1474.1621,0.063084
1476.0258,0.063073
1477.8895,0.062625
1479.7531,0.062496
1481.6168,0.063871
1483.4805,0.065359
1485.3441,0.066346
1487.2078,0.068695
1489.0715,0.073262
1490.9351,0.077591
1492.7988,0.077681
1494.6625,0.078049
1496.5261,0.082290
1498.3898,0.086761
1500.2535,0.087790
1502.1171,0.087139
1503.9808,0.086263
1505.8445,0.088892
1507.7082,0.094483
1509.5718,0.089539
1511.4355,0.084750
1513.2992,0.080601
1515.1628,0.077089
1517.0265,0.074963
1518.8902,0.072352
1520.7538,0.071590
1522.6175,0.072010
1524.4812,0.070483
1526.3448,0.070428
1528.2085,0.070793
1530.0722,0.069974
1531.9359,0.070552
1533.7995,0.073718
1535.6632,0.074180
1537.5269,0.073350
1539.3905,0.078106
1541.2542,0.087359
1543.1179,0.088638
1544.9815,0.090507
1546.8452,0.092114
1548.7089,0.093930
1550.5725,0.098145
1552.4362,0.101235
1554.2999,0.103652
1556.1635,0.106605
1558.0272,0.113644
1559.8909,0.129980
1561.7546,0.124800
1563.6182,0.121580
1565.4819,0.123241
1567.3456,0.124750
1569.2092,0.127504
1571.0729,0.129259
1572.9366,0.126531
1574.8002,0.126569
1576.6639,0.129951
1578.5276,0.127753
1580.3912,0.124172
1582.2549,0.122480
1584.1186,0.120712
1585.9822,0.118759
1587.8459,0.117122
1589.7096,0.115523
1591.5733,0.113604
1593.4369,0.111768
1595.3006,0.110305
1597.1643,0.108562
1599.0279,0.106473
1600.8916,0.104809
1602.7553,0.103687
1604.6189,0.102474
1606.4826,0.101389
1608.3463,0.100807
1610.2099,0.100282
1612.0736,0.099116
1613.9373,0.097608
1615.8010,0.097489
1617.6646,0.097059
1619.5283,0.093233
1621.3920,0.090651
1623.2556,0.090009
1625.1193,0.088248
1626.9830,0.085088
1628.8466,0.080953
1630.7103,0.075484
1632.5740,0.070063
1634.4376,0.065308
1636.3013,0.059839
1638.1650,0.054200
1640.0286,0.050615
1641.8923,0.047938
1643.7560,0.046448
1645.6197,0.046781
1647.4833,0.048683
1649.3470,0.048603
1651.2107,0.048513
1653.0743,0.052173
1654.9380,0.054324
1656.8017,0.052024
1658.6653,0.051390
1660.5290,0.051550
1662.3927,0.052029
1664.2563,0.051452
1666.1200,0.049710
1667.9837,0.048574
1669.8474,0.047901
1671.7110,0.046337
1673.5747,0.045379
1675.4384,0.045819
1677.3020,0.046001
1679.1657,0.045971
1681.0294,0.046839
1682.8930,0.048317
1684.7567,0.050951
1686.6204,0.050758
1688.4840,0.049440
1690.3477,0.048138
1692.2114,0.045964
1694.0750,0.043926
1695.9387,0.041891
1697.8024,0.039244
1699.6661,0.037648
1701.5297,0.034570
1703.3934,0.031155
1705.2571,0.028053
1707.1207,0.023934
1708.9844,0.020751
1710.8481,0.018422
1712.7117,0.016513
1714.5754,0.015165
1716.4391,0.014257
1718.3027,0.013898
1720.1664,0.013386
1722.0301,0.012778
1723.8937,0.011905
1725.7574,0.010770
1727.6211,0.009838
1729.4848,0.009128
1731.3484,0.008395
1733.2121,0.007861
1735.0758,0.007306
1736.9394,0.006919
1738.8031,0.006698
1740.6668,0.006393
1742.5304,0.006147
1744.3941,0.006008
1746.2578,0.005804
1748.1214,0.005536
1749.9851,0.005281
1751.8488,0.005183
1753.7125,0.005093
1755.5761,0.005097
1757.4398,0.005020
1759.3035,0.004783
1761.1671,0.004695
1763.0308,0.004644
1764.8945,0.004628
1766.7581,0.004759
1768.6218,0.004668
1770.4855,0.004496
1772.3491,0.004471
1774.2128,0.004376
1776.0765,0.004206
1777.9401,0.004235
1779.8038,0.004311
1781.6675,0.004261
1783.5312,0.004264
1785.3948,0.004467
1787.2585,0.004466
1789.1222,0.004353
1790.9858,0.004291
1792.8495,0.004309
1794.7132,0.004292
1796.5768,0.004252
1798.4405,0.004183
1800.3042,0.004123
1802.1678,0.004132
1804.0315,0.004179
1805.8952,0.004218
1807.7589,0.004219
1809.6225,0.004079
1811.4862,0.004145
1813.3499,0.004242
1815.2135,0.004104
1817.0772,0.004084
1818.9409,0.004295
1820.8045,0.004385
1822.6682,0.004323
1824.5319,0.004154
1826.3955,0.004120
1828.2592,0.004129
1830.1229,0.004126
1831.9865,0.004261
1833.8502,0.004316
1835.7139,0.004238
1837.5776,0.004216
1839.4412,0.004086
1841.3049,0.003901
1843.1686,0.003747
1845.0322,0.003470
1846.8959,0.003348
1848.7596,0.003643
1850.6232,0.003912
1852.4869,0.004009
1854.3506,0.003943
1856.2142,0.003934
1858.0779,0.003998
1859.9416,0.004093
1861.8052,0.004170
1863.6689,0.004050
1865.5326,0.003996
1867.3963,0.004112
1869.2599,0.004036
1871.1236,0.004135
1872.9873,0.004096
1874.8509,0.003895
1876.7146,0.004125
1878.5783,0.004453
1880.4419,0.004293
1882.3056,0.004000
1884.1693,0.003778
1886.0329,0.003869
1887.8966,0.004203
1889.7603,0.004344
1891.6240,0.003983
1893.4876,0.003868
1895.3513,0.003651
1897.2150,0.003665
1899.0786,0.004089
1900.9423,0.004277
1902.8060,0.004058
1904.6696,0.003875
1906.5333,0.003834
1908.3970,0.003705
1910.2606,0.003765
1912.1243,0.003774
1913.9880,0.003825
1915.8516,0.004182
1917.7153,0.004181
1919.5790,0.003750
1921.4427,0.003608
1923.3063,0.004085
1925.1700,0.003882
1927.0337,0.003631
1928.8973,0.004004
1930.7610,0.003903
1932.6247,0.003634
1934.4883,0.003929
1936.3520,0.003692
1938.2157,0.003169
1940.0793,0.003330
1941.9430,0.003788
1943.8067,0.003747
1945.6704,0.003418
1947.5340,0.003052
1949.3977,0.002481
1951.2614,0.002713
1953.1250,0.002962
1954.9887,0.002642
1956.8524,0.002697
1958.7160,0.002802
1960.5797,0.002348
1962.4434,0.002368
1964.3070,0.003173
1966.1707,0.002531
1968.0344,0.001234
1969.8980,0.001121
1971.7617,0.001912
1973.6254,0.001241
1975.4891,0.001312
1977.3527,0.001706
1979.2164,0.002495
1981.0801,0.002828
1982.9437,0.001923
1984.8074,0.002224
1986.6711,0.003182
1988.5347,0.003125
1990.3984,0.003144
1992.2621,0.002884
1994.1257,0.002143
1995.9894,0.002438
1997.8531,0.002662
1999.7167,0.002608
2001.5804,0.002836
2003.4441,0.002745
2005.3078,0.002680
2007.1714,0.002176
2009.0351,0.002365
2010.8988,0.002915
2012.7624,0.002642
2014.6261,0.002597
2016.4898,0.003728
2018.3534,0.003524
2020.2171,0.002260
2022.0808,0.002492
2023.9444,0.002839
2025.8081,0.003303
2027.6718,0.004067
2029.5355,0.003447
2031.3991,0.002780
2033.2628,0.002783
2035.1265,0.003369
2036.9901,0.003506
2038.8538,0.003479
2040.7175,0.003415
2042.5811,0.003604
2044.4448,0.003996
2046.3085,0.004642
2048.1721,0.004617
2050.0358,0.004764
2051.8995,0.005380
2053.7631,0.005350
2055.6268,0.005293
2057.4905,0.005625
2059.3542,0.005085
2061.2178,0.004710
2063.0815,0.005347
2064.9452,0.005662
2066.8088,0.005425
2068.6725,0.005719
2070.5362,0.005512
2072.3998,0.005813
2074.2635,0.006272
2076.1272,0.006722
2077.9908,0.007248
2079.8545,0.007059
2081.7182,0.006819
2083.5819,0.006590
2085.4455,0.006841
2087.3092,0.007159
2089.1729,0.006830
2091.0365,0.006719
2092.9002,0.006509
2094.7639,0.006423
2096.6275,0.007043
2098.4912,0.007536
2100.3549,0.007243
2102.2185,0.006681
2104.0822,0.006798
2105.9459,0.007248
2107.8095,0.007357
2109.6732,0.007494
2111.5369,0.007878
2113.4006,0.008497
2115.2642,0.008779
2117.1279,0.008346
2118.9916,0.007977
2120.8552,0.008156
2122.7189,0.007892
2124.5826,0.007818
2126.4462,0.008110
2128.3099,0.007662
2130.1736,0.007400
2132.0372,0.007912
2133.9009,0.007762
2135.7646,0.007913
2137.6282,0.007422
2139.4919,0.007297
2141.3556,0.007545
2143.2193,0.006985
2145.0829,0.006439
2146.9466,0.006768
2148.8103,0.007416
2150.6739,0.007670
2152.5376,0.007608
2154.4013,0.007114
2156.2649,0.004851
2158.1286,0.004396
2159.9923,0.007364
2161.8559,0.008469
2163.7196,0.007617
2165.5833,0.007138
2167.4470,0.006922
2169.3106,0.007183
2171.1743,0.008148
2173.0380,0.009741
2174.9016,0.009845
2176.7653,0.010174
2178.6290,0.010762
2180.4926,0.010648
2182.3563,0.010787
2184.2200,0.011600
2186.0836,0.011382
2187.9473,0.010902
2189.8110,0.011616
2191.6746,0.012232
2193.5383,0.012418
2195.4020,0.011902
2197.2657,0.011432
2199.1293,0.012024
2200.9930,0.012796
2202.8567,0.013132
2204.7203,0.013254
2206.5840,0.013386
2208.4477,0.013326
2210.3113,0.012689
2212.1750,0.011801
2214.0387,0.011972
2215.9023,0.012508
2217.7660,0.012417
2219.6297,0.012787
2221.4934,0.013341
2223.3570,0.012561
2225.2207,0.011393
2227.0844,0.010977
2228.9480,0.011423
2230.8117,0.011203
2232.6754,0.011403
2234.5390,0.011675
2236.4027,0.011269
2238.2664,0.011642
2240.1300,0.011662
2241.9937,0.011395
2243.8574,0.011547
2245.7210,0.011727
2247.5847,0.011897
2249.4484,0.011896
2251.3121,0.011424
2253.1757,0.011086
2255.0394,0.011709
2256.9031,0.011940
2258.7667,0.011192
2260.6304,0.011008
2262.4941,0.011157
2264.3577,0.011423
2266.2214,0.011273
2268.0851,0.011017
2269.9487,0.011462
2271.8124,0.012011
2273.6761,0.012363
2275.5397,0.012456
2277.4034,0.011847
2279.2671,0.011629
2281.1308,0.012054
2282.9944,0.012351
2284.8581,0.012349
2286.7218,0.012254
2288.5854,0.012423
2290.4491,0.012785
2292.3128,0.012757
2294.1764,0.012359
2296.0401,0.012166
2297.9038,0.012182
2299.7674,0.012043
2301.6311,0.012156
2303.4948,0.012386
2305.3585,0.012276
2307.2221,0.012402
2309.0858,0.012477
2310.9495,0.012329
2312.8131,0.012497
2314.6768,0.012576
2316.5405,0.012738
2318.4041,0.012828
2320.2678,0.012812
2322.1315,0.012920
2323.9951,0.012905
2325.8588,0.012467
2327.7225,0.012060
2329.5861,0.012184
2331.4498,0.012161
2333.3135,0.011845
2335.1772,0.011683
2337.0408,0.011865
2338.9045,0.011951
2340.7682,0.011937
2342.6318,0.012227
2344.4955,0.012390
2346.3592,0.012265
2348.2228,0.011742
2350.0865,0.011631
2351.9502,0.011722
2353.8138,0.011909
2355.6775,0.012060
2357.5412,0.012096
2359.4049,0.012217
2361.2685,0.012394
2363.1322,0.012567
2364.9959,0.012718
2366.8595,0.013008
2368.7232,0.013065
2370.5869,0.012832
2372.4505,0.013006
2374.3142,0.013058
2376.1779,0.013081
2378.0415,0.013575
2379.9052,0.013855
2381.7689,0.013776
2383.6325,0.013809
2385.4962,0.013895
2387.3599,0.013937
2389.2236,0.013864
2391.0872,0.013845
2392.9509,0.013935
2394.8146,0.014015
2396.6782,0.014155
2398.5419,0.014556
2400.4056,0.014750
2402.2692,0.014602
2404.1329,0.014586
2405.9966,0.014906
2407.8602,0.015212
2409.7239,0.015238
2411.5876,0.015409
2413.4512,0.015819
2415.3149,0.016010
2417.1786,0.016164
2419.0423,0.016191
2420.9059,0.016044
2422.7696,0.016277
2424.6333,0.016095
2426.4969,0.015822
2428.3606,0.016006
2430.2243,0.016374
2432.0879,0.016763
2433.9516,0.016944
2435.8153,0.016995
2437.6789,0.016973
2439.5426,0.016769
2441.4063,0.016942
2443.2700,0.017218
2445.1336,0.017155
2446.9973,0.017197
2448.8610,0.017594
2450.7246,0.017573
2452.5883,0.017468
2454.4520,0.017730
2456.3156,0.017863
2458.1793,0.017836
2460.0430,0.017858
2461.9066,0.017780
2463.7703,0.017800
2465.6340,0.017900
2467.4976,0.017898
2469.3613,0.018205
2471.2250,0.018382
2473.0887,0.018221
2474.9523,0.018599
2476.8160,0.018997
2478.6797,0.019013
2480.5433,0.019116
2482.4070,0.019000
2484.2707,0.018980
2486.1343,0.019316
2487.9980,0.019640
2489.8617,0.019568
2491.7253,0.019508
2493.5890,0.019899
2495.4527,0.020101
2497.3164,0.020124
2499.1800,0.020307
2501.0437,0.020101
2502.9074,0.019865
2504.7710,0.020011
2506.6347,0.020673
2508.4984,0.020582
2510.3620,0.020103
2512.2257,0.020046
2514.0894,0.020131
2515.9530,0.020289
2517.8167,0.020590
2519.6804,0.020589
2521.5440,0.020515
2523.4077,0.020784
2525.2714,0.021044
2527.1351,0.021282
2528.9987,0.021362
2530.8624,0.021384
2532.7261,0.021354
2534.5897,0.021552
2536.4534,0.021884
2538.3171,0.022075
2540.1807,0.022551
2542.0444,0.022787
2543.9081,0.022682
2545.7717,0.022792
2547.6354,0.023126
2549.4991,0.023151
2551.3627,0.023321
2553.2264,0.023509
2555.0901,0.023565
2556.9538,0.023664
2558.8174,0.024007
2560.6811,0.024092
2562.5448,0.024106
2564.4084,0.024230
2566.2721,0.024404
2568.1358,0.024433
2569.9994,0.024474
2571.8631,0.024599
2573.7268,0.024844
2575.5904,0.025018
2577.4541,0.025152
2579.3178,0.025186
2581.1815,0.025336
2583.0451,0.025607
2584.9088,0.025901
2586.7725,0.026147
2588.6361,0.026541
2590.4998,0.026628
2592.3635,0.027078
2594.2271,0.027613
2596.0908,0.027847
2597.9545,0.027938
2599.8181,0.028151
2601.6818,0.028595
2603.5455,0.029082
2605.4091,0.029299
2607.2728,0.029519
2609.1365,0.029807
2611.0002,0.029996
2612.8638,0.030039
2614.7275,0.030010
2616.5912,0.030030
2618.4548,0.030126
2620.3185,0.030151
2622.1822,0.030525
2624.0458,0.030736
2625.9095,0.030631
2627.7732,0.030657
2629.6368,0.030722
2631.5005,0.031033
2633.3642,0.031436
2635.2279,0.031453
2637.0915,0.031526
2638.9552,0.031776
2640.8189,0.031844
2642.6825,0.031665
2644.5462,0.031546
2646.4099,0.031398
2648.2735,0.031097
2650.1372,0.030942
2652.0009,0.030629
2653.8645,0.030171
2655.7282,0.030066
2657.5919,0.030150
2659.4555,0.030058
2661.3192,0.029804
2663.1829,0.029613
2665.0466,0.029687
2666.9102,0.029795
2668.7739,0.029761
2670.6376,0.029666
2672.5012,0.029785
2674.3649,0.029988
2676.2286,0.030089
2678.0922,0.030454
2679.9559,0.030682
2681.8196,0.031035
2683.6832,0.031428
2685.5469,0.031579
2687.4106,0.031788
2689.2742,0.032224
2691.1379,0.032768
2693.0016,0.033004
2694.8653,0.033335
2696.7289,0.033829
2698.5926,0.034106
2700.4563,0.034369
2702.3199,0.034392
2704.1836,0.034473
2706.0473,0.034953
2707.9109,0.035335
2709.7746,0.035614
2711.6383,0.036133
2713.5019,0.036198
2715.3656,0.036138
2717.2293,0.036335
2719.0930,0.036593
2720.9566,0.036935
2722.8203,0.036933
2724.6840,0.036775
2726.5476,0.037234
2728.4113,0.037863
2730.2750,0.038123
2732.1386,0.038235
2734.0023,0.038619
2735.8660,0.038878
2737.7296,0.039280
2739.5933,0.039640
2741.4570,0.039865
2743.3206,0.039953
2745.1843,0.040249
2747.0480,0.040649
2748.9117,0.041192
2750.7753,0.041585
2752.6390,0.041766
2754.5027,0.041899
2756.3663,0.042201
2758.2300,0.042561
2760.0937,0.042971
2761.9573,0.043077
2763.8210,0.043304
2765.6847,0.043780
2767.5483,0.044346
2769.4120,0.044614
2771.2757,0.044667
2773.1394,0.044917
2775.0030,0.045694
2776.8667,0.046311
2778.7304,0.046705
2780.5940,0.046870
2782.4577,0.047020
2784.3214,0.047196
2786.1850,0.047259
2788.0487,0.047050
2789.9124,0.046817
2791.7760,0.046350
2793.6397,0.046144
2795.5034,0.045648
2797.3670,0.044817
2799.2307,0.044549
2801.0944,0.044392
2802.9581,0.043972
2804.8217,0.043766
2806.6854,0.043484
2808.5491,0.043157
2810.4127,0.043059
2812.2764,0.042993
2814.1401,0.042948
2816.0037,0.042949
2817.8674,0.042912
2819.7311,0.043140
2821.5947,0.042982
2823.4584,0.042884
2825.3221,0.043227
2827.1857,0.043378
2829.0494,0.043231
2830.9131,0.043131
2832.7768,0.043066
2834.6404,0.043215
2836.5041,0.043527
2838.3678,0.043980
2840.2314,0.044109
2842.0951,0.044505
2843.9588,0.044778
2845.8224,0.045018
2847.6861,0.045323
2849.5498,0.045813
2851.4134,0.046461
2853.2771,0.047064
2855.1408,0.047260
2857.0045,0.047611
2858.8681,0.048123
2860.7318,0.048558
2862.5955,0.049041
2864.4591,0.049552
2866.3228,0.049658
2868.1865,0.049655
2870.0501,0.050021
2871.9138,0.050209
2873.7775,0.049808
2875.6411,0.049540
2877.5048,0.049549
2879.3685,0.049730
2881.2321,0.050127
2883.0958,0.050310
2884.9595,0.049971
2886.8232,0.049955
2888.6868,0.050357
2890.5505,0.050408
2892.4142,0.050399
2894.2778,0.050203
2896.1415,0.049880
2898.0052,0.050075
2899.8688,0.050068
2901.7325,0.050056
2903.5962,0.050280
2905.4598,0.050444
2907.3235,0.050642
2909.1872,0.051419
2911.0509,0.051592
2912.9145,0.051648
2914.7782,0.051847
2916.6419,0.052069
2918.5055,0.052484
2920.3692,0.052936
2922.2329,0.053123
2924.0965,0.053446
2925.9602,0.054047
2927.8239,0.054741
2929.6875,0.055445
2931.5512,0.056200
2933.4149,0.056088
2935.2785,0.055590
2937.1422,0.055422
2939.0059,0.055337
2940.8696,0.055276
2942.7332,0.055532
2944.5969,0.056003
2946.4606,0.056291
2948.3242,0.056110
2950.1879,0.056266
2952.0516,0.056107
2953.9152,0.055483
2955.7789,0.055261
2957.6426,0.055672
2959.5062,0.056158
2961.3699,0.056621
2963.2336,0.056498
2965.0972,0.056561
2966.9609,0.056703
2968.8246,0.056816
2970.6883,0.057205
2972.5519,0.057945
2974.4156,0.058369
2976.2793,0.058690
2978.1429,0.058509
2980.0066,0.058391
2981.8703,0.058748
2983.7339,0.058914
2985.5976,0.059121
2987.4613,0.059349
2989.3249,0.059179
2991.1886,0.059335
2993.0523,0.059507
2994.9160,0.059760
2996.7796,0.059987
2998.6433,0.060315
3000.5070,0.060571
3002.3706,0.061053
3004.2343,0.061209
3006.0980,0.061158
3007.9616,0.061690
3009.8253,0.062283
3011.6890,0.062948
3013.5526,0.063730
3015.4163,0.063776
3017.2800,0.063681
3019.1436,0.063485
3021.0073,0.063617
3022.8710,0.063310
3024.7347,0.063123
3026.5983,0.063460
3028.4620,0.063526
3030.3257,0.063252
3032.1893,0.063093
3034.0530,0.063289
3035.9167,0.063586
3037.7803,0.063825
3039.6440,0.063836
3041.5077,0.063091
3043.3713,0.062930
3045.2350,0.063125
3047.0987,0.063258
3048.9624,0.062902
3050.8260,0.062791
3052.6897,0.062696
3054.5534,0.063062
3056.4170,0.063038
3058.2807,0.062633
3060.1444,0.062623
3062.0080,0.062886
3063.8717,0.062283
3065.7354,0.061820
3067.5990,0.061606
3069.4627,0.061558
3071.3264,0.061796
3073.1900,0.061702
3075.0537,0.060796
3076.9174,0.060621
3078.7811,0.060648
3080.6447,0.060400
3082.5084,0.059426
3084.3721,0.058568
3086.2357,0.058098
3088.0994,0.057975
3089.9631,0.057271
3091.8267,0.056652
3093.6904,0.056157
3095.5541,0.055491
3097.4177,0.054775
3099.2814,0.054248
3101.1451,0.053620
3103.0087,0.053160
3104.8724,0.052444
3106.7361,0.052010
3108.5998,0.051292
3110.4634,0.050250
3112.3271,0.049763
3114.1908,0.049730
3116.0544,0.048969
3117.9181,0.048223
3119.7818,0.047891
3121.6454,0.047781
3123.5091,0.047197
3125.3728,0.046482
3127.2364,0.045956
3129.1001,0.045663
3130.9638,0.044722
3132.8275,0.043831
3134.6911,0.043273
3136.5548,0.043223
3138.4185,0.043616
3140.2821,0.043657
3142.1458,0.042831
3144.0095,0.042155
3145.8731,0.041614
3147.7368,0.041273
3149.6005,0.041205
3151.4641,0.040587
3153.3278,0.039958
3155.1915,0.040129
3157.0551,0.039677
3158.9188,0.039094
3160.7825,0.038543
3162.6462,0.038713
3164.5098,0.038781
3166.3735,0.038053
3168.2372,0.037744
3170.1008,0.037308
3171.9645,0.036822
3173.8282,0.037072
3175.6918,0.036721
3177.5555,0.036075
3179.4192,0.035761
3181.2828,0.035678
3183.1465,0.035668
3185.0102,0.035801
3186.8739,0.035271
3188.7375,0.034764
3190.6012,0.034593
3192.4649,0.034574
3194.3285,0.034756
3196.1922,0.034890
3198.0559,0.034354
3199.9195,0.034159
3201.7832,0.033961
3203.6469,0.034656
3205.5105,0.034598
3207.3742,0.034163
3209.2379,0.034419
3211.1015,0.034292
3212.9652,0.034167
3214.8289,0.034563
3216.6926,0.034239
3218.5562,0.033391
3220.4199,0.033350
3222.2836,0.033992
3224.1472,0.034199
3226.0109,0.033935
3227.8746,0.034206
3229.7382,0.034485
3231.6019,0.033874
3233.4656,0.034000
3235.3292,0.034301
3237.1929,0.034225
3239.0566,0.034214
3240.9202,0.034318
3242.7839,0.034104
3244.6476,0.034081
3246.5113,0.034243
3248.3749,0.034733
3250.2386,0.035237
3252.1023,0.035631
3253.9659,0.036015
3255.8296,0.035768
3257.6933,0.034936
3259.5569,0.035491
3261.4206,0.036622
3263.2843,0.036158
3265.1479,0.035931
3267.0116,0.036565
3268.8753,0.036831
3270.7390,0.036961
3272.6026,0.036330
3274.4663,0.035491
3276.3300,0.035481
3278.1936,0.035998
3280.0573,0.035663
3281.9210,0.035322
3283.7846,0.036004
3285.6483,0.036552
3287.5120,0.035817
3289.3756,0.034967
3291.2393,0.034621
3293.1030,0.033978
3294.9666,0.033549
3296.8303,0.033587
3298.6940,0.033219
3300.5577,0.033144
3302.4213,0.032919
3304.2850,0.032280
3306.1487,0.031561
3308.0123,0.031410
3309.8760,0.030916
3311.7397,0.030451
3313.6033,0.030358
3315.4670,0.030445
3317.3307,0.029800
3319.1943,0.029489
3321.0580,0.029682
3322.9217,0.029670
3324.7854,0.030109
3326.6490,0.030845
3328.5127,0.030752
3330.3764,0.031340
3332.2400,0.031133
3334.1037,0.030286
3335.9674,0.029993
3337.8310,0.029974
3339.6947,0.029265
3341.5584,0.028468
3343.4220,0.027513
3345.2857,0.026816
3347.1494,0.026573
3349.0130,0.026674
3350.8767,0.025902
3352.7404,0.025485
3354.6041,0.025498
3356.4677,0.024697
3358.3314,0.023724
3360.1951,0.023472
3362.0587,0.023332
3363.9224,0.023371
3365.7861,0.023551
3367.6497,0.023203
3369.5134,0.022283
3371.3771,0.021543
3373.2407,0.021250
3375.1044,0.021258
3376.9681,0.020664
3378.8317,0.021180
3380.6954,0.021277
3382.5591,0.020934
3384.4228,0.020907
3386.2864,0.020579
3388.1501,0.020986
3390.0138,0.021421
3391.8774,0.021829
3393.7411,0.022289
3395.6048,0.021717
3397.4684,0.021079
3399.3321,0.021243
3401.1958,0.021435
3403.0594,0.021198
3404.9231,0.020692
3406.7868,0.020587
3408.6505,0.020055
3410.5141,0.019553
3412.3778,0.018904
3414.2415,0.017577
3416.1051,0.016666
3417.9688,0.016084
3419.8325,0.016021
3421.6961,0.015125
3423.5598,0.014556
3425.4235,0.014410
3427.2871,0.013552
3429.1508,0.012830
3431.0145,0.012434
3432.8781,0.011615
3434.7418,0.011427
3436.6055,0.010924
3438.4692,0.010200
3440.3328,0.010326
3442.1965,0.010811
3444.0602,0.010700
3445.9238,0.010604
3447.7875,0.008855
3449.6512,0.007933
3451.5148,0.008443
3453.3785,0.008526
3455.2422,0.008344
3457.1058,0.008187
3458.9695,0.008631
3460.8332,0.008000
3462.6969,0.007338
3464.5605,0.006736
3466.4242,0.006060
3468.2879,0.006925
3470.1515,0.007777
3472.0152,0.007927
3473.8789,0.007275
3475.7425,0.006283
3477.6062,0.005751
3479.4699,0.006362
3481.3335,0.006333
3483.1972,0.005634
3485.0609,0.006571
3486.9245,0.007674
3488.7882,0.006031
3490.6519,0.004406
3492.5156,0.004619
3494.3792,0.004818
3496.2429,0.004811
3498.1066,0.005358
3499.9702,0.005316
3501.8339,0.004880
3503.6976,0.004636
3505.5612,0.004423
3507.4249,0.004352
3509.2886,0.004150
3511.1522,0.003501
3513.0159,0.003193
3514.8796,0.003020
3516.7432,0.002649
3518.6069,0.003516
3520.4706,0.004224
3522.3343,0.003226
3524.1979,0.003139
3526.0616,0.002762
3527.9253,0.002565
3529.7889,0.002666
3531.6526,0.001822
3533.5163,0.002155
3535.3799,0.003360
3537.2436,0.002944
3539.1073,0.002118
3540.9709,0.001389
3542.8346,0.001337
3544.6983,0.001470
3546.5620,0.001121
3548.4256,0.001402
3550.2893,0.001768
3552.1530,0.001433
3554.0166,0.001486
3555.8803,0.001611
3557.7440,0.001219
3559.6076,0.001174
3561.4713,0.001243
3563.3350,0.001199
3565.1986,0.001703
3567.0623,0.001759
3568.9260,0.000627
3570.7896,0.000397
3572.6533,0.000929
3574.5170,0.001201
3576.3807,0.001380
3578.2443,0.001710
3580.1080,0.001741
3581.9717,0.002046
3583.8353,0.002412
3585.6990,0.001708
3587.5627,0.001273
3589.4263,0.001411
3591.2900,0.001487
3593.1537,0.000999
3595.0173,0.000704
3596.8810,0.001214
3598.7447,0.001216
3600.6084,0.000305
3602.4720,0.000045
3604.3357,0.000840
3606.1994,0.001849
3608.0630,0.002325
3609.9267,0.001519
3611.7904,0.000322
3613.6540,0.000509
3615.5177,0.001092
3617.3814,0.001693
3619.2450,0.001795
3621.1087,0.000997
3622.9724,0.001491
3624.8360,0.001744
3626.6997,0.001074
3628.5634,0.000654
3630.4271,0.000462
3632.2907,0.001355
3634.1544,0.001908
3636.0181,0.001210
3637.8817,0.000944
3639.7454,0.000956
3641.6091,0.001231
3643.4727,0.001712
3645.3364,0.001614
3647.2001,0.001019
3649.0637,0.000331
3650.9274,-0.000097
3652.7911,-0.000046
3654.6547,0.000597
3656.5184,0.001174
3658.3821,0.001258
3660.2458,0.001201
3662.1094,0.001206
3663.9731,0.001477
3665.8368,0.002296
3667.7004,0.002486
3669.5641,0.001643
3671.4278,0.000532
3673.2914,0.000313
3675.1551,0.001274
3677.0188,0.001371
3678.8824,0.000642
3680.7461,0.000583
3682.6098,0.001170
3684.4735,0.001942
3686.3371,0.001559
3688.2008,0.000416
3690.0645,-0.000070
3691.9281,0.000922
3693.7918,0.001443
3695.6555,0.001741
3697.5191,0.001902
3699.3828,0.001492
3701.2465,0.001360
3703.1101,0.001344
3704.9738,0.001223
3706.8375,0.001444
3708.7011,0.001450
3710.5648,0.001528
3712.4285,0.001361
3714.2922,0.000783
3716.1558,0.000808
3718.0195,0.001408
3719.8832,0.001784
3721.7468,0.001869
3723.6105,0.001456
3725.4742,0.001312
3727.3378,0.001313
3729.2015,0.001628
3731.0652,0.001753
3732.9288,0.001210
3734.7925,0.000891
3736.6562,0.000336
3738.5199,-0.000130
3740.3835,0.000543
3742.2472,0.001050
3744.1109,0.001651
3745.9745,0.000773
3747.8382,-0.000054
3749.7019,0.000768
3751.5655,0.000886
3753.4292,0.000151
3755.2929,0.000358
3757.1565,0.000848
3759.0202,0.001714
3760.8839,0.001861
3762.7475,0.001233
3764.6112,0.001270
3766.4749,0.001393
3768.3386,0.001395
3770.2022,0.001406
3772.0659,0.001615
3773.9296,0.001802
3775.7932,0.001711
3777.6569,0.002053
3779.5206,0.002476
3781.3842,0.001678
3783.2479,0.001184
3785.1116,0.001389
3786.9752,0.001721
3788.8389,0.002086
3790.7026,0.002216
3792.5662,0.001798
3794.4299,0.001526
3796.2936,0.002206
3798.1573,0.002037
3800.0209,0.001171
3801.8846,0.001406
3803.7483,0.001870
3805.6119,0.001780
3807.4756,0.001624
3809.3393,0.001475
3811.2029,0.001657
3813.0666,0.001837
3814.9303,0.001708
3816.7939,0.001576
3818.6576,0.001544
3820.5213,0.001658
3822.3850,0.001722
3824.2486,0.001827
3826.1123,0.001555
3827.9760,0.001354
3829.8396,0.001654
3831.7033,0.001898
3833.5670,0.001798
3835.4306,0.001701
3837.2943,0.001813
3839.1580,0.001684
3841.0216,0.000855
3842.8853,0.000836
3844.7490,0.001682
3846.6126,0.002175
3848.4763,0.002389
3850.3400,0.002090
3852.2037,0.001385
3854.0673,0.000713
3855.9310,-0.000114
3857.7947,0.000649
3859.6583,0.001607
3861.5220,0.001285
3863.3857,0.001092
3865.2493,0.001394
3867.1130,0.001766
3868.9767,0.001944
3870.8403,0.001987
3872.7040,0.001759
3874.5677,0.001169
3876.4314,0.001122
3878.2950,0.001576
3880.1587,0.001881
3882.0224,0.001877
3883.8860,0.001858
3885.7497,0.001828
3887.6134,0.001378
3889.4770,0.001507
3891.3407,0.002066
3893.2044,0.001812
3895.0680,0.001603
3896.9317,0.001720
3898.7954,0.001439
3900.6590,0.001510
3902.5227,0.002236
3904.3864,0.002044
3906.2501,0.001810
3908.1137,0.002408
3909.9774,0.002658
3911.8411,0.002257
3913.7047,0.001949
3915.5684,0.002162
3917.4321,0.001992
3919.2957,0.001903
3921.1594,0.002460
3923.0231,0.002398
3924.8867,0.001969
3926.7504,0.002214
3928.6141,0.002178
3930.4777,0.001834
3932.3414,0.001947
3934.2051,0.002474
3936.0688,0.001983
3937.9324,0.001447
3939.7961,0.001811
3941.6598,0.001956
3943.5234,0.002385
3945.3871,0.002727
3947.2508,0.002387
3949.1144,0.002344
3950.9781,0.002188
3952.8418,0.002005
3954.7054,0.002026
3956.5691,0.002183
3958.4328,0.002140
3960.2965,0.002037
3962.1601,0.002171
3964.0238,0.002524
3965.8875,0.002473
3967.7511,0.002082
3969.6148,0.002258
3971.4785,0.002566
3973.3421,0.002557
3975.2058,0.002843
3977.0695,0.002592
3978.9331,0.002180
3980.7968,0.002573
3982.6605,0.002636
3984.5241,0.002396
3986.3878,0.002613
3988.2515,0.002618
3990.1152,0.002457
3991.9788,0.002879
3993.8425,0.003025
3995.7062,0.002274
3997.5698,0.001777
3999.4335,0.002134
