Wavenumber,Intensity
650.4205,0.272961
652.2841,0.268677
654.1478,0.261320
656.0115,0.254506
657.8751,0.250958
659.7388,0.244490
661.6025,0.239925
663.4661,0.236026
665.3298,0.232551
667.1935,0.230364
669.0571,0.231421
670.9208,0.232589
672.7845,0.233835
674.6481,0.234767
676.5118,0.236079
678.3755,0.235144
680.2392,0.234841
682.1028,0.234946
683.9665,0.235079
685.8302,0.234572
687.6938,0.235530
689.5575,0.234820
691.4212,0.234670
693.2848,0.235002
695.1485,0.236545
697.0122,0.237598
698.8758,0.238049
700.7395,0.237100
702.6032,0.235222
704.4669,0.231357
706.3305,0.224139
708.1942,0.214275
710.0579,0.204100
711.9215,0.192953
713.7852,0.181965
715.6489,0.172799
717.5125,0.164695
719.3762,0.156354
721.2399,0.148664
723.1035,0.142493
724.9672,0.137190
726.8309,0.130651
728.6945,0.124950
730.5582,0.120322
732.4219,0.115906
734.2856,0.111317
736.1492,0.107675
738.0129,0.105711
739.8766,0.106068
741.7402,0.108769
743.6039,0.111643
745.4676,0.113369
747.3312,0.114214
749.1949,0.113440
751.0586,0.111610
752.9222,0.110498
754.7859,0.110181
756.6496,0.109651
758.5132,0.108982
760.3769,0.107888
762.2406,0.106890
764.1043,0.106924
765.9679,0.107250
767.8316,0.107002
769.6953,0.106939
771.5589,0.107412
773.4226,0.108034
775.2863,0.109383
777.1499,0.110732
779.0136,0.111622
780.8773,0.113180
782.7409,0.115310
784.6046,0.117645
786.4683,0.120184
788.3320,0.123185
790.1956,0.126235
792.0593,0.128888
793.9230,0.131735
795.7866,0.135029
797.6503,0.137933
799.5140,0.140145
801.3776,0.141904
803.2413,0.143187
805.1050,0.143285
806.9686,0.142274
808.8323,0.140513
810.6960,0.137784
812.5596,0.133889
814.4233,0.129502
816.2870,0.125785
818.1507,0.122547
820.0143,0.119611
821.8780,0.117544
823.7417,0.116729
825.6053,0.117308
827.4690,0.119537
829.3327,0.120492
831.1963,0.112428
833.0600,0.096124
834.9237,0.082013
836.7873,0.074841
838.6510,0.071901
840.5147,0.070287
842.3784,0.069352
844.2420,0.069056
846.1057,0.068852
847.9694,0.068344
849.8330,0.067387
851.6967,0.065879
853.5604,0.064628
855.4240,0.063870
857.2877,0.063484
859.1514,0.063096
861.0150,0.062813
862.8787,0.062855
864.7424,0.062797
866.6060,0.062815
868.4697,0.063110
870.3334,0.063290
872.1971,0.063417
874.0607,0.063529
875.9244,0.063588
877.7881,0.063775
879.6517,0.064174
881.5154,0.064468
883.3791,0.064796
885.2427,0.065336
887.1064,0.065911
888.9701,0.066552
890.8337,0.067278
892.6974,0.068112
894.5611,0.069113
896.4247,0.070229
898.2884,0.071595
900.1521,0.073559
902.0158,0.076166
903.8794,0.079461
905.7431,0.083974
907.6068,0.089802
909.4704,0.096502
911.3341,0.104500
913.1978,0.114031
915.0614,0.118630
916.9251,0.108378
918.7888,0.088542
920.6524,0.073314
922.5161,0.066466
924.3798,0.064421
926.2435,0.064128
928.1071,0.064455
929.9708,0.065058
931.8345,0.065753
933.6981,0.066511
935.5618,0.067291
937.4255,0.068068
939.2891,0.068840
941.1528,0.069628
943.0165,0.070541
944.8801,0.071501
946.7438,0.072461
948.6075,0.073392
950.4711,0.074494
952.3348,0.075654
954.1985,0.076816
956.0622,0.078223
957.9258,0.079527
959.7895,0.080751
961.6532,0.082261
963.5168,0.084126
965.3805,0.086405
967.2442,0.089174
969.1078,0.092411
970.9715,0.095885
972.8352,0.099934
974.6988,0.106470
976.5625,0.118211
978.4262,0.138867
980.2899,0.168442
982.1535,0.180790
984.0172,0.147429
985.8809,0.102969
987.7445,0.082374
989.6082,0.078355
991.4719,0.078089
993.3355,0.078565
995.1992,0.079290
997.0629,0.079925
998.9265,0.080524
1000.7902,0.081143
1002.6539,0.081740
1004.5175,0.082245
1006.3812,0.082766
1008.2449,0.083411
1010.1086,0.084014
1011.9722,0.084432
1013.8359,0.084930
1015.6996,0.085728
1017.5632,0.086837
1019.4269,0.088218
1021.2906,0.089864
1023.1542,0.091644
1025.0179,0.093432
1026.8816,0.095374
1028.7452,0.097557
1030.6089,0.099693
1032.4726,0.101263
1034.3362,0.102199
1036.1999,0.103657
1038.0636,0.106667
1039.9273,0.111048
1041.7909,0.116348
1043.6546,0.122387
1045.5183,0.128463
1047.3819,0.132667
1049.2456,0.132328
1051.1093,0.125563
1052.9729,0.114027
1054.8366,0.102757
1056.7003,0.095509
1058.5639,0.092334
1060.4276,0.091529
1062.2913,0.091798
1064.1550,0.092679
1066.0186,0.094038
1067.8823,0.095763
1069.7460,0.097807
1071.6096,0.100087
1073.4733,0.102511
1075.3370,0.105016
1077.2006,0.107720
1079.0643,0.110652
1080.9280,0.113785
1082.7916,0.117298
1084.6553,0.121251
1086.5190,0.125590
1088.3826,0.130383
1090.2463,0.135794
1092.1100,0.141943
1093.9737,0.148926
1095.8373,0.156806
1097.7010,0.165494
1099.5647,0.174831
1101.4283,0.184361
1103.2920,0.193221
1105.1557,0.199756
1107.0193,0.201416
1108.8830,0.196163
1110.7467,0.183853
1112.6103,0.167211
1114.4740,0.149917
1116.3377,0.134287
1118.2014,0.121549
1120.0650,0.112196
1121.9287,0.105918
1123.7924,0.101723
1125.6560,0.098588
1127.5197,0.095791
1129.3834,0.092959
1131.2470,0.090248
1133.1107,0.087854
1134.9744,0.085931
1136.8380,0.084691
1138.7017,0.083985
1140.5654,0.083698
1142.4290,0.083753
1144.2927,0.083952
1146.1564,0.084168
1148.0201,0.084376
1149.8837,0.084734
1151.7474,0.085309
1153.6111,0.086074
1155.4747,0.087134
1157.3384,0.088461
1159.2021,0.090083
1161.0657,0.092112
1162.9294,0.094732
1164.7931,0.098184
1166.6567,0.102477
1168.5204,0.107575
1170.3841,0.112933
1172.2477,0.116736
1174.1114,0.116488
1175.9751,0.111409
1177.8388,0.104056
1179.7024,0.097852
1181.5661,0.094227
1183.4298,0.092557
1185.2934,0.091982
1187.1571,0.091918
1189.0208,0.091928
1190.8844,0.091841
1192.7481,0.091708
1194.6118,0.091720
1196.4754,0.091878
1198.3391,0.092162
1200.2028,0.092498
1202.0665,0.092825
1203.9301,0.093285
1205.7938,0.093788
1207.6575,0.094259
1209.5211,0.094794
1211.3848,0.095326
1213.2485,0.095830
1215.1121,0.096399
1216.9758,0.096967
1218.8395,0.097493
1220.7031,0.098049
1222.5668,0.098619
1224.4305,0.099255
1226.2941,0.099884
1228.1578,0.100427
1230.0215,0.101033
1231.8852,0.101652
1233.7488,0.102267
1235.6125,0.102951
1237.4762,0.103671
1239.3398,0.104410
1241.2035,0.105096
1243.0672,0.105823
1244.9308,0.106661
1246.7945,0.107523
1248.6582,0.108479
1250.5218,0.109540
1252.3855,0.110581
1254.2492,0.111637
1256.1129,0.112696
1257.9765,0.113838
1259.8402,0.115395
1261.7039,0.117072
1263.5675,0.118492
1265.4312,0.119754
1267.2949,0.120540
1269.1585,0.120631
1271.0222,0.120486
1272.8859,0.120506
1274.7495,0.120837
1276.6132,0.121632
1278.4769,0.122891
1280.3405,0.124597
1282.2042,0.126659
1284.0679,0.128974
1285.9316,0.131695
1287.7952,0.135066
1289.6589,0.138906
1291.5226,0.143190
1293.3862,0.148357
1295.2499,0.154523
1297.1136,0.161880
1298.9772,0.170741
1300.8409,0.181430
1302.7046,0.192873
1304.5682,0.201124
1306.4319,0.200159
1308.2956,0.184155
1310.1592,0.155164
1312.0229,0.125831
1313.8866,0.106712
1315.7503,0.099394
1317.6139,0.099041
1319.4776,0.101576
1321.3413,0.104811
1323.2049,0.108147
1325.0686,0.111747
1326.9323,0.115332
1328.7959,0.118749
1330.6596,0.121986
1332.5233,0.124635
1334.3869,0.126244
1336.2506,0.127479
1338.1143,0.129723
1339.9780,0.132658
1341.8416,0.133666
1343.7053,0.133657
1345.5690,0.134465
1347.4326,0.135831
1349.2963,0.137657
1351.1600,0.139773
1353.0236,0.142309
1354.8873,0.145501
1356.7510,0.148579
1358.6146,0.151221
1360.4783,0.155104
1362.3420,0.162091
1364.2056,0.168342
1366.0693,0.171279
1367.9330,0.175824
1369.7967,0.181313
1371.6603,0.185654
1373.5240,0.192402
1375.3877,0.200151
1377.2513,0.204880
1379.1150,0.211174
1380.9787,0.219419
1382.8423,0.227802
1384.7060,0.236961
1386.5697,0.249212
1388.4333,0.262933
1390.2970,0.269620
1392.1607,0.272475
1394.0244,0.272920
1395.8880,0.265095
1397.7517,0.251640
1399.6154,0.236434
1401.4790,0.221624
1403.3427,0.208403
1405.2064,0.188824
1407.0700,0.163254
1408.9337,0.139156
1410.7974,0.117493
1412.6610,0.102250
1414.5247,0.095318
1416.3884,0.095054
1418.2520,0.101855
1420.1157,0.114150
1421.9794,0.119922
1423.8431,0.117596
1425.7067,0.106111
1427.5704,0.093505
1429.4341,0.085688
1431.2977,0.082391
1433.1614,0.082140
1435.0251,0.084359
1436.8887,0.089946
1438.7524,0.093294
1440.6161,0.094492
1442.4797,0.096981
1444.3434,0.099163
1446.2071,0.100942
1448.0707,0.101985
1449.9344,0.099717
1451.7981,0.095240
1453.6618,0.090705
1455.5254,0.089188
1457.3891,0.094031
1459.2528,0.096243
1461.1164,0.094480
1462.9801,0.094534
1464.8438,0.095915
1466.7074,0.094912
1468.5711,0.091924
1470.4348,0.090461
1472.2984,0.091793
1474.1621,0.093325
1476.0258,0.092811
1477.8895,0.092369
1479.7531,0.092029
1481.6168,0.092570
1483.4805,0.092547
1485.3441,0.092258
1487.2078,0.093410
1489.0715,0.096758
1490.9351,0.099379
1492.7988,0.098209
1494.6625,0.097879
1496.5261,0.101413
1498.3898,0.104850
1500.2535,0.104870
1502.1171,0.103525
1503.9808,0.102776
1505.8445,0.106875
1507.7082,0.118455
1509.5718,0.116901
1511.4355,0.115296
1513.2992,0.115728
1515.1628,0.117069
1517.0265,0.119991
1518.8902,0.121618
1520.7538,0.124344
1522.6175,0.129115
1524.4812,0.128925
1526.3448,0.130815
1528.2085,0.132485
1530.0722,0.132178
1531.9359,0.133922
1533.7995,0.138552
1535.6632,0.138578
1537.5269,0.137516
1539.3905,0.143456
1541.2542,0.154658
1543.1179,0.155559
1544.9815,0.157232
1546.8452,0.158444
1548.7089,0.160150
1550.5725,0.163978
1552.4362,0.166599
1554.2999,0.168722
1556.1635,0.171704
1558.0272,0.180599
1559.8909,0.200884
1561.7546,0.194056
1563.6182,0.191632
1565.4819,0.194961
1567.3456,0.198890
1569.2092,0.205438
1571.0729,0.211875
1572.9366,0.212271
1574.8002,0.217316
1576.6639,0.228917
1578.5276,0.233101
1580.3912,0.234009
1582.2549,0.238089
1584.1186,0.241652
1585.9822,0.244395
1587.8459,0.246215
1589.7096,0.247298
1591.5733,0.247242
1593.4369,0.246356
1595.3006,0.244668
1597.1643,0.242040
1599.0279,0.238606
1600.8916,0.235324
1602.7553,0.232050
1604.6189,0.228817
1606.4826,0.225956
1608.3463,0.223570
1610.2099,0.220495
1612.0736,0.215982
1613.9373,0.210835
1615.8010,0.205238
1617.6646,0.194577
1619.5283,0.182998
1621.3920,0.175225
1623.2556,0.165504
1625.1193,0.153538
1626.9830,0.143044
1628.8466,0.130304
1630.7103,0.117422
1632.5740,0.107504
1634.4376,0.098014
1636.3013,0.086645
1638.1650,0.079738
1640.0286,0.078484
1641.8923,0.077603
1643.7560,0.077866
1645.6197,0.080162
1647.4833,0.084558
1649.3470,0.086499
1651.2107,0.089054
1653.0743,0.097135
1654.9380,0.103450
1656.8017,0.101688
1658.6653,0.102361
1660.5290,0.103185
1662.3927,0.103238
1664.2563,0.101408
1666.1200,0.099048
1667.9837,0.097422
1669.8474,0.095970
1671.7110,0.094330
1673.5747,0.094823
1675.4384,0.097969
1677.3020,0.101618
1679.1657,0.104392
1681.0294,0.109352
1682.8930,0.115583
1684.7567,0.124850
1686.6204,0.126510
1688.4840,0.124888
1690.3477,0.123283
1692.2114,0.119805
1694.0750,0.116068
1695.9387,0.112134
1697.8024,0.106331
1699.6661,0.101971
1701.5297,0.092220
1703.3934,0.083467
1705.2571,0.073963
1707.1207,0.061310
1708.9844,0.052846
1710.8481,0.046844
1712.7117,0.041936
1714.5754,0.038598
1716.4391,0.035583
1718.3027,0.033948
1720.1664,0.032682
1722.0301,0.031673
1723.8937,0.029673
1725.7574,0.027043
1727.6211,0.024587
1729.4848,0.022552
1731.3484,0.020661
1733.2121,0.019399
1735.0758,0.017479
1736.9394,0.016939
1738.8031,0.017001
1740.6668,0.016528
1742.5304,0.015747
1744.3941,0.015418
1746.2578,0.014892
1748.1214,0.014375
1749.9851,0.013603
1751.8488,0.013388
1753.7125,0.013378
1755.5761,0.013598
1757.4398,0.013394
1759.3035,0.013252
1761.1671,0.013161
1763.0308,0.013173
1764.8945,0.013116
1766.7581,0.013073
1768.6218,0.012767
1770.4855,0.012700
1772.3491,0.012488
1774.2128,0.012249
1776.0765,0.012282
1777.9401,0.012708
1779.8038,0.012731
1781.6675,0.012722
1783.5312,0.012898
1785.3948,0.013238
1787.2585,0.013081
1789.1222,0.012926
1790.9858,0.012749
1792.8495,0.012785
1794.7132,0.012696
1796.5768,0.012880
1798.4405,0.013084
1800.3042,0.013325
1802.1678,0.013205
1804.0315,0.013341
1805.8952,0.013552
1807.7589,0.013797
1809.6225,0.013704
1811.4862,0.013537
1813.3499,0.013461
1815.2135,0.013715
1817.0772,0.013622
1818.9409,0.013563
1820.8045,0.013584
1822.6682,0.013678
1824.5319,0.013674
1826.3955,0.013685
1828.2592,0.013448
1830.1229,0.013435
1831.9865,0.013171
1833.8502,0.013433
1835.7139,0.013601
1837.5776,0.013510
1839.4412,0.013307
1841.3049,0.013641
1843.1686,0.013666
1845.0322,0.013469
1846.8959,0.013252
1848.7596,0.013298
1850.6232,0.013263
1852.4869,0.013442
1854.3506,0.013622
1856.2142,0.013985
1858.0779,0.014152
1859.9416,0.014095
1861.8052,0.013828
1863.6689,0.013741
1865.5326,0.013586
1867.3963,0.013665
1869.2599,0.013452
1871.1236,0.013384
1872.9873,0.013680
1874.8509,0.014192
1876.7146,0.014134
1878.5783,0.014290
1880.4419,0.014342
1882.3056,0.014376
1884.1693,0.014235
1886.0329,0.014409
1887.8966,0.014254
1889.7603,0.014352
1891.6240,0.014357
1893.4876,0.014371
1895.3513,0.014412
1897.2150,0.014868
1899.0786,0.014831
1900.9423,0.014784
1902.8060,0.014806
1904.6696,0.014854
1906.5333,0.014629
1908.3970,0.014840
1910.2606,0.014809
1912.1243,0.015181
1913.9880,0.015623
1915.8516,0.015495
1917.7153,0.014751
1919.5790,0.014476
1921.4427,0.014418
1923.3063,0.014483
1925.1700,0.013812
1927.0337,0.013992
1928.8973,0.013997
1930.7610,0.014390
1932.6247,0.014506
1934.4883,0.014919
1936.3520,0.014372
1938.2157,0.013571
1940.0793,0.013193
1941.9430,0.013076
1943.8067,0.012206
1945.6704,0.011965
1947.5340,0.012031
1949.3977,0.012094
1951.2614,0.011553
1953.1250,0.011463
1954.9887,0.010760
1956.8524,0.010493
1958.7160,0.010246
1960.5797,0.009682
1962.4434,0.008237
1964.3070,0.007613
1966.1707,0.005987
1968.0344,0.004876
1969.8980,0.004157
1971.7617,0.005109
1973.6254,0.004959
1975.4891,0.006589
1977.3527,0.007414
1979.2164,0.007855
1981.0801,0.008016
1982.9437,0.008467
1984.8074,0.008423
1986.6711,0.009613
1988.5347,0.010115
1990.3984,0.010376
1992.2621,0.010083
1994.1257,0.009335
1995.9894,0.009386
1997.8531,0.010246
1999.7167,0.010654
2001.5804,0.011068
2003.4441,0.009572
2005.3078,0.008690
2007.1714,0.008392
2009.0351,0.008690
2010.8988,0.007879
2012.7624,0.008510
2014.6261,0.008200
2016.4898,0.007238
2018.3534,0.006096
2020.2171,0.006148
2022.0808,0.006069
2023.9444,0.007389
2025.8081,0.007498
2027.6718,0.007386
2029.5355,0.008131
2031.3991,0.007576
2033.2628,0.006711
2035.1265,0.007964
2036.9901,0.008464
2038.8538,0.009009
2040.7175,0.009368
2042.5811,0.010072
2044.4448,0.010358
2046.3085,0.011009
2048.1721,0.011422
2050.0358,0.012482
2051.8995,0.013006
2053.7631,0.013213
2055.6268,0.012918
2057.4905,0.013941
2059.3542,0.014723
2061.2178,0.015027
2063.0815,0.015114
2064.9452,0.015118
2066.8088,0.014663
2068.6725,0.015263
2070.5362,0.015142
2072.3998,0.015154
2074.2635,0.015568
2076.1272,0.016079
2077.9908,0.016466
2079.8545,0.017126
2081.7182,0.017328
2083.5819,0.017576
2085.4455,0.017558
2087.3092,0.017330
2089.1729,0.017397
2091.0365,0.017644
2092.9002,0.016960
2094.7639,0.016951
2096.6275,0.017359
2098.4912,0.017122
2100.3549,0.016504
2102.2185,0.016979
2104.0822,0.017776
2105.9459,0.017903
2107.8095,0.017904
2109.6732,0.018449
2111.5369,0.018550
2113.4006,0.018851
2115.2642,0.018778
2117.1279,0.018686
2118.9916,0.018534
2120.8552,0.018740
2122.7189,0.018710
2124.5826,0.018478
2126.4462,0.018085
2128.3099,0.017729
2130.1736,0.017163
2132.0372,0.017043
2133.9009,0.016905
2135.7646,0.016347
2137.6282,0.015240
2139.4919,0.015952
2141.3556,0.016061
2143.2193,0.014878
2145.0829,0.014031
2146.9466,0.013399
2148.8103,0.012586
2150.6739,0.013529
2152.5376,0.012677
2154.4013,0.009592
2156.2649,0.006028
2158.1286,0.005090
2159.9923,0.007071
2161.8559,0.009593
2163.7196,0.009522
2165.5833,0.010737
2167.4470,0.010582
2169.3106,0.011007
2171.1743,0.010824
2173.0380,0.011284
2174.9016,0.012479
2176.7653,0.013027
2178.6290,0.012647
2180.4926,0.012880
2182.3563,0.012743
2184.2200,0.013627
2186.0836,0.013143
2187.9473,0.013118
2189.8110,0.013242
2191.6746,0.012984
2193.5383,0.013519
2195.4020,0.014894
2197.2657,0.015360
2199.1293,0.016200
2200.9930,0.015873
2202.8567,0.015338
2204.7203,0.015491
2206.5840,0.016203
2208.4477,0.017534
2210.3113,0.018455
2212.1750,0.017195
2214.0387,0.017225
2215.9023,0.017783
2217.7660,0.018604
2219.6297,0.018815
2221.4934,0.019092
2223.3570,0.019124
2225.2207,0.019659
2227.0844,0.019226
2228.9480,0.019438
2230.8117,0.019864
2232.6754,0.020446
2234.5390,0.020597
2236.4027,0.021049
2238.2664,0.020861
2240.1300,0.020219
2241.9937,0.020412
2243.8574,0.021558
2245.7210,0.021981
2247.5847,0.022044
2249.4484,0.021993
2251.3121,0.022588
2253.1757,0.022664
2255.0394,0.022124
2256.9031,0.021819
2258.7667,0.022601
2260.6304,0.022855
2262.4941,0.023064
2264.3577,0.023630
2266.2214,0.024037
2268.0851,0.023911
2269.9487,0.024090
2271.8124,0.024838
2273.6761,0.025160
2275.5397,0.025328
2277.4034,0.026325
2279.2671,0.026861
2281.1308,0.026650
2282.9944,0.026940
2284.8581,0.027714
2286.7218,0.027579
2288.5854,0.027130
2290.4491,0.027339
2292.3128,0.027660
2294.1764,0.027843
2296.0401,0.027878
2297.9038,0.027541
2299.7674,0.027440
2301.6311,0.027854
2303.4948,0.028467
2305.3585,0.028781
2307.2221,0.028665
2309.0858,0.028464
2310.9495,0.028783
2312.8131,0.029108
2314.6768,0.028868
2316.5405,0.028230
2318.4041,0.028061
2320.2678,0.028217
2322.1315,0.028589
2323.9951,0.028973
2325.8588,0.028877
2327.7225,0.028102
2329.5861,0.027435
2331.4498,0.027290
2333.3135,0.027497
2335.1772,0.027524
2337.0408,0.027283
2338.9045,0.027473
2340.7682,0.027887
2342.6318,0.028164
2344.4955,0.028118
2346.3592,0.027995
2348.2228,0.027478
2350.0865,0.027098
2351.9502,0.027353
2353.8138,0.027516
2355.6775,0.027491
2357.5412,0.027552
2359.4049,0.027671
2361.2685,0.027554
2363.1322,0.027283
2364.9959,0.027035
2366.8595,0.027332
2368.7232,0.027793
2370.5869,0.027878
2372.4505,0.028208
2374.3142,0.028685
2376.1779,0.028931
2378.0415,0.028725
2379.9052,0.028469
2381.7689,0.028638
2383.6325,0.028926
2385.4962,0.028850
2387.3599,0.028694
2389.2236,0.028482
2391.0872,0.028514
2392.9509,0.028764
2394.8146,0.028925
2396.6782,0.028881
2398.5419,0.028690
2400.4056,0.028891
2402.2692,0.029047
2404.1329,0.029025
2405.9966,0.029062
2407.8602,0.029330
2409.7239,0.029496
2411.5876,0.029398
2413.4512,0.029275
2415.3149,0.029744
2417.1786,0.029955
2419.0423,0.030070
2420.9059,0.030102
2422.7696,0.030069
2424.6333,0.030008
2426.4969,0.030237
2428.3606,0.030285
2430.2243,0.030553
2432.0879,0.030750
2433.9516,0.030718
2435.8153,0.030625
2437.6789,0.030756
2439.5426,0.030839
2441.4063,0.030667
2443.2700,0.030221
2445.1336,0.030494
2446.9973,0.030673
2448.8610,0.030369
2450.7246,0.030449
2452.5883,0.030625
2454.4520,0.030530
2456.3156,0.030064
2458.1793,0.029983
2460.0430,0.030292
2461.9066,0.030224
2463.7703,0.029759
2465.6340,0.029455
2467.4976,0.029792
2469.3613,0.030370
2471.2250,0.030267
2473.0887,0.030067
2474.9523,0.029955
2476.8160,0.029931
2478.6797,0.030146
2480.5433,0.030349
2482.4070,0.030662
2484.2707,0.030634
2486.1343,0.030283
2487.9980,0.030407
2489.8617,0.031102
2491.7253,0.031616
2493.5890,0.031539
2495.4527,0.031007
2497.3164,0.031056
2499.1800,0.031017
2501.0437,0.031207
2502.9074,0.031626
2504.7710,0.031922
2506.6347,0.032198
2508.4984,0.031857
2510.3620,0.031760
2512.2257,0.032232
2514.0894,0.032346
2515.9530,0.032162
2517.8167,0.031987
2519.6804,0.031876
2521.5440,0.032045
2523.4077,0.032459
2525.2714,0.032742
2527.1351,0.033126
2528.9987,0.033026
2530.8624,0.032743
2532.7261,0.032588
2534.5897,0.032803
2536.4534,0.032955
2538.3171,0.032921
2540.1807,0.033148
2542.0444,0.032836
2543.9081,0.032742
2545.7717,0.033071
2547.6354,0.032947
2549.4991,0.032940
2551.3627,0.033045
2553.2264,0.032746
2555.0901,0.032501
2556.9538,0.032853
2558.8174,0.033310
2560.6811,0.033381
2562.5448,0.033267
2564.4084,0.033343
2566.2721,0.033445
2568.1358,0.033875
2569.9994,0.034252
2571.8631,0.034136
2573.7268,0.033882
2575.5904,0.034201
2577.4541,0.034449
2579.3178,0.034533
2581.1815,0.034718
2583.0451,0.034706
2584.9088,0.034883
2586.7725,0.035221
2588.6361,0.035626
2590.4998,0.035906
2592.3635,0.035660
2594.2271,0.035669
2596.0908,0.036146
2597.9545,0.036383
2599.8181,0.036463
2601.6818,0.036499
2603.5455,0.036350
2605.4091,0.036537
2607.2728,0.037133
2609.1365,0.037210
2611.0002,0.037094
2612.8638,0.037148
2614.7275,0.037617
2616.5912,0.037824
2618.4548,0.037797
2620.3185,0.038047
2622.1822,0.038276
2624.0458,0.038359
2625.9095,0.038939
2627.7732,0.039667
2629.6368,0.039965
2631.5005,0.040174
2633.3642,0.040371
2635.2279,0.040556
2637.0915,0.040982
2638.9552,0.041167
2640.8189,0.041167
2642.6825,0.041332
2644.5462,0.041576
2646.4099,0.041764
2648.2735,0.041962
2650.1372,0.042300
2652.0009,0.042496
2653.8645,0.042663
2655.7282,0.042735
2657.5919,0.042949
2659.4555,0.043166
2661.3192,0.043111
2663.1829,0.043194
2665.0466,0.043268
2666.9102,0.043186
2668.7739,0.043135
2670.6376,0.043367
2672.5012,0.043719
2674.3649,0.043998
2676.2286,0.044234
2678.0922,0.044469
2679.9559,0.044754
2681.8196,0.044946
2683.6832,0.044996
2685.5469,0.045132
2687.4106,0.045377
2689.2742,0.045756
2691.1379,0.046027
2693.0016,0.046201
2694.8653,0.046679
2696.7289,0.047007
2698.5926,0.047145
2700.4563,0.047623
2702.3199,0.048129
2704.1836,0.048443
2706.0473,0.048850
2707.9109,0.049172
2709.7746,0.049669
2711.6383,0.050180
2713.5019,0.050522
2715.3656,0.050789
2717.2293,0.051089
2719.0930,0.051402
2720.9566,0.051725
2722.8203,0.052252
2724.6840,0.052841
2726.5476,0.053584
2728.4113,0.054353
2730.2750,0.054719
2732.1386,0.054897
2734.0023,0.055268
2735.8660,0.055852
2737.7296,0.056852
2739.5933,0.057716
2741.4570,0.058234
2743.3206,0.058632
2745.1843,0.059174
2747.0480,0.060006
2748.9117,0.061014
2750.7753,0.061725
2752.6390,0.062394
2754.5027,0.063010
2756.3663,0.063455
2758.2300,0.063891
2760.0937,0.064819
2761.9573,0.065668
2763.8210,0.066377
2765.6847,0.067211
2767.5483,0.067963
2769.4120,0.068757
2771.2757,0.069615
2773.1394,0.070172
2775.0030,0.071082
2776.8667,0.072289
2778.7304,0.072880
2780.5940,0.073189
2782.4577,0.073486
2784.3214,0.073426
2786.1850,0.073108
2788.0487,0.072571
2789.9124,0.072389
2791.7760,0.071942
2793.6397,0.071085
2795.5034,0.070081
2797.3670,0.069456
2799.2307,0.069002
2801.0944,0.068457
2802.9581,0.067455
2804.8217,0.066828
2806.6854,0.066446
2808.5491,0.066094
2810.4127,0.065868
2812.2764,0.065586
2814.1401,0.065222
2816.0037,0.065090
2817.8674,0.065072
2819.7311,0.065372
2821.5947,0.065673
2823.4584,0.065914
2825.3221,0.065831
2827.1857,0.065366
2829.0494,0.064767
2830.9131,0.064365
2832.7768,0.064031
2834.6404,0.064135
2836.5041,0.064359
2838.3678,0.064695
2840.2314,0.064970
2842.0951,0.065379
2843.9588,0.065757
2845.8224,0.066192
2847.6861,0.067030
2849.5498,0.067909
2851.4134,0.068465
2853.2771,0.069157
2855.1408,0.069900
2857.0045,0.070638
2858.8681,0.071529
2860.7318,0.072525
2862.5955,0.073006
2864.4591,0.073197
2866.3228,0.073499
2868.1865,0.073909
2870.0501,0.074103
2871.9138,0.074616
2873.7775,0.075475
2875.6411,0.076031
2877.5048,0.076220
2879.3685,0.076738
2881.2321,0.077415
2883.0958,0.078129
2884.9595,0.078741
2886.8232,0.079506
2888.6868,0.080066
2890.5505,0.080799
2892.4142,0.081274
2894.2778,0.081707
2896.1415,0.082547
2898.0052,0.083309
2899.8688,0.083343
2901.7325,0.083104
2903.5962,0.083070
2905.4598,0.083183
2907.3235,0.083426
2909.1872,0.083878
2911.0509,0.084512
2912.9145,0.085455
2914.7782,0.086320
2916.6419,0.087147
2918.5055,0.087935
2920.3692,0.089088
2922.2329,0.089855
2924.0965,0.090606
2925.9602,0.091218
2927.8239,0.091905
2929.6875,0.092686
2931.5512,0.093659
2933.4149,0.094610
2935.2785,0.095099
2937.1422,0.095488
2939.0059,0.096309
2940.8696,0.096672
2942.7332,0.096948
2944.5969,0.097420
2946.4606,0.097837
2948.3242,0.098340
2950.1879,0.098790
2952.0516,0.099126
2953.9152,0.099849
2955.7789,0.100438
2957.6426,0.101097
2959.5062,0.102023
2961.3699,0.103067
2963.2336,0.103762
2965.0972,0.105022
2966.9609,0.106371
2968.8246,0.107294
2970.6883,0.108148
2972.5519,0.109347
2974.4156,0.110317
2976.2793,0.111169
2978.1429,0.112125
2980.0066,0.113283
2981.8703,0.113558
2983.7339,0.113603
2985.5976,0.114068
2987.4613,0.114839
2989.3249,0.115332
2991.1886,0.116107
2993.0523,0.117102
2994.9160,0.118334
2996.7796,0.119408
2998.6433,0.120343
3000.5070,0.121287
3002.3706,0.122683
3004.2343,0.124081
3006.0980,0.125485
3007.9616,0.126017
3009.8253,0.126573
3011.6890,0.127699
3013.5526,0.128956
3015.4163,0.129987
3017.2800,0.130491
3019.1436,0.130809
3021.0073,0.131766
3022.8710,0.132245
3024.7347,0.132629
3026.5983,0.133225
3028.4620,0.134041
3030.3257,0.134223
3032.1893,0.134567
3034.0530,0.135035
3035.9167,0.135438
3037.7803,0.135883
3039.6440,0.136113
3041.5077,0.136308
3043.3713,0.137282
3045.2350,0.138166
3047.0987,0.138507
3048.9624,0.138645
3050.8260,0.138754
3052.6897,0.138628
3054.5534,0.139113
3056.4170,0.139644
3058.2807,0.139953
3060.1444,0.139876
3062.0080,0.140128
3063.8717,0.140410
3065.7354,0.140748
3067.5990,0.140622
3069.4627,0.140948
3071.3264,0.140956
3073.1900,0.140525
3075.0537,0.139525
3076.9174,0.138660
3078.7811,0.138583
3080.6447,0.139220
3082.5084,0.139171
3084.3721,0.138644
3086.2357,0.137410
3088.0994,0.136429
3089.9631,0.135404
3091.8267,0.134376
3093.6904,0.133511
3095.5541,0.132603
3097.4177,0.130951
3099.2814,0.129476
3101.1451,0.128628
3103.0087,0.127639
3104.8724,0.125823
3106.7361,0.124544
3108.5998,0.123680
3110.4634,0.123036
3112.3271,0.121552
3114.1908,0.119942
3116.0544,0.118826
3117.9181,0.118106
3119.7818,0.117043
3121.6454,0.115959
3123.5091,0.114513
3125.3728,0.113008
3127.2364,0.111589
3129.1001,0.110244
3130.9638,0.109054
3132.8275,0.108232
3134.6911,0.107520
3136.5548,0.106940
3138.4185,0.106423
3140.2821,0.106296
3142.1458,0.105659
3144.0095,0.104454
3145.8731,0.103513
3147.7368,0.102536
3149.6005,0.101417
3151.4641,0.101658
3153.3278,0.102167
3155.1915,0.101357
3157.0551,0.099911
3158.9188,0.098938
3160.7825,0.098258
3162.6462,0.097640
3164.5098,0.096558
3166.3735,0.095442
3168.2372,0.095206
3170.1008,0.095390
3171.9645,0.094420
3173.8282,0.093384
3175.6918,0.092865
3177.5555,0.092558
3179.4192,0.092104
3181.2828,0.092087
3183.1465,0.091921
3185.0102,0.091376
3186.8739,0.090918
3188.7375,0.090682
3190.6012,0.090736
3192.4649,0.090792
3194.3285,0.090629
3196.1922,0.090892
3198.0559,0.090726
3199.9195,0.090598
3201.7832,0.090876
3203.6469,0.090555
3205.5105,0.090672
3207.3742,0.091134
3209.2379,0.090910
3211.1015,0.090891
3212.9652,0.090883
3214.8289,0.091322
3216.6926,0.091586
3218.5562,0.091389
3220.4199,0.091481
3222.2836,0.092133
3224.1472,0.092221
3226.0109,0.092188
3227.8746,0.092282
3229.7382,0.092592
3231.6019,0.092795
3233.4656,0.093541
3235.3292,0.094279
3237.1929,0.094765
3239.0566,0.094829
3240.9202,0.094870
3242.7839,0.094610
3244.6476,0.095072
3246.5113,0.095694
3248.3749,0.096115
3250.2386,0.096457
3252.1023,0.096734
3253.9659,0.096905
3255.8296,0.097622
3257.6933,0.099061
3259.5569,0.099941
3261.4206,0.099887
3263.2843,0.099987
3265.1479,0.100022
3267.0116,0.100756
3268.8753,0.101248
3270.7390,0.100731
3272.6026,0.100542
3274.4663,0.100357
3276.3300,0.100009
3278.1936,0.100009
3280.0573,0.099506
3281.9210,0.099136
3283.7846,0.098657
3285.6483,0.097866
3287.5120,0.097432
3289.3756,0.096787
3291.2393,0.095536
3293.1030,0.094830
3294.9666,0.093833
3296.8303,0.093077
3298.6940,0.092174
3300.5577,0.090891
3302.4213,0.089236
3304.2850,0.088521
3306.1487,0.088313
3308.0123,0.087611
3309.8760,0.086080
3311.7397,0.085352
3313.6033,0.085566
3315.4670,0.085705
3317.3307,0.085479
3319.1943,0.085337
3321.0580,0.085316
3322.9217,0.086332
3324.7854,0.087091
3326.6490,0.086967
3328.5127,0.086662
3330.3764,0.086917
3332.2400,0.086942
3334.1037,0.086941
3335.9674,0.087218
3337.8310,0.086641
3339.6947,0.084403
3341.5584,0.082777
3343.4220,0.081689
3345.2857,0.080390
3347.1494,0.078593
3349.0130,0.077595
3350.8767,0.076657
3352.7404,0.075112
3354.6041,0.073357
3356.4677,0.071584
3358.3314,0.069458
3360.1951,0.068128
3362.0587,0.068057
3363.9224,0.067810
3365.7861,0.066642
3367.6497,0.066018
3369.5134,0.066051
3371.3771,0.066365
3373.2407,0.066214
3375.1044,0.065613
3376.9681,0.066209
3378.8317,0.067009
3380.6954,0.066335
3382.5591,0.065992
3384.4228,0.066139
3386.2864,0.067067
3388.1501,0.068044
3390.0138,0.068043
3391.8774,0.068160
3393.7411,0.069544
3395.6048,0.070563
3397.4684,0.070502
3399.3321,0.070655
3401.1958,0.071084
3403.0594,0.070265
3404.9231,0.068543
3406.7868,0.067140
3408.6505,0.065677
3410.5141,0.063699
3412.3778,0.061296
3414.2415,0.059624
3416.1051,0.058467
3417.9688,0.055685
3419.8325,0.052672
3421.6961,0.050927
3423.5598,0.049382
3425.4235,0.047685
3427.2871,0.045861
3429.1508,0.044147
3431.0145,0.042699
3432.8781,0.041422
3434.7418,0.039856
3436.6055,0.038709
3438.4692,0.038614
3440.3328,0.038144
3442.1965,0.037210
3444.0602,0.036235
3445.9238,0.034182
3447.7875,0.032482
3449.6512,0.032489
3451.5148,0.033129
3453.3785,0.033275
3455.2422,0.032595
3457.1058,0.031750
3458.9695,0.031491
3460.8332,0.031847
3462.6969,0.030664
3464.5605,0.029078
3466.4242,0.029396
3468.2879,0.029518
3470.1515,0.028248
3472.0152,0.026685
3473.8789,0.026086
3475.7425,0.025540
3477.6062,0.025173
3479.4699,0.026003
3481.3335,0.025549
3483.1972,0.023736
3485.0609,0.023033
3486.9245,0.023133
3488.7882,0.022440
3490.6519,0.020879
3492.5156,0.019931
3494.3792,0.020307
3496.2429,0.019691
3498.1066,0.018475
3499.9702,0.018666
3501.8339,0.019241
3503.6976,0.018710
3505.5612,0.018154
3507.4249,0.018990
3509.2886,0.019138
3511.1522,0.017315
3513.0159,0.015894
3514.8796,0.015823
3516.7432,0.015936
3518.6069,0.015627
3520.4706,0.014576
3522.3343,0.014050
3524.1979,0.013856
3526.0616,0.012189
3527.9253,0.011354
3529.7889,0.011659
3531.6526,0.011338
3533.5163,0.011572
3535.3799,0.012643
3537.2436,0.013060
3539.1073,0.013070
3540.9709,0.012582
3542.8346,0.011286
3544.6983,0.010372
3546.5620,0.009643
3548.4256,0.009318
3550.2893,0.009966
3552.1530,0.010481
3554.0166,0.010654
3555.8803,0.010415
3557.7440,0.009954
3559.6076,0.009493
3561.4713,0.008989
3563.3350,0.008510
3565.1986,0.008147
3567.0623,0.007499
3568.9260,0.006206
3570.7896,0.006283
3572.6533,0.007460
3574.5170,0.008487
3576.3807,0.009015
3578.2443,0.009315
3580.1080,0.009872
3581.9717,0.009039
3583.8353,0.007461
3585.6990,0.007781
3587.5627,0.008020
3589.4263,0.006539
3591.2900,0.005891
3593.1537,0.006467
3595.0173,0.007793
3596.8810,0.009162
3598.7447,0.008673
3600.6084,0.007375
3602.4720,0.006971
3604.3357,0.007611
3606.1994,0.008679
3608.0630,0.007901
3609.9267,0.006153
3611.7904,0.006518
3613.6540,0.007442
3615.5177,0.007387
3617.3814,0.007540
3619.2450,0.007307
3621.1087,0.006157
3622.9724,0.007102
3624.8360,0.008110
3626.6997,0.007928
3628.5634,0.007569
3630.4271,0.006728
3632.2907,0.007144
3634.1544,0.008500
3636.0181,0.009269
3637.8817,0.009482
3639.7454,0.009464
3641.6091,0.009321
3643.4727,0.009346
3645.3364,0.008929
3647.2001,0.007658
3649.0637,0.006048
3650.9274,0.005726
3652.7911,0.006488
3654.6547,0.007296
3656.5184,0.008115
3658.3821,0.008360
3660.2458,0.008473
3662.1094,0.008952
3663.9731,0.009353
3665.8368,0.009214
3667.7004,0.009140
3669.5641,0.009001
3671.4278,0.008095
3673.2914,0.007383
3675.1551,0.006982
3677.0188,0.006178
3678.8824,0.006931
3680.7461,0.008314
3682.6098,0.009193
3684.4735,0.010026
3686.3371,0.009873
3688.2008,0.008928
3690.0645,0.008211
3691.9281,0.007869
3693.7918,0.008706
3695.6555,0.009671
3697.5191,0.010106
3699.3828,0.010053
3701.2465,0.009544
3703.1101,0.009285
3704.9738,0.009324
3706.8375,0.009466
3708.7011,0.009748
3710.5648,0.009318
3712.4285,0.007951
3714.2922,0.008036
3716.1558,0.009306
3718.0195,0.010089
3719.8832,0.010454
3721.7468,0.010309
3723.6105,0.009469
3725.4742,0.008896
3727.3378,0.009148
3729.2015,0.009327
3731.0652,0.008975
3732.9288,0.008140
3734.7925,0.007543
3736.6562,0.007281
3738.5199,0.007317
3740.3835,0.008413
3742.2472,0.009089
3744.1109,0.008567
3745.9745,0.007467
3747.8382,0.007618
3749.7019,0.008072
3751.5655,0.006965
3753.4292,0.007252
3755.2929,0.009562
3757.1565,0.010391
3759.0202,0.009973
3760.8839,0.009549
3762.7475,0.010030
3764.6112,0.010776
3766.4749,0.011208
3768.3386,0.011247
3770.2022,0.011174
3772.0659,0.011083
3773.9296,0.011483
3775.7932,0.011919
3777.6569,0.011424
3779.5206,0.010936
3781.3842,0.011221
3783.2479,0.011883
3785.1116,0.012395
3786.9752,0.012263
3788.8389,0.012073
3790.7026,0.012079
3792.5662,0.011979
3794.4299,0.011625
3796.2936,0.011906
3798.1573,0.011983
3800.0209,0.010682
3801.8846,0.010270
3803.7483,0.010237
3805.6119,0.010413
3807.4756,0.011159
3809.3393,0.011442
3811.2029,0.011053
3813.0666,0.010944
3814.9303,0.011279
3816.7939,0.011756
3818.6576,0.011445
3820.5213,0.010788
3822.3850,0.010198
3824.2486,0.010188
3826.1123,0.011405
3827.9760,0.012214
3829.8396,0.012245
3831.7033,0.011731
3833.5670,0.010969
3835.4306,0.010923
3837.2943,0.011501
3839.1580,0.011386
3841.0216,0.010549
3842.8853,0.010640
3844.7490,0.011359
3846.6126,0.011570
3848.4763,0.011669
3850.3400,0.011855
3852.2037,0.011234
3854.0673,0.009796
3855.9310,0.009768
3857.7947,0.010812
3859.6583,0.011707
3861.5220,0.012377
3863.3857,0.012524
3865.2493,0.011841
3867.1130,0.011382
3868.9767,0.012370
3870.8403,0.012464
3872.7040,0.012049
3874.5677,0.012387
3876.4314,0.012208
3878.2950,0.012156
3880.1587,0.012265
3882.0224,0.011749
3883.8860,0.011757
3885.7497,0.012658
3887.6134,0.013264
3889.4770,0.012954
3891.3407,0.012557
3893.2044,0.012386
3895.0680,0.012814
3896.9317,0.013341
3898.7954,0.013208
3900.6590,0.012831
3902.5227,0.012577
3904.3864,0.012629
3906.2501,0.013118
3908.1137,0.013317
3909.9774,0.013399
3911.8411,0.013792
3913.7047,0.014060
3915.5684,0.013824
3917.4321,0.013277
3919.2957,0.013272
3921.1594,0.013911
3923.0231,0.014129
3924.8867,0.013820
3926.7504,0.013674
3928.6141,0.014146
3930.4777,0.014403
3932.3414,0.014359
3934.2051,0.014447
3936.0688,0.014296
3937.9324,0.014154
3939.7961,0.013877
3941.6598,0.013648
3943.5234,0.013951
3945.3871,0.014185
3947.2508,0.014140
3949.1144,0.014285
3950.9781,0.014745
3952.8418,0.014865
3954.7054,0.014596
3956.5691,0.014316
3958.4328,0.014327
3960.2965,0.014348
3962.1601,0.014122
3964.0238,0.014519
3965.8875,0.014804
3967.7511,0.014368
3969.6148,0.014376
3971.4785,0.014744
3973.3421,0.014569
3975.2058,0.014140
3977.0695,0.014378
3978.9331,0.015019
3980.7968,0.014890
3982.6605,0.014518
3984.5241,0.014909
3986.3878,0.015281
3988.2515,0.015196
3990.1152,0.014902
3991.9788,0.014716
3993.8425,0.014801
3995.7062,0.015435
3997.5698,0.015711
3999.4335,0.015274
