Wavenumber,Intensity
650.4205,0.240582
652.2841,0.234855
654.1478,0.228268
656.0115,0.221855
657.8751,0.217119
659.7388,0.211523
661.6025,0.208744
663.4661,0.205997
665.3298,0.204054
667.1935,0.203179
669.0571,0.205536
670.9208,0.205170
672.7845,0.204385
674.6481,0.203584
676.5118,0.203872
678.3755,0.204483
680.2392,0.206138
682.1028,0.206757
683.9665,0.206909
685.8302,0.206755
687.6938,0.206665
689.5575,0.205262
691.4212,0.204401
693.2848,0.203579
695.1485,0.204305
697.0122,0.204284
698.8758,0.204179
700.7395,0.204240
702.6032,0.203205
704.4669,0.199771
706.3305,0.194318
708.1942,0.186548
710.0579,0.177099
711.9215,0.166912
713.7852,0.156764
715.6489,0.147716
717.5125,0.141208
719.3762,0.135477
721.2399,0.129278
723.1035,0.123359
724.9672,0.117909
726.8309,0.112709
728.6945,0.108221
730.5582,0.104357
732.4219,0.100336
734.2856,0.096387
736.1492,0.092994
738.0129,0.091063
739.8766,0.091983
741.7402,0.094560
743.6039,0.096941
745.4676,0.098405
747.3312,0.098831
749.1949,0.098413
751.0586,0.097373
752.9222,0.096069
754.7859,0.095500
756.6496,0.095217
758.5132,0.094457
760.3769,0.093669
762.2406,0.093529
764.1043,0.093487
765.9679,0.093316
767.8316,0.093473
769.6953,0.093978
771.5589,0.094645
773.4226,0.095103
775.2863,0.095761
777.1499,0.097025
779.0136,0.098286
780.8773,0.099694
782.7409,0.101212
784.6046,0.102908
786.4683,0.105086
788.3320,0.107605
790.1956,0.110298
792.0593,0.112898
793.9230,0.115412
795.7866,0.118194
797.6503,0.120834
799.5140,0.123140
801.3776,0.124838
803.2413,0.126014
805.1050,0.126184
806.9686,0.125385
808.8323,0.124108
810.6960,0.121908
812.5596,0.118648
814.4233,0.115237
816.2870,0.112198
818.1507,0.109441
820.0143,0.106925
821.8780,0.105316
823.7417,0.104824
825.6053,0.105543
827.4690,0.107733
829.3327,0.108742
831.1963,0.101941
833.0600,0.087928
834.9237,0.075656
836.7873,0.068989
838.6510,0.065976
840.5147,0.064428
842.3784,0.063295
844.2420,0.062606
846.1057,0.062186
847.9694,0.061835
849.8330,0.061296
851.6967,0.060140
853.5604,0.058902
855.4240,0.058324
857.2877,0.058066
859.1514,0.057706
861.0150,0.057598
862.8787,0.057828
864.7424,0.057977
866.6060,0.057814
868.4697,0.057630
870.3334,0.057725
872.1971,0.058020
874.0607,0.058261
875.9244,0.058493
877.7881,0.058726
879.6517,0.059038
881.5154,0.059609
883.3791,0.060139
885.2427,0.060419
887.1064,0.060765
888.9701,0.061466
890.8337,0.062133
892.6974,0.062717
894.5611,0.063676
896.4247,0.064737
898.2884,0.066013
900.1521,0.067686
902.0158,0.069788
903.8794,0.072639
905.7431,0.076486
907.6068,0.081235
909.4704,0.086766
911.3341,0.093673
913.1978,0.101944
915.0614,0.106169
916.9251,0.097892
918.7888,0.081067
920.6524,0.067833
922.5161,0.061937
924.3798,0.060143
926.2435,0.059845
928.1071,0.060243
929.9708,0.060735
931.8345,0.061208
933.6981,0.061930
935.5618,0.062718
937.4255,0.063420
939.2891,0.064170
941.1528,0.064822
943.0165,0.065519
944.8801,0.066352
946.7438,0.067218
948.6075,0.068076
950.4711,0.069023
952.3348,0.070070
954.1985,0.071108
956.0622,0.072094
957.9258,0.073268
959.7895,0.074617
961.6532,0.075981
963.5168,0.077434
965.3805,0.079201
967.2442,0.081543
969.1078,0.084293
970.9715,0.087204
972.8352,0.090633
974.6988,0.096137
976.5625,0.105935
978.4262,0.123015
980.2899,0.147461
982.1535,0.158350
984.0172,0.131582
985.8809,0.094200
987.7445,0.076423
989.6082,0.072866
991.4719,0.072701
993.3355,0.073139
995.1992,0.073645
997.0629,0.074160
998.9265,0.074697
1000.7902,0.075094
1002.6539,0.075394
1004.5175,0.075789
1006.3812,0.076380
1008.2449,0.076923
1010.1086,0.077310
1011.9722,0.077783
1013.8359,0.078411
1015.6996,0.079208
1017.5632,0.080178
1019.4269,0.081156
1021.2906,0.082147
1023.1542,0.083320
1025.0179,0.084794
1026.8816,0.086539
1028.7452,0.088462
1030.6089,0.090198
1032.4726,0.091147
1034.3362,0.091480
1036.1999,0.092384
1038.0636,0.094684
1039.9273,0.098327
1041.7909,0.102933
1043.6546,0.108100
1045.5183,0.113171
1047.3819,0.116788
1049.2456,0.116779
1051.1093,0.111308
1052.9729,0.101757
1054.8366,0.092444
1056.7003,0.086276
1058.5639,0.083379
1060.4276,0.082794
1062.2913,0.083262
1064.1550,0.084021
1066.0186,0.085154
1067.8823,0.086698
1069.7460,0.088490
1071.6096,0.090359
1073.4733,0.092387
1075.3370,0.094630
1077.2006,0.096925
1079.0643,0.099392
1080.9280,0.102151
1082.7916,0.105071
1084.6553,0.108292
1086.5190,0.111923
1088.3826,0.116008
1090.2463,0.120624
1092.1100,0.125740
1093.9737,0.131525
1095.8373,0.138052
1097.7010,0.145271
1099.5647,0.153178
1101.4283,0.161218
1103.2920,0.168653
1105.1557,0.174311
1107.0193,0.175918
1108.8830,0.171708
1110.7467,0.161673
1112.6103,0.147855
1114.4740,0.133310
1116.3377,0.120089
1118.2014,0.109216
1120.0650,0.101093
1121.9287,0.095579
1123.7924,0.091981
1125.6560,0.089319
1127.5197,0.086924
1129.3834,0.084555
1131.2470,0.082363
1133.1107,0.080427
1134.9744,0.078802
1136.8380,0.077630
1138.7017,0.076961
1140.5654,0.076743
1142.4290,0.076807
1144.2927,0.076911
1146.1564,0.077016
1148.0201,0.077304
1149.8837,0.077749
1151.7474,0.078312
1153.6111,0.078964
1155.4747,0.079868
1157.3384,0.081068
1159.2021,0.082460
1161.0657,0.084140
1162.9294,0.086329
1164.7931,0.089175
1166.6567,0.092743
1168.5204,0.097038
1170.3841,0.101610
1172.2477,0.104978
1174.1114,0.104991
1175.9751,0.100898
1177.8388,0.094765
1179.7024,0.089484
1181.5661,0.086285
1183.4298,0.084840
1185.2934,0.084505
1187.1571,0.084527
1189.0208,0.084448
1190.8844,0.084394
1192.7481,0.084298
1194.6118,0.084167
1196.4754,0.084296
1198.3391,0.084612
1200.2028,0.084934
1202.0665,0.085249
1203.9301,0.085581
1205.7938,0.086018
1207.6575,0.086505
1209.5211,0.086936
1211.3848,0.087393
1213.2485,0.087902
1215.1121,0.088386
1216.9758,0.088864
1218.8395,0.089392
1220.7031,0.089869
1222.5668,0.090321
1224.4305,0.090832
1226.2941,0.091332
1228.1578,0.091770
1230.0215,0.092253
1231.8852,0.092811
1233.7488,0.093405
1235.6125,0.094073
1237.4762,0.094711
1239.3398,0.095316
1241.2035,0.095925
1243.0672,0.096588
1244.9308,0.097340
1246.7945,0.098008
1248.6582,0.098754
1250.5218,0.099715
1252.3855,0.100565
1254.2492,0.101286
1256.1129,0.102167
1257.9765,0.103246
1259.8402,0.104532
1261.7039,0.105825
1263.5675,0.106979
1265.4312,0.108127
1267.2949,0.108824
1269.1585,0.108900
1271.0222,0.108776
1272.8859,0.108728
1274.7495,0.108996
1276.6132,0.109638
1278.4769,0.110601
1280.3405,0.111940
1282.2042,0.113542
1284.0679,0.115304
1285.9316,0.117476
1287.7952,0.120243
1289.6589,0.123400
1291.5226,0.126957
1293.3862,0.131167
1295.2499,0.136314
1297.1136,0.142564
1298.9772,0.149962
1300.8409,0.158897
1302.7046,0.168537
1304.5682,0.175602
1306.4319,0.175263
1308.2956,0.162560
1310.1592,0.138492
1312.0229,0.113392
1313.8866,0.096747
1315.7503,0.090233
1317.6139,0.089718
1319.4776,0.091658
1321.3413,0.094141
1323.2049,0.096835
1325.0686,0.099807
1326.9323,0.102774
1328.7959,0.105655
1330.6596,0.108327
1332.5233,0.110558
1334.3869,0.112064
1336.2506,0.113190
1338.1143,0.114986
1339.9780,0.117346
1341.8416,0.118261
1343.7053,0.118273
1345.5690,0.118918
1347.4326,0.120076
1349.2963,0.121540
1351.1600,0.123147
1353.0236,0.125154
1354.8873,0.127803
1356.7510,0.130397
1358.6146,0.132640
1360.4783,0.135740
1362.3420,0.141118
1364.2056,0.146181
1366.0693,0.148818
1367.9330,0.152602
1369.7967,0.157150
1371.6603,0.160731
1373.5240,0.165877
1375.3877,0.171983
1377.2513,0.175975
1379.1150,0.181005
1380.9787,0.187622
1382.8423,0.194509
1384.7060,0.202059
1386.5697,0.211850
1388.4333,0.222707
1390.2970,0.228617
1392.1607,0.231604
1394.0244,0.232296
1395.8880,0.226257
1397.7517,0.215705
1399.6154,0.203260
1401.4790,0.191313
1403.3427,0.181004
1405.2064,0.165291
1407.0700,0.144087
1408.9337,0.123477
1410.7974,0.104409
1412.6610,0.090702
1414.5247,0.084369
1416.3884,0.083822
1418.2520,0.088988
1420.1157,0.099003
1421.9794,0.104409
1423.8431,0.102785
1425.7067,0.093077
1427.5704,0.082258
1429.4341,0.075402
1431.2977,0.072450
1433.1614,0.072267
1435.0251,0.074076
1436.8887,0.078468
1438.7524,0.081335
1440.6161,0.082612
1442.4797,0.084955
1444.3434,0.087137
1446.2071,0.088898
1448.0707,0.089892
1449.9344,0.088158
1451.7981,0.084449
1453.6618,0.080533
1455.5254,0.079058
1457.3891,0.082286
1459.2528,0.083831
1461.1164,0.082525
1462.9801,0.082510
1464.8438,0.083442
1466.7074,0.082522
1468.5711,0.080167
1470.4348,0.078999
1472.2984,0.080086
1474.1621,0.081396
1476.0258,0.080825
1477.8895,0.080457
1479.7531,0.080267
1481.6168,0.080758
1483.4805,0.080969
1485.3441,0.081027
1487.2078,0.082005
1489.0715,0.084522
1490.9351,0.086695
1492.7988,0.086065
1494.6625,0.085826
1496.5261,0.088489
1498.3898,0.091342
1500.2535,0.091791
1502.1171,0.091062
1503.9808,0.090766
1505.8445,0.093966
1507.7082,0.102518
1509.5718,0.101667
1511.4355,0.100769
1513.2992,0.101394
1515.1628,0.102576
1517.0265,0.104811
1518.8902,0.106473
1520.7538,0.108658
1522.6175,0.112320
1524.4812,0.112643
1526.3448,0.114151
1528.2085,0.115549
1530.0722,0.115677
1531.9359,0.117133
1533.7995,0.120653
1535.6632,0.121013
1537.5269,0.120602
1539.3905,0.125210
1541.2542,0.133555
1543.1179,0.134626
1544.9815,0.136250
1546.8452,0.137549
1548.7089,0.139239
1550.5725,0.142527
1552.4362,0.144915
1554.2999,0.146846
1556.1635,0.149674
1558.0272,0.156115
1559.8909,0.170213
1561.7546,0.166814
1563.6182,0.165777
1565.4819,0.168647
1567.3456,0.172110
1569.2092,0.177138
1571.0729,0.182306
1572.9366,0.183567
1574.8002,0.187760
1576.6639,0.196257
1578.5276,0.200046
1580.3912,0.201482
1582.2549,0.204971
1584.1186,0.208078
1585.9822,0.210488
1587.8459,0.212085
1589.7096,0.212934
1591.5733,0.212864
1593.4369,0.212371
1595.3006,0.211036
1597.1643,0.208907
1599.0279,0.206353
1600.8916,0.203740
1602.7553,0.201088
1604.6189,0.198659
1606.4826,0.196401
1608.3463,0.194352
1610.2099,0.191834
1612.0736,0.188365
1613.9373,0.184514
1615.8010,0.180086
1617.6646,0.170752
1619.5283,0.161137
1621.3920,0.154903
1623.2556,0.146574
1625.1193,0.136440
1626.9830,0.127917
1628.8466,0.117333
1630.7103,0.106381
1632.5740,0.097823
1634.4376,0.089409
1636.3013,0.079129
1638.1650,0.072689
1640.0286,0.071162
1641.8923,0.070185
1643.7560,0.070507
1645.6197,0.072404
1647.4833,0.075893
1649.3470,0.077631
1651.2107,0.080054
1653.0743,0.085972
1654.9380,0.090569
1656.8017,0.090350
1658.6653,0.091518
1660.5290,0.092303
1662.3927,0.092231
1664.2563,0.090488
1666.1200,0.088503
1667.9837,0.087018
1669.8474,0.085348
1671.7110,0.083802
1673.5747,0.084225
1675.4384,0.086480
1677.3020,0.089502
1679.1657,0.092292
1681.0294,0.096803
1682.8930,0.102285
1684.7567,0.109458
1686.6204,0.110860
1688.4840,0.109859
1690.3477,0.108720
1692.2114,0.106332
1694.0750,0.103559
1695.9387,0.100049
1697.8024,0.094657
1699.6661,0.090932
1701.5297,0.082116
1703.3934,0.074543
1705.2571,0.066344
1707.1207,0.055037
1708.9844,0.047395
1710.8481,0.042035
1712.7117,0.037572
1714.5754,0.034898
1716.4391,0.032663
1718.3027,0.030687
1720.1664,0.028897
1722.0301,0.028087
1723.8937,0.026464
1725.7574,0.024245
1727.6211,0.022101
1729.4848,0.020298
1731.3484,0.018579
1733.2121,0.017550
1735.0758,0.015753
1736.9394,0.015093
1738.8031,0.015084
1740.6668,0.014712
1742.5304,0.014096
1744.3941,0.013854
1746.2578,0.013393
1748.1214,0.013101
1749.9851,0.012622
1751.8488,0.012129
1753.7125,0.011874
1755.5761,0.012076
1757.4398,0.011921
1759.3035,0.011869
1761.1671,0.011856
1763.0308,0.011736
1764.8945,0.011585
1766.7581,0.011746
1768.6218,0.011581
1770.4855,0.011556
1772.3491,0.011592
1774.2128,0.011446
1776.0765,0.011244
1777.9401,0.011466
1779.8038,0.011617
1781.6675,0.011735
1783.5312,0.011579
1785.3948,0.011762
1787.2585,0.011829
1789.1222,0.012005
1790.9858,0.012020
1792.8495,0.011966
1794.7132,0.011831
1796.5768,0.012035
1798.4405,0.012085
1800.3042,0.012169
1802.1678,0.012184
1804.0315,0.012412
1805.8952,0.012483
1807.7589,0.012679
1809.6225,0.012829
1811.4862,0.012827
1813.3499,0.012560
1815.2135,0.012767
1817.0772,0.012698
1818.9409,0.012613
1820.8045,0.012663
1822.6682,0.012863
1824.5319,0.012911
1826.3955,0.012982
1828.2592,0.012943
1830.1229,0.013156
1831.9865,0.012825
1833.8502,0.012580
1835.7139,0.012445
1837.5776,0.012697
1839.4412,0.012768
1841.3049,0.012760
1843.1686,0.012839
1845.0322,0.012918
1846.8959,0.012686
1848.7596,0.012702
1850.6232,0.012801
1852.4869,0.013237
1854.3506,0.013109
1856.2142,0.013014
1858.0779,0.013231
1859.9416,0.013251
1861.8052,0.012737
1863.6689,0.012895
1865.5326,0.013165
1867.3963,0.013347
1869.2599,0.013127
1871.1236,0.013065
1872.9873,0.012870
1874.8509,0.012965
1876.7146,0.013152
1878.5783,0.013402
1880.4419,0.013309
1882.3056,0.013436
1884.1693,0.013485
1886.0329,0.013704
1887.8966,0.013859
1889.7603,0.014023
1891.6240,0.013831
1893.4876,0.013936
1895.3513,0.013924
1897.2150,0.014181
1899.0786,0.014267
1900.9423,0.014532
1902.8060,0.014570
1904.6696,0.014858
1906.5333,0.015088
1908.3970,0.014857
1910.2606,0.014136
1912.1243,0.013900
1913.9880,0.014444
1915.8516,0.015361
1917.7153,0.014910
1919.5790,0.014394
1921.4427,0.014415
1923.3063,0.014499
1925.1700,0.014143
1927.0337,0.014447
1928.8973,0.014635
1930.7610,0.014324
1932.6247,0.013447
1934.4883,0.013233
1936.3520,0.013051
1938.2157,0.013367
1940.0793,0.013153
1941.9430,0.012696
1943.8067,0.011431
1945.6704,0.011137
1947.5340,0.011148
1949.3977,0.011013
1951.2614,0.010770
1953.1250,0.010936
1954.9887,0.010439
1956.8524,0.010329
1958.7160,0.010080
1960.5797,0.010216
1962.4434,0.009322
1964.3070,0.008413
1966.1707,0.006390
1968.0344,0.004832
1969.8980,0.004493
1971.7617,0.006055
1973.6254,0.006295
1975.4891,0.005850
1977.3527,0.006016
1979.2164,0.007409
1981.0801,0.008039
1982.9437,0.008078
1984.8074,0.007652
1986.6711,0.008164
1988.5347,0.008311
1990.3984,0.009093
1992.2621,0.009103
1994.1257,0.009132
1995.9894,0.009641
1997.8531,0.010282
1999.7167,0.009499
2001.5804,0.009534
2003.4441,0.009989
2005.3078,0.010033
2007.1714,0.009103
2009.0351,0.009024
2010.8988,0.007941
2012.7624,0.007150
2014.6261,0.007056
2016.4898,0.007509
2018.3534,0.006366
2020.2171,0.006589
2022.0808,0.006278
2023.9444,0.006765
2025.8081,0.006387
2027.6718,0.006847
2029.5355,0.006640
2031.3991,0.006192
2033.2628,0.005429
2035.1265,0.006112
2036.9901,0.007922
2038.8538,0.009466
2040.7175,0.009693
2042.5811,0.009883
2044.4448,0.009823
2046.3085,0.010644
2048.1721,0.010618
2050.0358,0.011241
2051.8995,0.012480
2053.7631,0.012423
2055.6268,0.012415
2057.4905,0.013471
2059.3542,0.013558
2061.2178,0.014123
2063.0815,0.013815
2064.9452,0.013767
2066.8088,0.013924
2068.6725,0.014123
2070.5362,0.014621
2072.3998,0.015117
2074.2635,0.014437
2076.1272,0.014379
2077.9908,0.014374
2079.8545,0.014842
2081.7182,0.015862
2083.5819,0.016676
2085.4455,0.016377
2087.3092,0.016336
2089.1729,0.016360
2091.0365,0.016452
2092.9002,0.015723
2094.7639,0.015680
2096.6275,0.016205
2098.4912,0.016090
2100.3549,0.016216
2102.2185,0.016918
2104.0822,0.016506
2105.9459,0.016287
2107.8095,0.016528
2109.6732,0.016580
2111.5369,0.016459
2113.4006,0.016595
2115.2642,0.016342
2117.1279,0.016550
2118.9916,0.017385
2120.8552,0.017890
2122.7189,0.017027
2124.5826,0.016907
2126.4462,0.016569
2128.3099,0.016469
2130.1736,0.016676
2132.0372,0.016095
2133.9009,0.015192
2135.7646,0.014982
2137.6282,0.014842
2139.4919,0.014231
2141.3556,0.012938
2143.2193,0.012957
2145.0829,0.013098
2146.9466,0.012957
2148.8103,0.012771
2150.6739,0.012897
2152.5376,0.011904
2154.4013,0.010751
2156.2649,0.007930
2158.1286,0.006019
2159.9923,0.005692
2161.8559,0.007231
2163.7196,0.008288
2165.5833,0.009361
2167.4470,0.009494
2169.3106,0.010566
2171.1743,0.010691
2173.0380,0.010614
2174.9016,0.010713
2176.7653,0.012153
2178.6290,0.013353
2180.4926,0.013783
2182.3563,0.012870
2184.2200,0.012170
2186.0836,0.012402
2187.9473,0.013444
2189.8110,0.013432
2191.6746,0.013274
2193.5383,0.013198
2195.4020,0.014686
2197.2657,0.014909
2199.1293,0.014814
2200.9930,0.015044
2202.8567,0.016013
2204.7203,0.016621
2206.5840,0.016733
2208.4477,0.016261
2210.3113,0.016477
2212.1750,0.016526
2214.0387,0.016149
2215.9023,0.015924
2217.7660,0.016610
2219.6297,0.016419
2221.4934,0.016904
2223.3570,0.017491
2225.2207,0.018642
2227.0844,0.018839
2228.9480,0.019150
2230.8117,0.019543
2232.6754,0.019884
2234.5390,0.019515
2236.4027,0.019107
2238.2664,0.019180
2240.1300,0.019948
2241.9937,0.020271
2243.8574,0.020456
2245.7210,0.020372
2247.5847,0.020686
2249.4484,0.020928
2251.3121,0.021051
2253.1757,0.021090
2255.0394,0.021730
2256.9031,0.022455
2258.7667,0.021374
2260.6304,0.020803
2262.4941,0.021908
2264.3577,0.022147
2266.2214,0.022535
2268.0851,0.022822
2269.9487,0.023014
2271.8124,0.023159
2273.6761,0.023537
2275.5397,0.023945
2277.4034,0.024368
2279.2671,0.024392
2281.1308,0.024806
2282.9944,0.025325
2284.8581,0.025600
2286.7218,0.025447
2288.5854,0.025612
2290.4491,0.025728
2292.3128,0.025831
2294.1764,0.025816
2296.0401,0.025930
2297.9038,0.026187
2299.7674,0.026326
2301.6311,0.026013
2303.4948,0.026013
2305.3585,0.026586
2307.2221,0.026746
2309.0858,0.026527
2310.9495,0.026614
2312.8131,0.026661
2314.6768,0.026421
2316.5405,0.026204
2318.4041,0.026306
2320.2678,0.026373
2322.1315,0.026375
2323.9951,0.026753
2325.8588,0.026888
2327.7225,0.026299
2329.5861,0.026025
2331.4498,0.025861
2333.3135,0.025571
2335.1772,0.025271
2337.0408,0.025361
2338.9045,0.025514
2340.7682,0.025320
2342.6318,0.025525
2344.4955,0.025927
2346.3592,0.025769
2348.2228,0.025338
2350.0865,0.025307
2351.9502,0.025932
2353.8138,0.026075
2355.6775,0.025675
2357.5412,0.025378
2359.4049,0.025576
2361.2685,0.025629
2363.1322,0.025282
2364.9959,0.025106
2366.8595,0.025315
2368.7232,0.025871
2370.5869,0.026328
2372.4505,0.026646
2374.3142,0.026647
2376.1779,0.026318
2378.0415,0.026304
2379.9052,0.026793
2381.7689,0.027205
2383.6325,0.027176
2385.4962,0.026939
2387.3599,0.026991
2389.2236,0.027021
2391.0872,0.027060
2392.9509,0.026832
2394.8146,0.026623
2396.6782,0.026903
2398.5419,0.027232
2400.4056,0.027375
2402.2692,0.027371
2404.1329,0.027709
2405.9966,0.027732
2407.8602,0.027410
2409.7239,0.027536
2411.5876,0.027890
2413.4512,0.028145
2415.3149,0.028203
2417.1786,0.028163
2419.0423,0.028354
2420.9059,0.028706
2422.7696,0.028578
2424.6333,0.028530
2426.4969,0.028781
2428.3606,0.028678
2430.2243,0.028663
2432.0879,0.028713
2433.9516,0.028642
2435.8153,0.028845
2437.6789,0.029114
2439.5426,0.028787
2441.4063,0.028501
2443.2700,0.028774
2445.1336,0.029223
2446.9973,0.028684
2448.8610,0.028444
2450.7246,0.028583
2452.5883,0.028640
2454.4520,0.028756
2456.3156,0.028770
2458.1793,0.028477
2460.0430,0.028161
2461.9066,0.028269
2463.7703,0.028381
2465.6340,0.028221
2467.4976,0.028337
2469.3613,0.028217
2471.2250,0.028193
2473.0887,0.028313
2474.9523,0.028293
2476.8160,0.028266
2478.6797,0.028174
2480.5433,0.028280
2482.4070,0.028846
2484.2707,0.028915
2486.1343,0.028780
2487.9980,0.028869
2489.8617,0.028788
2491.7253,0.029030
2493.5890,0.029814
2495.4527,0.029827
2497.3164,0.029460
2499.1800,0.029829
2501.0437,0.029717
2502.9074,0.029675
2504.7710,0.029940
2506.6347,0.029592
2508.4984,0.029377
2510.3620,0.029472
2512.2257,0.029816
2514.0894,0.030000
2515.9530,0.030100
2517.8167,0.030178
2519.6804,0.030518
2521.5440,0.030905
2523.4077,0.030920
2525.2714,0.030620
2527.1351,0.030406
2528.9987,0.030370
2530.8624,0.030330
2532.7261,0.030602
2534.5897,0.030700
2536.4534,0.030407
2538.3171,0.030001
2540.1807,0.029803
2542.0444,0.030057
2543.9081,0.030191
2545.7717,0.030528
2547.6354,0.030800
2549.4991,0.030669
2551.3627,0.030511
2553.2264,0.030448
2555.0901,0.030705
2556.9538,0.030865
2558.8174,0.030617
2560.6811,0.030794
2562.5448,0.030990
2564.4084,0.030863
2566.2721,0.030726
2568.1358,0.031089
2569.9994,0.031489
2571.8631,0.031457
2573.7268,0.031279
2575.5904,0.031333
2577.4541,0.031534
2579.3178,0.031898
2581.1815,0.032108
2583.0451,0.032528
2584.9088,0.032721
2586.7725,0.032697
2588.6361,0.032586
2590.4998,0.032474
2592.3635,0.032465
2594.2271,0.032853
2596.0908,0.033418
2597.9545,0.033529
2599.8181,0.033468
2601.6818,0.033609
2603.5455,0.034016
2605.4091,0.034329
2607.2728,0.034283
2609.1365,0.034063
2611.0002,0.034284
2612.8638,0.034469
2614.7275,0.034580
2616.5912,0.034872
2618.4548,0.034834
2620.3185,0.034601
2622.1822,0.034828
2624.0458,0.035081
2625.9095,0.035432
2627.7732,0.035926
2629.6368,0.036240
2631.5005,0.036517
2633.3642,0.036697
2635.2279,0.037091
2637.0915,0.037461
2638.9552,0.037581
2640.8189,0.037541
2642.6825,0.037740
2644.5462,0.038215
2646.4099,0.038326
2648.2735,0.038360
2650.1372,0.038582
2652.0009,0.038772
2653.8645,0.038836
2655.7282,0.038800
2657.5919,0.038649
2659.4555,0.038723
2661.3192,0.039074
2663.1829,0.039202
2665.0466,0.039205
2666.9102,0.039270
2668.7739,0.039301
2670.6376,0.039291
2672.5012,0.039459
2674.3649,0.039746
2676.2286,0.039877
2678.0922,0.039877
2679.9559,0.040226
2681.8196,0.040752
2683.6832,0.040841
2685.5469,0.040840
2687.4106,0.041068
2689.2742,0.041410
2691.1379,0.041681
2693.0016,0.041851
2694.8653,0.042118
2696.7289,0.042395
2698.5926,0.042723
2700.4563,0.043195
2702.3199,0.043420
2704.1836,0.043748
2706.0473,0.043965
2707.9109,0.044063
2709.7746,0.044390
2711.6383,0.044715
2713.5019,0.045034
2715.3656,0.045486
2717.2293,0.045934
2719.0930,0.046345
2720.9566,0.046708
2722.8203,0.047069
2724.6840,0.047591
2726.5476,0.048345
2728.4113,0.048821
2730.2750,0.048922
2732.1386,0.049302
2734.0023,0.049940
2735.8660,0.050382
2737.7296,0.050807
2739.5933,0.051486
2741.4570,0.052260
2743.3206,0.052885
2745.1843,0.053298
2747.0480,0.053825
2748.9117,0.054651
2750.7753,0.055387
2752.6390,0.055969
2754.5027,0.056336
2756.3663,0.056728
2758.2300,0.057383
2760.0937,0.058173
2761.9573,0.058831
2763.8210,0.059444
2765.6847,0.059976
2767.5483,0.060584
2769.4120,0.061166
2771.2757,0.061989
2773.1394,0.062682
2775.0030,0.063482
2776.8667,0.064669
2778.7304,0.065253
2780.5940,0.065277
2782.4577,0.065440
2784.3214,0.065413
2786.1850,0.065170
2788.0487,0.065052
2789.9124,0.065116
2791.7760,0.064776
2793.6397,0.063907
2795.5034,0.062933
2797.3670,0.062323
2799.2307,0.061883
2801.0944,0.061420
2802.9581,0.060522
2804.8217,0.059846
2806.6854,0.059435
2808.5491,0.059275
2810.4127,0.059013
2812.2764,0.058936
2814.1401,0.058636
2816.0037,0.058252
2817.8674,0.058276
2819.7311,0.058561
2821.5947,0.058821
2823.4584,0.059112
2825.3221,0.059430
2827.1857,0.059244
2829.0494,0.058491
2830.9131,0.057773
2832.7768,0.057460
2834.6404,0.057537
2836.5041,0.057626
2838.3678,0.057806
2840.2314,0.058263
2842.0951,0.058936
2843.9588,0.059188
2845.8224,0.059346
2847.6861,0.059864
2849.5498,0.060655
2851.4134,0.061163
2853.2771,0.061614
2855.1408,0.062239
2857.0045,0.063153
2858.8681,0.064053
2860.7318,0.064880
2862.5955,0.065414
2864.4591,0.065562
2866.3228,0.065768
2868.1865,0.066255
2870.0501,0.066666
2871.9138,0.066935
2873.7775,0.067327
2875.6411,0.067812
2877.5048,0.068133
2879.3685,0.068537
2881.2321,0.068829
2883.0958,0.069394
2884.9595,0.070172
2886.8232,0.070901
2888.6868,0.071402
2890.5505,0.071880
2892.4142,0.072266
2894.2778,0.072962
2896.1415,0.073614
2898.0052,0.074378
2899.8688,0.074793
2901.7325,0.074514
2903.5962,0.074183
2905.4598,0.074548
2907.3235,0.074786
2909.1872,0.074897
2911.0509,0.075360
2912.9145,0.076227
2914.7782,0.077084
2916.6419,0.077874
2918.5055,0.078560
2920.3692,0.078946
2922.2329,0.079626
2924.0965,0.080552
2925.9602,0.080971
2927.8239,0.081498
2929.6875,0.082293
2931.5512,0.083345
2933.4149,0.083926
2935.2785,0.084285
2937.1422,0.084760
2939.0059,0.085492
2940.8696,0.085683
2942.7332,0.085725
2944.5969,0.086259
2946.4606,0.087089
2948.3242,0.087584
2950.1879,0.087784
2952.0516,0.087876
2953.9152,0.088550
2955.7789,0.089132
2957.6426,0.089404
2959.5062,0.089765
2961.3699,0.090504
2963.2336,0.091543
2965.0972,0.092765
2966.9609,0.093914
2968.8246,0.094906
2970.6883,0.095669
2972.5519,0.096612
2974.4156,0.097680
2976.2793,0.098649
2978.1429,0.099108
2980.0066,0.099689
2981.8703,0.099991
2983.7339,0.100015
2985.5976,0.100239
2987.4613,0.101011
2989.3249,0.101694
2991.1886,0.102584
2993.0523,0.103105
2994.9160,0.103751
2996.7796,0.104909
2998.6433,0.105841
3000.5070,0.106548
3002.3706,0.107783
3004.2343,0.108758
3006.0980,0.109702
3007.9616,0.110648
3009.8253,0.111493
3011.6890,0.112322
3013.5526,0.113022
3015.4163,0.113642
3017.2800,0.114555
3019.1436,0.115409
3021.0073,0.116269
3022.8710,0.116601
3024.7347,0.116872
3026.5983,0.117088
3028.4620,0.117438
3030.3257,0.117730
3032.1893,0.118375
3034.0530,0.118958
3035.9167,0.119234
3037.7803,0.119560
3039.6440,0.120194
3041.5077,0.120488
3043.3713,0.120827
3045.2350,0.121423
3047.0987,0.121981
3048.9624,0.122144
3050.8260,0.122240
3052.6897,0.122119
3054.5534,0.122607
3056.4170,0.122662
3058.2807,0.122565
3060.1444,0.122740
3062.0080,0.123076
3063.8717,0.123102
3065.7354,0.123430
3067.5990,0.123694
3069.4627,0.123756
3071.3264,0.123646
3073.1900,0.123549
3075.0537,0.123413
3076.9174,0.123113
3078.7811,0.122468
3080.6447,0.122568
3082.5084,0.122552
3084.3721,0.122237
3086.2357,0.121445
3088.0994,0.120797
3089.9631,0.120013
3091.8267,0.119039
3093.6904,0.118032
3095.5541,0.117203
3097.4177,0.116400
3099.2814,0.115770
3101.1451,0.114939
3103.0087,0.113725
3104.8724,0.112595
3106.7361,0.111526
3108.5998,0.109753
3110.4634,0.108611
3112.3271,0.108127
3114.1908,0.107163
3116.0544,0.106001
3117.9181,0.105129
3119.7818,0.104050
3121.6454,0.103152
3123.5091,0.102156
3125.3728,0.100920
3127.2364,0.099850
3129.1001,0.098952
3130.9638,0.098088
3132.8275,0.097873
3134.6911,0.096833
3136.5548,0.095317
3138.4185,0.094309
3140.2821,0.094292
3142.1458,0.094386
3144.0095,0.093695
3145.8731,0.092387
3147.7368,0.091954
3149.6005,0.091546
3151.4641,0.090833
3153.3278,0.090946
3155.1915,0.091141
3157.0551,0.090120
3158.9188,0.088846
3160.7825,0.088035
3162.6462,0.087612
3164.5098,0.086924
3166.3735,0.086315
3168.2372,0.085422
3170.1008,0.084913
3171.9645,0.084572
3173.8282,0.083754
3175.6918,0.083207
3177.5555,0.083151
3179.4192,0.082992
3181.2828,0.082925
3183.1465,0.082770
3185.0102,0.082401
3186.8739,0.081651
3188.7375,0.080975
3190.6012,0.081107
3192.4649,0.082027
3194.3285,0.082393
3196.1922,0.081891
3198.0559,0.081260
3199.9195,0.081723
3201.7832,0.082081
3203.6469,0.081961
3205.5105,0.081666
3207.3742,0.081467
3209.2379,0.081370
3211.1015,0.081587
3212.9652,0.081898
3214.8289,0.082382
3216.6926,0.082454
3218.5562,0.082870
3220.4199,0.082794
3222.2836,0.082366
3224.1472,0.082972
3226.0109,0.083180
3227.8746,0.082779
3229.7382,0.083341
3231.6019,0.083577
3233.4656,0.083696
3235.3292,0.084123
3237.1929,0.084867
3239.0566,0.085169
3240.9202,0.085294
3242.7839,0.085491
3244.6476,0.085568
3246.5113,0.085650
3248.3749,0.086419
3250.2386,0.086864
3252.1023,0.086907
3253.9659,0.087828
3255.8296,0.089021
3257.6933,0.089235
3259.5569,0.089430
3261.4206,0.089806
3263.2843,0.089846
3265.1479,0.089647
3267.0116,0.090140
3268.8753,0.090477
3270.7390,0.090765
3272.6026,0.090533
3274.4663,0.090686
3276.3300,0.091421
3278.1936,0.091224
3280.0573,0.089816
3281.9210,0.089300
3283.7846,0.089367
3285.6483,0.088944
3287.5120,0.088337
3289.3756,0.087904
3291.2393,0.086952
3293.1030,0.085982
3294.9666,0.084770
3296.8303,0.083395
3298.6940,0.082699
3300.5577,0.082230
3302.4213,0.081583
3304.2850,0.081038
3306.1487,0.080199
3308.0123,0.079062
3309.8760,0.078151
3311.7397,0.077448
3313.6033,0.076732
3315.4670,0.077159
3317.3307,0.077710
3319.1943,0.077923
3321.0580,0.077804
3322.9217,0.077582
3324.7854,0.078006
3326.6490,0.079255
3328.5127,0.080128
3330.3764,0.079543
3332.2400,0.078334
3334.1037,0.078152
3335.9674,0.078377
3337.8310,0.078502
3339.6947,0.078132
3341.5584,0.076646
3343.4220,0.074305
3345.2857,0.072764
3347.1494,0.071848
3349.0130,0.070760
3350.8767,0.069171
3352.7404,0.067560
3354.6041,0.066328
3356.4677,0.065585
3358.3314,0.064271
3360.1951,0.062860
3362.0587,0.062065
3363.9224,0.060720
3365.7861,0.059601
3367.6497,0.060050
3369.5134,0.060622
3371.3771,0.059958
3373.2407,0.058969
3375.1044,0.058958
3376.9681,0.059084
3378.8317,0.059632
3380.6954,0.060336
3382.5591,0.060626
3384.4228,0.060488
3386.2864,0.060643
3388.1501,0.061258
3390.0138,0.061992
3391.8774,0.062471
3393.7411,0.063212
3395.6048,0.063705
3397.4684,0.064060
3399.3321,0.064592
3401.1958,0.064680
3403.0594,0.064626
3404.9231,0.063712
3406.7868,0.061402
3408.6505,0.060077
3410.5141,0.058955
3412.3778,0.056492
3414.2415,0.053974
3416.1051,0.052360
3417.9688,0.050262
3419.8325,0.048323
3421.6961,0.047319
3423.5598,0.046285
3425.4235,0.044211
3427.2871,0.042033
3429.1508,0.040739
3431.0145,0.040107
3432.8781,0.038694
3434.7418,0.037225
3436.6055,0.035795
3438.4692,0.034559
3440.3328,0.034924
3442.1965,0.034822
3444.0602,0.033073
3445.9238,0.032000
3447.7875,0.031535
3449.6512,0.030830
3451.5148,0.030057
3453.3785,0.029834
3455.2422,0.029459
3457.1058,0.028243
3458.9695,0.027687
3460.8332,0.028308
3462.6969,0.028712
3464.5605,0.028000
3466.4242,0.026778
3468.2879,0.025736
3470.1515,0.024641
3472.0152,0.024464
3473.8789,0.025208
3475.7425,0.024646
3477.6062,0.023139
3479.4699,0.022287
3481.3335,0.022089
3483.1972,0.022253
3485.0609,0.021818
3486.9245,0.021352
3488.7882,0.021000
3490.6519,0.020148
3492.5156,0.019977
3494.3792,0.020119
3496.2429,0.019724
3498.1066,0.018828
3499.9702,0.017679
3501.8339,0.017220
3503.6976,0.017132
3505.5612,0.015493
3507.4249,0.014514
3509.2886,0.015135
3511.1522,0.015323
3513.0159,0.015162
3514.8796,0.015127
3516.7432,0.014265
3518.6069,0.013559
3520.4706,0.013577
3522.3343,0.013519
3524.1979,0.012965
3526.0616,0.011818
3527.9253,0.011443
3529.7889,0.012010
3531.6526,0.012016
3533.5163,0.011239
3535.3799,0.010071
3537.2436,0.009919
3539.1073,0.010400
3540.9709,0.010423
3542.8346,0.010221
3544.6983,0.009472
3546.5620,0.009078
3548.4256,0.009606
3550.2893,0.009978
3552.1530,0.009428
3554.0166,0.009110
3555.8803,0.009620
3557.7440,0.009982
3559.6076,0.009653
3561.4713,0.008475
3563.3350,0.007326
3565.1986,0.007124
3567.0623,0.006982
3568.9260,0.006398
3570.7896,0.006665
3572.6533,0.008084
3574.5170,0.009533
3576.3807,0.009821
3578.2443,0.008726
3580.1080,0.007884
3581.9717,0.008010
3583.8353,0.008093
3585.6990,0.008211
3587.5627,0.007831
3589.4263,0.006314
3591.2900,0.006352
3593.1537,0.007188
3595.0173,0.007371
3596.8810,0.006876
3598.7447,0.006649
3600.6084,0.007425
3602.4720,0.008012
3604.3357,0.008446
3606.1994,0.008624
3608.0630,0.007672
3609.9267,0.006486
3611.7904,0.006145
3613.6540,0.006010
3615.5177,0.006083
3617.3814,0.006889
3619.2450,0.007196
3621.1087,0.006728
3622.9724,0.007364
3624.8360,0.008510
3626.6997,0.008362
3628.5634,0.006692
3630.4271,0.004903
3632.2907,0.005824
3634.1544,0.007851
3636.0181,0.008436
3637.8817,0.008119
3639.7454,0.007883
3641.6091,0.007871
3643.4727,0.008347
3645.3364,0.008182
3647.2001,0.007485
3649.0637,0.006595
3650.9274,0.004839
3652.7911,0.005259
3654.6547,0.007105
3656.5184,0.007796
3658.3821,0.007600
3660.2458,0.008061
3662.1094,0.008640
3663.9731,0.008959
3665.8368,0.009045
3667.7004,0.008824
3669.5641,0.008134
3671.4278,0.007048
3673.2914,0.006624
3675.1551,0.007037
3677.0188,0.006949
3678.8824,0.006862
3680.7461,0.008342
3682.6098,0.009190
3684.4735,0.009116
3686.3371,0.008940
3688.2008,0.008126
3690.0645,0.006772
3691.9281,0.006685
3693.7918,0.007885
3695.6555,0.009013
3697.5191,0.009536
3699.3828,0.009396
3701.2465,0.009335
3703.1101,0.009245
3704.9738,0.009005
3706.8375,0.008623
3708.7011,0.008508
3710.5648,0.009128
3712.4285,0.008688
3714.2922,0.007724
3716.1558,0.008364
3718.0195,0.009758
3719.8832,0.010062
3721.7468,0.008965
3723.6105,0.008654
3725.4742,0.009183
3727.3378,0.009360
3729.2015,0.009136
3731.0652,0.009073
3732.9288,0.009103
3734.7925,0.008039
3736.6562,0.006082
3738.5199,0.006592
3740.3835,0.008360
3742.2472,0.008666
3744.1109,0.008220
3745.9745,0.006999
3747.8382,0.006123
3749.7019,0.006991
3751.5655,0.007424
3753.4292,0.007601
3755.2929,0.008924
3757.1565,0.010016
3759.0202,0.010098
3760.8839,0.010025
3762.7475,0.009946
3764.6112,0.009922
3766.4749,0.009947
3768.3386,0.010095
3770.2022,0.010157
3772.0659,0.010038
3773.9296,0.010642
3775.7932,0.011294
3777.6569,0.011299
3779.5206,0.010600
3781.3842,0.010094
3783.2479,0.010493
3785.1116,0.010887
3786.9752,0.011125
3788.8389,0.011376
3790.7026,0.011277
3792.5662,0.011184
3794.4299,0.011454
3796.2936,0.011598
3798.1573,0.010949
3800.0209,0.009829
3801.8846,0.009544
3803.7483,0.009883
3805.6119,0.010828
3807.4756,0.011163
3809.3393,0.010334
3811.2029,0.010325
3813.0666,0.011137
3814.9303,0.010976
3816.7939,0.010417
3818.6576,0.010430
3820.5213,0.010640
3822.3850,0.010524
3824.2486,0.009880
3826.1123,0.010385
3827.9760,0.011140
3829.8396,0.011588
3831.7033,0.011075
3833.5670,0.010206
3835.4306,0.010426
3837.2943,0.010464
3839.1580,0.009490
3841.0216,0.009651
3842.8853,0.010898
3844.7490,0.011348
3846.6126,0.011465
3848.4763,0.011348
3850.3400,0.010885
3852.2037,0.010665
3854.0673,0.010287
3855.9310,0.009216
3857.7947,0.009888
3859.6583,0.011008
3861.5220,0.011638
3863.3857,0.011588
3865.2493,0.011617
3867.1130,0.011830
3868.9767,0.011919
3870.8403,0.011356
3872.7040,0.010992
3874.5677,0.011501
3876.4314,0.011394
3878.2950,0.011344
3880.1587,0.011688
3882.0224,0.011639
3883.8860,0.011907
3885.7497,0.012235
3887.6134,0.011695
3889.4770,0.011884
3891.3407,0.012305
3893.2044,0.011555
3895.0680,0.011022
3896.9317,0.011487
3898.7954,0.011859
3900.6590,0.012074
3902.5227,0.012596
3904.3864,0.012611
3906.2501,0.011993
3908.1137,0.012209
3909.9774,0.012484
3911.8411,0.012044
3913.7047,0.011930
3915.5684,0.012465
3917.4321,0.012769
3919.2957,0.012588
3921.1594,0.012815
3923.0231,0.013318
3924.8867,0.013164
3926.7504,0.013087
3928.6141,0.013340
3930.4777,0.013311
3932.3414,0.012708
3934.2051,0.012320
3936.0688,0.012337
3937.9324,0.012687
3939.7961,0.013542
3941.6598,0.013727
3943.5234,0.013125
3945.3871,0.012619
3947.2508,0.012777
3949.1144,0.013237
3950.9781,0.013372
3952.8418,0.013288
3954.7054,0.013043
3956.5691,0.012847
3958.4328,0.013057
3960.2965,0.013314
3962.1601,0.013490
3964.0238,0.013719
3965.8875,0.013983
3967.7511,0.014207
3969.6148,0.014065
3971.4785,0.013519
3973.3421,0.013304
3975.2058,0.013055
3977.0695,0.013137
3978.9331,0.013845
3980.7968,0.014055
3982.6605,0.013806
3984.5241,0.013600
3986.3878,0.013509
3988.2515,0.013796
3990.1152,0.014155
3991.9788,0.013971
3993.8425,0.013751
3995.7062,0.013594
3997.5698,0.013708
3999.4335,0.013956
