Wavenumber,Intensity
650.4205,0.242685
652.2841,0.237713
654.1478,0.235481
656.0115,0.230885
657.8751,0.224085
659.7388,0.219580
661.6025,0.219319
663.4661,0.217762
665.3298,0.216568
667.1935,0.220333
669.0571,0.222349
670.9208,0.217298
672.7845,0.214104
674.6481,0.211118
676.5118,0.210290
678.3755,0.209613
680.2392,0.210557
682.1028,0.209900
683.9665,0.208396
685.8302,0.207477
687.6938,0.207486
689.5575,0.207097
691.4212,0.207349
693.2848,0.207799
695.1485,0.208918
697.0122,0.209109
698.8758,0.210008
700.7395,0.210661
702.6032,0.209990
704.4669,0.206193
706.3305,0.200579
708.1942,0.192515
710.0579,0.183446
711.9215,0.174038
713.7852,0.165256
715.6489,0.157611
717.5125,0.150474
719.3762,0.143215
721.2399,0.137185
723.1035,0.132228
724.9672,0.127661
726.8309,0.122525
728.6945,0.117658
730.5582,0.113304
732.4219,0.109078
734.2856,0.104965
736.1492,0.102060
738.0129,0.100346
739.8766,0.100292
741.7402,0.102574
743.6039,0.105776
745.4676,0.106894
747.3312,0.106162
749.1949,0.105535
751.0586,0.104679
752.9222,0.103785
754.7859,0.103009
756.6496,0.101392
758.5132,0.099905
760.3769,0.098965
762.2406,0.098195
764.1043,0.097753
765.9679,0.097543
767.8316,0.097367
769.6953,0.097344
771.5589,0.097494
773.4226,0.097641
775.2863,0.097922
777.1499,0.098601
779.0136,0.099828
780.8773,0.101401
782.7409,0.102598
784.6046,0.103879
786.4683,0.105537
788.3320,0.107445
790.1956,0.109525
792.0593,0.111710
793.9230,0.113784
795.7866,0.115968
797.6503,0.117811
799.5140,0.119509
801.3776,0.121063
803.2413,0.121598
805.1050,0.120756
806.9686,0.119549
808.8323,0.117690
810.6960,0.114704
812.5596,0.111216
814.4233,0.107789
816.2870,0.104230
818.1507,0.100560
820.0143,0.097459
821.8780,0.095362
823.7417,0.094219
825.6053,0.094614
827.4690,0.096707
829.3327,0.097674
831.1963,0.091416
833.0600,0.078696
834.9237,0.068140
836.7873,0.063011
838.6510,0.061177
840.5147,0.060397
842.3784,0.059997
844.2420,0.059758
846.1057,0.059407
847.9694,0.059150
849.8330,0.058823
851.6967,0.058336
853.5604,0.058120
855.4240,0.058253
857.2877,0.058358
859.1514,0.058153
861.0150,0.057852
862.8787,0.057545
864.7424,0.057397
866.6060,0.057387
868.4697,0.057485
870.3334,0.057722
872.1971,0.058097
874.0607,0.058322
875.9244,0.058348
877.7881,0.058503
879.6517,0.058728
881.5154,0.058931
883.3791,0.059283
885.2427,0.059561
887.1064,0.059805
888.9701,0.060310
890.8337,0.060967
892.6974,0.061625
894.5611,0.062392
896.4247,0.063449
898.2884,0.064857
900.1521,0.066610
902.0158,0.068826
903.8794,0.071758
905.7431,0.075671
907.6068,0.080657
909.4704,0.086634
911.3341,0.093877
913.1978,0.102300
915.0614,0.106528
916.9251,0.098175
918.7888,0.081308
920.6524,0.068150
922.5161,0.062174
924.3798,0.060385
926.2435,0.060311
928.1071,0.060637
929.9708,0.060980
931.8345,0.061671
933.6981,0.062594
935.5618,0.063376
937.4255,0.064098
939.2891,0.064924
941.1528,0.065735
943.0165,0.066433
944.8801,0.067147
946.7438,0.068060
948.6075,0.069184
950.4711,0.070349
952.3348,0.071343
954.1985,0.072388
956.0622,0.073642
957.9258,0.075029
959.7895,0.076439
961.6532,0.077962
963.5168,0.079670
965.3805,0.081550
967.2442,0.083901
969.1078,0.086921
970.9715,0.090145
972.8352,0.093986
974.6988,0.100033
976.5625,0.110319
978.4262,0.127956
980.2899,0.153231
982.1535,0.164005
984.0172,0.135841
985.8809,0.098115
987.7445,0.080947
989.6082,0.078306
991.4719,0.079221
993.3355,0.080682
995.1992,0.082174
997.0629,0.083818
998.9265,0.085575
1000.7902,0.087311
1002.6539,0.088943
1004.5175,0.090639
1006.3812,0.092460
1008.2449,0.094261
1010.1086,0.096009
1011.9722,0.097589
1013.8359,0.098979
1015.6996,0.100086
1017.5632,0.100692
1019.4269,0.101050
1021.2906,0.101454
1023.1542,0.101785
1025.0179,0.102088
1026.8816,0.102680
1028.7452,0.103668
1030.6089,0.104826
1032.4726,0.106084
1034.3362,0.107647
1036.1999,0.109748
1038.0636,0.112330
1039.9273,0.115294
1041.7909,0.118871
1043.6546,0.123112
1045.5183,0.127673
1047.3819,0.131366
1049.2456,0.131561
1051.1093,0.125791
1052.9729,0.115521
1054.8366,0.105482
1056.7003,0.098917
1058.5639,0.095981
1060.4276,0.095372
1062.2913,0.095770
1064.1550,0.096546
1066.0186,0.097758
1067.8823,0.099456
1069.7460,0.101329
1071.6096,0.103201
1073.4733,0.105279
1075.3370,0.107610
1077.2006,0.110022
1079.0643,0.112500
1080.9280,0.115070
1082.7916,0.117757
1084.6553,0.120817
1086.5190,0.124337
1088.3826,0.128210
1090.2463,0.132505
1092.1100,0.137321
1093.9737,0.142796
1095.8373,0.149147
1097.7010,0.156237
1099.5647,0.163744
1101.4283,0.171292
1103.2920,0.178077
1105.1557,0.182746
1107.0193,0.183237
1108.8830,0.177901
1110.7467,0.166856
1112.6103,0.152228
1114.4740,0.136941
1116.3377,0.123236
1118.2014,0.112117
1120.0650,0.103867
1121.9287,0.098241
1123.7924,0.094483
1125.6560,0.091707
1127.5197,0.089149
1129.3834,0.086547
1131.2470,0.084072
1133.1107,0.082011
1134.9744,0.080372
1136.8380,0.079078
1138.7017,0.078291
1140.5654,0.078011
1142.4290,0.077965
1144.2927,0.077971
1146.1564,0.078030
1148.0201,0.078279
1149.8837,0.078686
1151.7474,0.079156
1153.6111,0.079795
1155.4747,0.080670
1157.3384,0.081772
1159.2021,0.083101
1161.0657,0.084754
1162.9294,0.086886
1164.7931,0.089523
1166.6567,0.092816
1168.5204,0.096892
1170.3841,0.101153
1172.2477,0.104047
1174.1114,0.103679
1175.9751,0.099312
1177.8388,0.092957
1179.7024,0.087582
1181.5661,0.084380
1183.4298,0.082940
1185.2934,0.082445
1187.1571,0.082349
1189.0208,0.082422
1190.8844,0.082537
1192.7481,0.082596
1194.6118,0.082598
1196.4754,0.082683
1198.3391,0.082962
1200.2028,0.083287
1202.0665,0.083592
1203.9301,0.083963
1205.7938,0.084235
1207.6575,0.084452
1209.5211,0.084742
1211.3848,0.085090
1213.2485,0.085558
1215.1121,0.086111
1216.9758,0.086740
1218.8395,0.087335
1220.7031,0.087826
1222.5668,0.088333
1224.4305,0.088899
1226.2941,0.089427
1228.1578,0.089929
1230.0215,0.090431
1231.8852,0.090892
1233.7488,0.091395
1235.6125,0.091952
1237.4762,0.092457
1239.3398,0.092860
1241.2035,0.093313
1243.0672,0.093863
1244.9308,0.094367
1246.7945,0.094799
1248.6582,0.095282
1250.5218,0.095811
1252.3855,0.096410
1254.2492,0.097059
1256.1129,0.097701
1257.9765,0.098497
1259.8402,0.099514
1261.7039,0.100578
1263.5675,0.101557
1265.4312,0.102572
1267.2949,0.103248
1269.1585,0.103255
1271.0222,0.103002
1272.8859,0.102935
1274.7495,0.103220
1276.6132,0.103896
1278.4769,0.104964
1280.3405,0.106354
1282.2042,0.108049
1284.0679,0.110020
1285.9316,0.112263
1287.7952,0.114855
1289.6589,0.117856
1291.5226,0.121485
1293.3862,0.125781
1295.2499,0.130827
1297.1136,0.136933
1298.9772,0.144366
1300.8409,0.153489
1302.7046,0.163413
1304.5682,0.170971
1306.4319,0.171114
1308.2956,0.158679
1310.1592,0.134916
1312.0229,0.110372
1313.8866,0.094208
1315.7503,0.087852
1317.6139,0.087481
1319.4776,0.089583
1321.3413,0.092277
1323.2049,0.095044
1325.0686,0.098048
1326.9323,0.101153
1328.7959,0.104142
1330.6596,0.106943
1332.5233,0.109158
1334.3869,0.110523
1336.2506,0.111578
1338.1143,0.113263
1339.9780,0.115371
1341.8416,0.116072
1343.7053,0.116006
1345.5690,0.116549
1347.4326,0.117500
1349.2963,0.118901
1351.1600,0.120653
1353.0236,0.122818
1354.8873,0.125603
1356.7510,0.128342
1358.6146,0.130774
1360.4783,0.134201
1362.3420,0.139948
1364.2056,0.145038
1366.0693,0.147556
1367.9330,0.151554
1369.7967,0.156537
1371.6603,0.160510
1373.5240,0.166358
1375.3877,0.173173
1377.2513,0.177620
1379.1150,0.183224
1380.9787,0.190392
1382.8423,0.197737
1384.7060,0.205665
1386.5697,0.216006
1388.4333,0.227705
1390.2970,0.233804
1392.1607,0.236578
1394.0244,0.237298
1395.8880,0.231223
1397.7517,0.220142
1399.6154,0.207655
1401.4790,0.195825
1403.3427,0.185193
1405.2064,0.169527
1407.0700,0.148260
1408.9337,0.127418
1410.7974,0.108815
1412.6610,0.095691
1414.5247,0.089483
1416.3884,0.089090
1418.2520,0.094824
1420.1157,0.105145
1421.9794,0.110220
1423.8431,0.108434
1425.7067,0.099001
1427.5704,0.088231
1429.4341,0.081870
1431.2977,0.079734
1433.1614,0.079745
1435.0251,0.081550
1436.8887,0.086148
1438.7524,0.088934
1440.6161,0.089567
1442.4797,0.091206
1444.3434,0.092788
1446.2071,0.094030
1448.0707,0.094814
1449.9344,0.093002
1451.7981,0.089110
1453.6618,0.085322
1455.5254,0.084631
1457.3891,0.089408
1459.2528,0.091135
1461.1164,0.089275
1462.9801,0.089036
1464.8438,0.090126
1466.7074,0.089360
1468.5711,0.086696
1470.4348,0.085396
1472.2984,0.086773
1474.1621,0.088179
1476.0258,0.087511
1477.8895,0.087125
1479.7531,0.086929
1481.6168,0.087672
1483.4805,0.088184
1485.3441,0.088413
1487.2078,0.089965
1489.0715,0.093362
1490.9351,0.096247
1492.7988,0.095821
1494.6625,0.095706
1496.5261,0.099156
1498.3898,0.102644
1500.2535,0.103161
1502.1171,0.102374
1503.9808,0.102068
1505.8445,0.106225
1507.7082,0.116537
1509.5718,0.115846
1511.4355,0.114385
1513.2992,0.115055
1515.1628,0.116519
1517.0265,0.118960
1518.8902,0.120325
1520.7538,0.122632
1522.6175,0.126635
1524.4812,0.126488
1526.3448,0.127829
1528.2085,0.129165
1530.0722,0.128823
1531.9359,0.129946
1533.7995,0.133568
1535.6632,0.133670
1537.5269,0.132617
1539.3905,0.137752
1541.2542,0.146712
1543.1179,0.147429
1544.9815,0.148623
1546.8452,0.149564
1548.7089,0.150871
1550.5725,0.153881
1552.4362,0.155704
1554.2999,0.157179
1556.1635,0.159560
1558.0272,0.166127
1559.8909,0.181198
1561.7546,0.177160
1563.6182,0.174840
1565.4819,0.177196
1567.3456,0.180180
1569.2092,0.185016
1571.0729,0.190033
1572.9366,0.190552
1574.8002,0.194347
1576.6639,0.203022
1578.5276,0.206232
1580.3912,0.206565
1582.2549,0.209378
1584.1186,0.211992
1585.9822,0.213894
1587.8459,0.214881
1589.7096,0.215172
1591.5733,0.214570
1593.4369,0.213431
1595.3006,0.211526
1597.1643,0.208799
1599.0279,0.205639
1600.8916,0.202589
1602.7553,0.199793
1604.6189,0.196983
1606.4826,0.194535
1608.3463,0.192828
1610.2099,0.190673
1612.0736,0.187381
1613.9373,0.183353
1615.8010,0.178878
1617.6646,0.171214
1619.5283,0.162314
1621.3920,0.155701
1623.2556,0.148356
1625.1193,0.139281
1626.9830,0.130215
1628.8466,0.119877
1630.7103,0.109616
1632.5740,0.101322
1634.4376,0.093696
1636.3013,0.085467
1638.1650,0.079686
1640.0286,0.077748
1641.8923,0.076609
1643.7560,0.076886
1645.6197,0.078738
1647.4833,0.082135
1649.3470,0.083727
1651.2107,0.085497
1653.0743,0.091689
1654.9380,0.096780
1656.8017,0.095182
1658.6653,0.095203
1660.5290,0.095425
1662.3927,0.095067
1664.2563,0.092975
1666.1200,0.090449
1667.9837,0.088647
1669.8474,0.087057
1671.7110,0.085420
1673.5747,0.085434
1675.4384,0.087496
1677.3020,0.090247
1679.1657,0.092366
1681.0294,0.096108
1682.8930,0.100575
1684.7567,0.106852
1686.6204,0.108197
1688.4840,0.106580
1690.3477,0.104417
1692.2114,0.100691
1694.0750,0.096861
1695.9387,0.092978
1697.8024,0.087893
1699.6661,0.084114
1701.5297,0.075838
1703.3934,0.068371
1705.2571,0.060512
1707.1207,0.050351
1708.9844,0.043219
1710.8481,0.038260
1712.7117,0.034161
1714.5754,0.031468
1716.4391,0.029469
1718.3027,0.028307
1720.1664,0.026620
1722.0301,0.025426
1723.8937,0.023856
1725.7574,0.021811
1727.6211,0.019589
1729.4848,0.017777
1731.3484,0.016215
1733.2121,0.015189
1735.0758,0.013827
1736.9394,0.013294
1738.8031,0.013113
1740.6668,0.012840
1742.5304,0.012366
1744.3941,0.012274
1746.2578,0.011905
1748.1214,0.011497
1749.9851,0.011057
1751.8488,0.010774
1753.7125,0.010472
1755.5761,0.010508
1757.4398,0.010414
1759.3035,0.010407
1761.1671,0.010267
1763.0308,0.010217
1764.8945,0.010159
1766.7581,0.010327
1768.6218,0.010123
1770.4855,0.009937
1772.3491,0.009984
1774.2128,0.010039
1776.0765,0.009876
1777.9401,0.010051
1779.8038,0.010155
1781.6675,0.010201
1783.5312,0.010070
1785.3948,0.010151
1787.2585,0.010157
1789.1222,0.010292
1790.9858,0.010385
1792.8495,0.010517
1794.7132,0.010159
1796.5768,0.010071
1798.4405,0.010230
1800.3042,0.010559
1802.1678,0.010565
1804.0315,0.010443
1805.8952,0.010357
1807.7589,0.010723
1809.6225,0.010909
1811.4862,0.010970
1813.3499,0.010773
1815.2135,0.010568
1817.0772,0.010334
1818.9409,0.010460
1820.8045,0.010586
1822.6682,0.010660
1824.5319,0.010507
1826.3955,0.010632
1828.2592,0.010569
1830.1229,0.010285
1831.9865,0.010014
1833.8502,0.010252
1835.7139,0.010382
1837.5776,0.010491
1839.4412,0.010520
1841.3049,0.010501
1843.1686,0.010357
1845.0322,0.010493
1846.8959,0.010347
1848.7596,0.010359
1850.6232,0.010425
1852.4869,0.010622
1854.3506,0.010642
1856.2142,0.010357
1858.0779,0.010286
1859.9416,0.010722
1861.8052,0.010797
1863.6689,0.010829
1865.5326,0.010715
1867.3963,0.010702
1869.2599,0.010839
1871.1236,0.010759
1872.9873,0.010524
1874.8509,0.010647
1876.7146,0.010330
1878.5783,0.010439
1880.4419,0.010715
1882.3056,0.010975
1884.1693,0.010987
1886.0329,0.010933
1887.8966,0.010634
1889.7603,0.010868
1891.6240,0.010747
1893.4876,0.010502
1895.3513,0.010726
1897.2150,0.010829
1899.0786,0.010910
1900.9423,0.011133
1902.8060,0.011077
1904.6696,0.011062
1906.5333,0.010780
1908.3970,0.010995
1910.2606,0.011000
1912.1243,0.010773
1913.9880,0.010682
1915.8516,0.010979
1917.7153,0.010878
1919.5790,0.010663
1921.4427,0.010594
1923.3063,0.010685
1925.1700,0.010446
1927.0337,0.010731
1928.8973,0.010613
1930.7610,0.010575
1932.6247,0.010780
1934.4883,0.011079
1936.3520,0.010740
1938.2157,0.010590
1940.0793,0.010242
1941.9430,0.010149
1943.8067,0.009657
1945.6704,0.009193
1947.5340,0.008562
1949.3977,0.008899
1951.2614,0.009348
1953.1250,0.009398
1954.9887,0.008817
1956.8524,0.008320
1958.7160,0.007423
1960.5797,0.007705
1962.4434,0.007598
1964.3070,0.006392
1966.1707,0.004590
1968.0344,0.004508
1969.8980,0.003644
1971.7617,0.003283
1973.6254,0.002928
1975.4891,0.003904
1977.3527,0.004838
1979.2164,0.005435
1981.0801,0.005802
1982.9437,0.006858
1984.8074,0.006607
1986.6711,0.007038
1988.5347,0.006440
1990.3984,0.006830
1992.2621,0.006959
1994.1257,0.007203
1995.9894,0.007903
1997.8531,0.008845
1999.7167,0.008491
2001.5804,0.007691
2003.4441,0.006817
2005.3078,0.007520
2007.1714,0.006230
2009.0351,0.005025
2010.8988,0.005551
2012.7624,0.007354
2014.6261,0.008226
2016.4898,0.008331
2018.3534,0.006856
2020.2171,0.005860
2022.0808,0.005541
2023.9444,0.005575
2025.8081,0.004935
2027.6718,0.004084
2029.5355,0.003749
2031.3991,0.005750
2033.2628,0.006528
2035.1265,0.006080
2036.9901,0.006581
2038.8538,0.008275
2040.7175,0.008180
2042.5811,0.008255
2044.4448,0.007626
2046.3085,0.007526
2048.1721,0.007823
2050.0358,0.008566
2051.8995,0.009904
2053.7631,0.010600
2055.6268,0.010539
2057.4905,0.011178
2059.3542,0.011289
2061.2178,0.011786
2063.0815,0.012069
2064.9452,0.011797
2066.8088,0.011770
2068.6725,0.012310
2070.5362,0.012587
2072.3998,0.013251
2074.2635,0.013045
2076.1272,0.012832
2077.9908,0.013054
2079.8545,0.013418
2081.7182,0.013320
2083.5819,0.013805
2085.4455,0.014161
2087.3092,0.014321
2089.1729,0.014313
2091.0365,0.014501
2092.9002,0.014361
2094.7639,0.014388
2096.6275,0.014542
2098.4912,0.013978
2100.3549,0.013268
2102.2185,0.013777
2104.0822,0.014066
2105.9459,0.014240
2107.8095,0.014125
2109.6732,0.014264
2111.5369,0.014737
2113.4006,0.014978
2115.2642,0.015409
2117.1279,0.015541
2118.9916,0.015135
2120.8552,0.014767
2122.7189,0.014615
2124.5826,0.015059
2126.4462,0.014559
2128.3099,0.013830
2130.1736,0.013694
2132.0372,0.013516
2133.9009,0.012485
2135.7646,0.013102
2137.6282,0.013678
2139.4919,0.013316
2141.3556,0.011983
2143.2193,0.011002
2145.0829,0.010447
2146.9466,0.009919
2148.8103,0.009718
2150.6739,0.010551
2152.5376,0.010393
2154.4013,0.008833
2156.2649,0.005785
2158.1286,0.005306
2159.9923,0.005575
2161.8559,0.006640
2163.7196,0.008186
2165.5833,0.008946
2167.4470,0.009680
2169.3106,0.010193
2171.1743,0.008437
2173.0380,0.007976
2174.9016,0.008204
2176.7653,0.009363
2178.6290,0.009516
2180.4926,0.010237
2182.3563,0.011461
2184.2200,0.011345
2186.0836,0.010291
2187.9473,0.010955
2189.8110,0.011253
2191.6746,0.011754
2193.5383,0.012645
2195.4020,0.012570
2197.2657,0.012285
2199.1293,0.012739
2200.9930,0.012307
2202.8567,0.012307
2204.7203,0.012968
2206.5840,0.014000
2208.4477,0.014443
2210.3113,0.015114
2212.1750,0.015180
2214.0387,0.015162
2215.9023,0.014555
2217.7660,0.014149
2219.6297,0.014383
2221.4934,0.015602
2223.3570,0.015820
2225.2207,0.015601
2227.0844,0.015503
2228.9480,0.015823
2230.8117,0.016449
2232.6754,0.016915
2234.5390,0.017344
2236.4027,0.017255
2238.2664,0.016363
2240.1300,0.016285
2241.9937,0.016451
2243.8574,0.016731
2245.7210,0.016691
2247.5847,0.017344
2249.4484,0.017475
2251.3121,0.017283
2253.1757,0.017432
2255.0394,0.018142
2256.9031,0.018822
2258.7667,0.018762
2260.6304,0.018351
2262.4941,0.018708
2264.3577,0.019226
2266.2214,0.019055
2268.0851,0.019058
2269.9487,0.019470
2271.8124,0.020247
2273.6761,0.020675
2275.5397,0.020693
2277.4034,0.021466
2279.2671,0.022037
2281.1308,0.021946
2282.9944,0.021898
2284.8581,0.022311
2286.7218,0.022908
2288.5854,0.022802
2290.4491,0.022287
2292.3128,0.022376
2294.1764,0.022544
2296.0401,0.022739
2297.9038,0.022747
2299.7674,0.022661
2301.6311,0.022671
2303.4948,0.022720
2305.3585,0.022815
2307.2221,0.022995
2309.0858,0.023403
2310.9495,0.023450
2312.8131,0.023054
2314.6768,0.022905
2316.5405,0.023020
2318.4041,0.022819
2320.2678,0.022725
2322.1315,0.023565
2323.9951,0.023660
2325.8588,0.022630
2327.7225,0.021693
2329.5861,0.021568
2331.4498,0.021645
2333.3135,0.021437
2335.1772,0.021338
2337.0408,0.021702
2338.9045,0.021773
2340.7682,0.022229
2342.6318,0.022742
2344.4955,0.022510
2346.3592,0.021830
2348.2228,0.021654
2350.0865,0.021534
2351.9502,0.021423
2353.8138,0.021564
2355.6775,0.021767
2357.5412,0.021500
2359.4049,0.020856
2361.2685,0.020421
2363.1322,0.021061
2364.9959,0.021519
2366.8595,0.021772
2368.7232,0.022181
2370.5869,0.022582
2372.4505,0.022773
2374.3142,0.022818
2376.1779,0.022717
2378.0415,0.023051
2379.9052,0.023163
2381.7689,0.023260
2383.6325,0.023183
2385.4962,0.023079
2387.3599,0.023245
2389.2236,0.023212
2391.0872,0.023368
2392.9509,0.023544
2394.8146,0.023184
2396.6782,0.023001
2398.5419,0.023213
2400.4056,0.023233
2402.2692,0.023497
2404.1329,0.023721
2405.9966,0.023693
2407.8602,0.023548
2409.7239,0.023727
2411.5876,0.024075
2413.4512,0.023940
2415.3149,0.023765
2417.1786,0.023820
2419.0423,0.024251
2420.9059,0.024254
2422.7696,0.024339
2424.6333,0.024578
2426.4969,0.024562
2428.3606,0.024408
2430.2243,0.024374
2432.0879,0.024431
2433.9516,0.024676
2435.8153,0.024745
2437.6789,0.024692
2439.5426,0.024630
2441.4063,0.024575
2443.2700,0.024471
2445.1336,0.024295
2446.9973,0.024048
2448.8610,0.024321
2450.7246,0.024925
2452.5883,0.024936
2454.4520,0.024247
2456.3156,0.024136
2458.1793,0.024314
2460.0430,0.024479
2461.9066,0.024577
2463.7703,0.024574
2465.6340,0.024256
2467.4976,0.024015
2469.3613,0.024124
2471.2250,0.024039
2473.0887,0.024073
2474.9523,0.024335
2476.8160,0.024133
2478.6797,0.024337
2480.5433,0.024582
2482.4070,0.024479
2484.2707,0.024588
2486.1343,0.024736
2487.9980,0.024574
2489.8617,0.024674
2491.7253,0.024941
2493.5890,0.025360
2495.4527,0.025502
2497.3164,0.025721
2499.1800,0.025969
2501.0437,0.025813
2502.9074,0.025865
2504.7710,0.025950
2506.6347,0.026145
2508.4984,0.026516
2510.3620,0.026236
2512.2257,0.026004
2514.0894,0.026324
2515.9530,0.026590
2517.8167,0.026393
2519.6804,0.026582
2521.5440,0.026663
2523.4077,0.026781
2525.2714,0.027040
2527.1351,0.026882
2528.9987,0.026629
2530.8624,0.026604
2532.7261,0.026851
2534.5897,0.027179
2536.4534,0.027172
2538.3171,0.027161
2540.1807,0.026909
2542.0444,0.026883
2543.9081,0.026640
2545.7717,0.026854
2547.6354,0.027356
2549.4991,0.027330
2551.3627,0.027210
2553.2264,0.027181
2555.0901,0.027123
2556.9538,0.027419
2558.8174,0.027917
2560.6811,0.027723
2562.5448,0.027478
2564.4084,0.027835
2566.2721,0.027959
2568.1358,0.028279
2569.9994,0.028700
2571.8631,0.028650
2573.7268,0.028366
2575.5904,0.028652
2577.4541,0.029073
2579.3178,0.029313
2581.1815,0.029488
2583.0451,0.029589
2584.9088,0.029731
2586.7725,0.030013
2588.6361,0.030063
2590.4998,0.030293
2592.3635,0.030647
2594.2271,0.030590
2596.0908,0.030575
2597.9545,0.030931
2599.8181,0.031009
2601.6818,0.031076
2603.5455,0.031149
2605.4091,0.031083
2607.2728,0.031102
2609.1365,0.031438
2611.0002,0.031734
2612.8638,0.031903
2614.7275,0.032096
2616.5912,0.032261
2618.4548,0.032273
2620.3185,0.032364
2622.1822,0.032605
2624.0458,0.032868
2625.9095,0.033328
2627.7732,0.033870
2629.6368,0.034017
2631.5005,0.034151
2633.3642,0.034402
2635.2279,0.034636
2637.0915,0.034870
2638.9552,0.035014
2640.8189,0.035261
2642.6825,0.035456
2644.5462,0.035508
2646.4099,0.035688
2648.2735,0.035808
2650.1372,0.036015
2652.0009,0.036516
2653.8645,0.036664
2655.7282,0.036723
2657.5919,0.036857
2659.4555,0.036900
2661.3192,0.037012
2663.1829,0.037201
2665.0466,0.037205
2666.9102,0.037191
2668.7739,0.037180
2670.6376,0.037308
2672.5012,0.037412
2674.3649,0.037649
2676.2286,0.038059
2678.0922,0.038348
2679.9559,0.038570
2681.8196,0.038803
2683.6832,0.039066
2685.5469,0.039234
2687.4106,0.039257
2689.2742,0.039298
2691.1379,0.039558
2693.0016,0.039906
2694.8653,0.040320
2696.7289,0.040557
2698.5926,0.040725
2700.4563,0.041113
2702.3199,0.041465
2704.1836,0.041841
2706.0473,0.042261
2707.9109,0.042654
2709.7746,0.042894
2711.6383,0.043210
2713.5019,0.043570
2715.3656,0.044207
2717.2293,0.044529
2719.0930,0.044588
2720.9566,0.044867
2722.8203,0.045331
2724.6840,0.045696
2726.5476,0.046080
2728.4113,0.046766
2730.2750,0.047335
2732.1386,0.047619
2734.0023,0.047943
2735.8660,0.048398
2737.7296,0.048958
2739.5933,0.049651
2741.4570,0.050303
2743.3206,0.050725
2745.1843,0.051164
2747.0480,0.051719
2748.9117,0.052651
2750.7753,0.053461
2752.6390,0.053890
2754.5027,0.054181
2756.3663,0.054713
2758.2300,0.055336
2760.0937,0.055903
2761.9573,0.056450
2763.8210,0.057191
2765.6847,0.057878
2767.5483,0.058435
2769.4120,0.059147
2771.2757,0.059857
2773.1394,0.060592
2775.0030,0.061468
2776.8667,0.062244
2778.7304,0.062600
2780.5940,0.062732
2782.4577,0.063188
2784.3214,0.063426
2786.1850,0.063262
2788.0487,0.062967
2789.9124,0.062731
2791.7760,0.062230
2793.6397,0.061348
2795.5034,0.060586
2797.3670,0.060133
2799.2307,0.059862
2801.0944,0.059425
2802.9581,0.058693
2804.8217,0.058190
2806.6854,0.057705
2808.5491,0.057194
2810.4127,0.057033
2812.2764,0.057297
2814.1401,0.057263
2816.0037,0.057193
2817.8674,0.057278
2819.7311,0.057505
2821.5947,0.057586
2823.4584,0.057722
2825.3221,0.057806
2827.1857,0.057487
2829.0494,0.056933
2830.9131,0.056697
2832.7768,0.056379
2834.6404,0.056140
2836.5041,0.056411
2838.3678,0.056788
2840.2314,0.057151
2842.0951,0.057505
2843.9588,0.057750
2845.8224,0.058080
2847.6861,0.058636
2849.5498,0.059259
2851.4134,0.059914
2853.2771,0.060904
2855.1408,0.061673
2857.0045,0.062250
2858.8681,0.062798
2860.7318,0.063648
2862.5955,0.064294
2864.4591,0.064608
2866.3228,0.064682
2868.1865,0.064907
2870.0501,0.065321
2871.9138,0.065667
2873.7775,0.066104
2875.6411,0.066716
2877.5048,0.066933
2879.3685,0.067338
2881.2321,0.068095
2883.0958,0.068916
2884.9595,0.069350
2886.8232,0.069482
2888.6868,0.069832
2890.5505,0.070437
2892.4142,0.070866
2894.2778,0.071496
2896.1415,0.072350
2898.0052,0.072954
2899.8688,0.072892
2901.7325,0.072779
2903.5962,0.072906
2905.4598,0.073103
2907.3235,0.073018
2909.1872,0.073344
2911.0509,0.074184
2912.9145,0.074946
2914.7782,0.075489
2916.6419,0.076186
2918.5055,0.077039
2920.3692,0.077929
2922.2329,0.078645
2924.0965,0.079208
2925.9602,0.079746
2927.8239,0.080466
2929.6875,0.081129
2931.5512,0.081992
2933.4149,0.082859
2935.2785,0.083367
2937.1422,0.083770
2939.0059,0.084447
2940.8696,0.084712
2942.7332,0.084862
2944.5969,0.085190
2946.4606,0.085533
2948.3242,0.085778
2950.1879,0.086241
2952.0516,0.086789
2953.9152,0.087162
2955.7789,0.087391
2957.6426,0.087737
2959.5062,0.088179
2961.3699,0.089182
2963.2336,0.090240
2965.0972,0.091019
2966.9609,0.091712
2968.8246,0.092657
2970.6883,0.093642
2972.5519,0.094777
2974.4156,0.095410
2976.2793,0.095677
2978.1429,0.096479
2980.0066,0.097206
2981.8703,0.097343
2983.7339,0.097778
2985.5976,0.097987
2987.4613,0.098168
2989.3249,0.098684
2991.1886,0.099557
2993.0523,0.100490
2994.9160,0.101619
2996.7796,0.102591
2998.6433,0.103419
3000.5070,0.104049
3002.3706,0.104510
3004.2343,0.105221
3006.0980,0.106345
3007.9616,0.107293
3009.8253,0.108145
3011.6890,0.108662
3013.5526,0.109690
3015.4163,0.110549
3017.2800,0.111108
3019.1436,0.111567
3021.0073,0.112248
3022.8710,0.113036
3024.7347,0.113449
3026.5983,0.113501
3028.4620,0.113669
3030.3257,0.114205
3032.1893,0.114939
3034.0530,0.115310
3035.9167,0.115788
3037.7803,0.115847
3039.6440,0.116082
3041.5077,0.116693
3043.3713,0.117251
3045.2350,0.117785
3047.0987,0.118415
3048.9624,0.118695
3050.8260,0.118908
3052.6897,0.118983
3054.5534,0.119015
3056.4170,0.119161
3058.2807,0.119809
3060.1444,0.120090
3062.0080,0.120110
3063.8717,0.120158
3065.7354,0.120230
3067.5990,0.119935
3069.4627,0.119919
3071.3264,0.119910
3073.1900,0.119961
3075.0537,0.119787
3076.9174,0.119573
3078.7811,0.119459
3080.6447,0.119445
3082.5084,0.119088
3084.3721,0.118375
3086.2357,0.117750
3088.0994,0.117343
3089.9631,0.116519
3091.8267,0.115703
3093.6904,0.114867
3095.5541,0.114323
3097.4177,0.113109
3099.2814,0.111767
3101.1451,0.111061
3103.0087,0.110718
3104.8724,0.109623
3106.7361,0.108129
3108.5998,0.106907
3110.4634,0.106087
3112.3271,0.104767
3114.1908,0.103723
3116.0544,0.103403
3117.9181,0.102709
3119.7818,0.101640
3121.6454,0.100941
3123.5091,0.100241
3125.3728,0.098937
3127.2364,0.097568
3129.1001,0.096377
3130.9638,0.095408
3132.8275,0.095363
3134.6911,0.094821
3136.5548,0.093924
3138.4185,0.093435
3140.2821,0.093673
3142.1458,0.093335
3144.0095,0.092212
3145.8731,0.091267
3147.7368,0.090815
3149.6005,0.090498
3151.4641,0.090256
3153.3278,0.090078
3155.1915,0.090065
3157.0551,0.089411
3158.9188,0.088315
3160.7825,0.087469
3162.6462,0.087208
3164.5098,0.086839
3166.3735,0.085864
3168.2372,0.084852
3170.1008,0.084264
3171.9645,0.083902
3173.8282,0.083641
3175.6918,0.083549
3177.5555,0.083538
3179.4192,0.083120
3181.2828,0.082623
3183.1465,0.082387
3185.0102,0.082545
3186.8739,0.082689
3188.7375,0.082392
3190.6012,0.081975
3192.4649,0.081833
3194.3285,0.081519
3196.1922,0.081220
3198.0559,0.081130
3199.9195,0.081572
3201.7832,0.082102
3203.6469,0.082149
3205.5105,0.082132
3207.3742,0.081997
3209.2379,0.082233
3211.1015,0.082605
3212.9652,0.082212
3214.8289,0.082637
3216.6926,0.083197
3218.5562,0.083183
3220.4199,0.083094
3222.2836,0.083261
3224.1472,0.083215
3226.0109,0.083308
3227.8746,0.083529
3229.7382,0.083562
3231.6019,0.083457
3233.4656,0.084002
3235.3292,0.084615
3237.1929,0.084961
3239.0566,0.085462
3240.9202,0.085691
3242.7839,0.085857
3244.6476,0.086365
3246.5113,0.086888
3248.3749,0.087362
3250.2386,0.087511
3252.1023,0.087018
3253.9659,0.087246
3255.8296,0.088302
3257.6933,0.089188
3259.5569,0.089669
3261.4206,0.089590
3263.2843,0.089296
3265.1479,0.089307
3267.0116,0.090009
3268.8753,0.090633
3270.7390,0.090754
3272.6026,0.090497
3274.4663,0.090705
3276.3300,0.090573
3278.1936,0.089930
3280.0573,0.088995
3281.9210,0.088196
3283.7846,0.087618
3285.6483,0.087544
3287.5120,0.087324
3289.3756,0.086619
3291.2393,0.086136
3293.1030,0.085305
3294.9666,0.083907
3296.8303,0.083064
3298.6940,0.082005
3300.5577,0.080859
3302.4213,0.080618
3304.2850,0.080291
3306.1487,0.079084
3308.0123,0.077997
3309.8760,0.077711
3311.7397,0.077314
3313.6033,0.076866
3315.4670,0.077281
3317.3307,0.076917
3319.1943,0.075997
3321.0580,0.076023
3322.9217,0.076953
3324.7854,0.077891
3326.6490,0.078352
3328.5127,0.077898
3330.3764,0.077792
3332.2400,0.077686
3334.1037,0.077667
3335.9674,0.077393
3337.8310,0.076265
3339.6947,0.075364
3341.5584,0.074641
3343.4220,0.073181
3345.2857,0.072045
3347.1494,0.070953
3349.0130,0.069046
3350.8767,0.067328
3352.7404,0.066472
3354.6041,0.065221
3356.4677,0.063235
3358.3314,0.062198
3360.1951,0.062071
3362.0587,0.061061
3363.9224,0.060089
3365.7861,0.060071
3367.6497,0.059911
3369.5134,0.059432
3371.3771,0.059351
3373.2407,0.058846
3375.1044,0.058493
3376.9681,0.058448
3378.8317,0.058646
3380.6954,0.059100
3382.5591,0.059605
3384.4228,0.060002
3386.2864,0.060296
3388.1501,0.060816
3390.0138,0.061154
3391.8774,0.062130
3393.7411,0.063135
3395.6048,0.062496
3397.4684,0.061802
3399.3321,0.062479
3401.1958,0.063137
3403.0594,0.062393
3404.9231,0.061119
3406.7868,0.059111
3408.6505,0.057521
3410.5141,0.056127
3412.3778,0.054182
3414.2415,0.052434
3416.1051,0.050979
3417.9688,0.048684
3419.8325,0.047023
3421.6961,0.045930
3423.5598,0.044459
3425.4235,0.043013
3427.2871,0.041553
3429.1508,0.040191
3431.0145,0.039102
3432.8781,0.037740
3434.7418,0.036274
3436.6055,0.035750
3438.4692,0.035162
3440.3328,0.034246
3442.1965,0.033507
3444.0602,0.032246
3445.9238,0.030728
3447.7875,0.030657
3449.6512,0.030884
3451.5148,0.030503
3453.3785,0.029960
3455.2422,0.029227
3457.1058,0.027968
3458.9695,0.026765
3460.8332,0.027015
3462.6969,0.027871
3464.5605,0.027461
3466.4242,0.026451
3468.2879,0.025326
3470.1515,0.024439
3472.0152,0.024565
3473.8789,0.024428
3475.7425,0.024351
3477.6062,0.024391
3479.4699,0.022933
3481.3335,0.021898
3483.1972,0.021811
3485.0609,0.021147
3486.9245,0.020156
3488.7882,0.019126
3490.6519,0.019177
3492.5156,0.020164
3494.3792,0.020063
3496.2429,0.019529
3498.1066,0.019158
3499.9702,0.018399
3501.8339,0.017423
3503.6976,0.016768
3505.5612,0.017581
3507.4249,0.017901
3509.2886,0.016389
3511.1522,0.015435
3513.0159,0.015170
3514.8796,0.014204
3516.7432,0.013807
3518.6069,0.014713
3520.4706,0.014881
3522.3343,0.014317
3524.1979,0.013744
3526.0616,0.012974
3527.9253,0.012680
3529.7889,0.012365
3531.6526,0.011707
3533.5163,0.012017
3535.3799,0.012573
3537.2436,0.011715
3539.1073,0.010801
3540.9709,0.010931
3542.8346,0.011355
3544.6983,0.011807
3546.5620,0.011424
3548.4256,0.010093
3550.2893,0.009235
3552.1530,0.009353
3554.0166,0.010401
3555.8803,0.010913
3557.7440,0.010754
3559.6076,0.010181
3561.4713,0.009351
3563.3350,0.009103
3565.1986,0.008846
3567.0623,0.007771
3568.9260,0.006606
3570.7896,0.007349
3572.6533,0.009002
3574.5170,0.009628
3576.3807,0.009643
3578.2443,0.010031
3580.1080,0.009853
3581.9717,0.008826
3583.8353,0.008203
3585.6990,0.007972
3587.5627,0.007939
3589.4263,0.008313
3591.2900,0.008603
3593.1537,0.008599
3595.0173,0.008005
3596.8810,0.007416
3598.7447,0.007512
3600.6084,0.007431
3602.4720,0.007367
3604.3357,0.008008
3606.1994,0.008743
3608.0630,0.008597
3609.9267,0.007595
3611.7904,0.007004
3613.6540,0.006744
3615.5177,0.006725
3617.3814,0.007414
3619.2450,0.007446
3621.1087,0.007217
3622.9724,0.007645
3624.8360,0.007597
3626.6997,0.007540
3628.5634,0.007188
3630.4271,0.006633
3632.2907,0.007230
3634.1544,0.007659
3636.0181,0.007902
3637.8817,0.008319
3639.7454,0.008529
3641.6091,0.008274
3643.4727,0.007857
3645.3364,0.007647
3647.2001,0.007544
3649.0637,0.006982
3650.9274,0.006019
3652.7911,0.006291
3654.6547,0.007567
3656.5184,0.008386
3658.3821,0.008358
3660.2458,0.008426
3662.1094,0.008582
3663.9731,0.008159
3665.8368,0.008072
3667.7004,0.008533
3669.5641,0.008269
3671.4278,0.007787
3673.2914,0.008002
3675.1551,0.008317
3677.0188,0.008245
3678.8824,0.007933
3680.7461,0.008282
3682.6098,0.008422
3684.4735,0.008407
3686.3371,0.008589
3688.2008,0.008571
3690.0645,0.008250
3691.9281,0.007995
3693.7918,0.008782
3695.6555,0.009691
3697.5191,0.009472
3699.3828,0.008912
3701.2465,0.008920
3703.1101,0.008680
3704.9738,0.007922
3706.8375,0.007751
3708.7011,0.007486
3710.5648,0.006899
3712.4285,0.007370
3714.2922,0.008365
3716.1558,0.008488
3718.0195,0.008273
3719.8832,0.008094
3721.7468,0.008301
3723.6105,0.008809
3725.4742,0.008501
3727.3378,0.008045
3729.2015,0.008264
3731.0652,0.008095
3732.9288,0.007593
3734.7925,0.007106
3736.6562,0.006919
3738.5199,0.007004
3740.3835,0.007288
3742.2472,0.008087
3744.1109,0.007992
3745.9745,0.006512
3747.8382,0.006702
3749.7019,0.007568
3751.5655,0.007619
3753.4292,0.008098
3755.2929,0.008720
3757.1565,0.008920
3759.0202,0.009029
3760.8839,0.008827
3762.7475,0.008794
3764.6112,0.009552
3766.4749,0.009964
3768.3386,0.009394
3770.2022,0.009337
3772.0659,0.009390
3773.9296,0.009182
3775.7932,0.009682
3777.6569,0.010110
3779.5206,0.010326
3781.3842,0.010156
3783.2479,0.009432
3785.1116,0.009033
3786.9752,0.009246
3788.8389,0.009827
3790.7026,0.010213
3792.5662,0.009898
3794.4299,0.009774
3796.2936,0.010042
3798.1573,0.009968
3800.0209,0.009387
3801.8846,0.009086
3803.7483,0.009747
3805.6119,0.010201
3807.4756,0.010131
3809.3393,0.009955
3811.2029,0.009907
3813.0666,0.009835
3814.9303,0.009381
3816.7939,0.008996
3818.6576,0.009303
3820.5213,0.009644
3822.3850,0.009880
3824.2486,0.010182
3826.1123,0.009953
3827.9760,0.009559
3829.8396,0.009833
3831.7033,0.010172
3833.5670,0.010024
3835.4306,0.009510
3837.2943,0.009336
3839.1580,0.010021
3841.0216,0.010475
3842.8853,0.009780
3844.7490,0.009503
3846.6126,0.009867
3848.4763,0.009813
3850.3400,0.009867
3852.2037,0.009982
3854.0673,0.009211
3855.9310,0.008377
3857.7947,0.009071
3859.6583,0.009983
3861.5220,0.010390
3863.3857,0.010410
3865.2493,0.010218
3867.1130,0.009828
3868.9767,0.009748
3870.8403,0.010033
3872.7040,0.010200
3874.5677,0.010408
3876.4314,0.010458
3878.2950,0.010443
3880.1587,0.010413
3882.0224,0.010428
3883.8860,0.011074
3885.7497,0.011434
3887.6134,0.011561
3889.4770,0.011650
3891.3407,0.011488
3893.2044,0.011158
3895.0680,0.011045
3896.9317,0.010633
3898.7954,0.009980
3900.6590,0.010084
3902.5227,0.010521
3904.3864,0.010587
3906.2501,0.010919
3908.1137,0.011043
3909.9774,0.010906
3911.8411,0.011073
3913.7047,0.011437
3915.5684,0.011343
3917.4321,0.011300
3919.2957,0.011715
3921.1594,0.011726
3923.0231,0.011391
3924.8867,0.011221
3926.7504,0.011265
3928.6141,0.011203
3930.4777,0.011337
3932.3414,0.011327
3934.2051,0.011491
3936.0688,0.011903
3937.9324,0.011559
3939.7961,0.011451
3941.6598,0.011690
3943.5234,0.011637
3945.3871,0.011588
3947.2508,0.011847
3949.1144,0.012279
3950.9781,0.012247
3952.8418,0.011875
3954.7054,0.011593
3956.5691,0.011615
3958.4328,0.011913
3960.2965,0.011745
3962.1601,0.011750
3964.0238,0.012341
3965.8875,0.012355
3967.7511,0.012095
3969.6148,0.012142
3971.4785,0.012442
3973.3421,0.012457
3975.2058,0.012174
3977.0695,0.012110
3978.9331,0.012193
3980.7968,0.012519
3982.6605,0.012457
3984.5241,0.012086
3986.3878,0.012000
3988.2515,0.012133
3990.1152,0.012320
3991.9788,0.012149
3993.8425,0.012123
3995.7062,0.012629
3997.5698,0.012762
3999.4335,0.012748
