Wavenumber,Intensity
650.4205,0.222515
652.2841,0.216818
654.1478,0.212801
656.0115,0.209113
657.8751,0.205779
659.7388,0.202256
661.6025,0.201810
663.4661,0.201175
665.3298,0.199887
667.1935,0.198287
669.0571,0.198111
670.9208,0.196523
672.7845,0.194866
674.6481,0.193113
676.5118,0.193627
678.3755,0.193076
680.2392,0.192905
682.1028,0.193176
683.9665,0.192107
685.8302,0.190578
687.6938,0.190210
689.5575,0.190771
691.4212,0.191857
693.2848,0.190951
695.1485,0.190421
697.0122,0.190188
698.8758,0.191672
700.7395,0.192299
702.6032,0.190915
704.4669,0.188186
706.3305,0.182930
708.1942,0.174841
710.0579,0.167247
711.9215,0.159955
713.7852,0.152277
715.6489,0.144655
717.5125,0.138186
719.3762,0.132696
721.2399,0.127706
723.1035,0.123155
724.9672,0.118673
726.8309,0.113958
728.6945,0.109889
730.5582,0.105502
732.4219,0.101499
734.2856,0.098440
736.1492,0.095612
738.0129,0.094033
739.8766,0.094704
741.7402,0.096644
743.6039,0.098510
745.4676,0.099530
747.3312,0.099638
749.1949,0.098729
751.0586,0.097826
752.9222,0.096929
754.7859,0.095479
756.6496,0.094081
758.5132,0.093339
760.3769,0.092591
762.2406,0.092442
764.1043,0.092185
765.9679,0.091277
767.8316,0.091087
769.6953,0.091136
771.5589,0.090958
773.4226,0.091400
775.2863,0.092501
777.1499,0.093246
779.0136,0.093781
780.8773,0.095120
782.7409,0.096247
784.6046,0.097308
786.4683,0.099202
788.3320,0.100821
790.1956,0.102268
792.0593,0.104375
793.9230,0.106536
795.7866,0.108462
797.6503,0.110067
799.5140,0.111571
801.3776,0.112669
803.2413,0.112970
805.1050,0.112637
806.9686,0.111290
808.8323,0.109069
810.6960,0.106743
812.5596,0.103724
814.4233,0.100331
816.2870,0.097213
818.1507,0.094148
820.0143,0.091324
821.8780,0.089308
823.7417,0.088332
825.6053,0.088846
827.4690,0.090452
829.3327,0.091098
831.1963,0.085796
833.0600,0.074141
834.9237,0.064102
836.7873,0.059292
838.6510,0.057402
840.5147,0.056802
842.3784,0.056485
844.2420,0.056144
846.1057,0.056233
847.9694,0.056251
849.8330,0.055756
851.6967,0.055205
853.5604,0.054910
855.4240,0.054788
857.2877,0.054920
859.1514,0.055020
861.0150,0.054831
862.8787,0.054488
864.7424,0.054433
866.6060,0.054721
868.4697,0.055035
870.3334,0.055018
872.1971,0.055140
874.0607,0.055235
875.9244,0.055211
877.7881,0.055545
879.6517,0.056011
881.5154,0.056214
883.3791,0.056233
885.2427,0.056533
887.1064,0.056983
888.9701,0.057496
890.8337,0.058161
892.6974,0.058898
894.5611,0.059893
896.4247,0.060996
898.2884,0.062291
900.1521,0.063814
902.0158,0.065924
903.8794,0.068921
905.7431,0.072766
907.6068,0.077449
909.4704,0.082888
911.3341,0.089311
913.1978,0.096601
915.0614,0.100034
916.9251,0.092153
918.7888,0.076610
920.6524,0.064302
922.5161,0.058674
924.3798,0.056989
926.2435,0.056649
928.1071,0.056963
929.9708,0.057570
931.8345,0.058210
933.6981,0.058984
935.5618,0.059789
937.4255,0.060493
939.2891,0.061184
941.1528,0.061921
943.0165,0.062719
944.8801,0.063515
946.7438,0.064249
948.6075,0.065112
950.4711,0.066113
952.3348,0.067076
954.1985,0.068192
956.0622,0.069465
957.9258,0.070637
959.7895,0.071807
961.6532,0.073111
963.5168,0.074698
965.3805,0.076627
967.2442,0.078939
969.1078,0.081719
970.9715,0.084529
972.8352,0.087709
974.6988,0.093127
976.5625,0.102736
978.4262,0.118911
980.2899,0.141362
982.1535,0.150474
984.0172,0.125298
985.8809,0.091463
987.7445,0.075798
989.6082,0.073200
991.4719,0.073821
993.3355,0.075186
995.1992,0.076691
997.0629,0.078179
998.9265,0.079732
1000.7902,0.081236
1002.6539,0.082740
1004.5175,0.084430
1006.3812,0.086276
1008.2449,0.088037
1010.1086,0.089593
1011.9722,0.091022
1013.8359,0.092306
1015.6996,0.093234
1017.5632,0.093797
1019.4269,0.094273
1021.2906,0.094742
1023.1542,0.095049
1025.0179,0.095428
1026.8816,0.096090
1028.7452,0.096941
1030.6089,0.098094
1032.4726,0.099465
1034.3362,0.100985
1036.1999,0.102864
1038.0636,0.105033
1039.9273,0.107577
1041.7909,0.110874
1043.6546,0.114684
1045.5183,0.118517
1047.3819,0.121487
1049.2456,0.121312
1051.1093,0.115887
1052.9729,0.106556
1054.8366,0.097465
1056.7003,0.091590
1058.5639,0.089026
1060.4276,0.088370
1062.2913,0.088628
1064.1550,0.089331
1066.0186,0.090342
1067.8823,0.091797
1069.7460,0.093525
1071.6096,0.095389
1073.4733,0.097413
1075.3370,0.099515
1077.2006,0.101691
1079.0643,0.104001
1080.9280,0.106543
1082.7916,0.109243
1084.6553,0.112093
1086.5190,0.115237
1088.3826,0.118697
1090.2463,0.122627
1092.1100,0.127168
1093.9737,0.132253
1095.8373,0.137851
1097.7010,0.144080
1099.5647,0.150764
1101.4283,0.157274
1103.2920,0.162980
1105.1557,0.166742
1107.0193,0.166830
1108.8830,0.162062
1110.7467,0.152226
1112.6103,0.139152
1114.4740,0.125770
1116.3377,0.113783
1118.2014,0.103920
1120.0650,0.096485
1121.9287,0.091366
1123.7924,0.088013
1125.6560,0.085487
1127.5197,0.083136
1129.3834,0.080843
1131.2470,0.078613
1133.1107,0.076531
1134.9744,0.074903
1136.8380,0.073762
1138.7017,0.073011
1140.5654,0.072641
1142.4290,0.072537
1144.2927,0.072591
1146.1564,0.072712
1148.0201,0.072902
1149.8837,0.073238
1151.7474,0.073745
1153.6111,0.074410
1155.4747,0.075280
1157.3384,0.076307
1159.2021,0.077463
1161.0657,0.078925
1162.9294,0.080888
1164.7931,0.083314
1166.6567,0.086346
1168.5204,0.090090
1170.3841,0.093967
1172.2477,0.096695
1174.1114,0.096420
1175.9751,0.092527
1177.8388,0.087042
1179.7024,0.082471
1181.5661,0.079706
1183.4298,0.078445
1185.2934,0.078112
1187.1571,0.078175
1189.0208,0.078300
1190.8844,0.078282
1192.7481,0.078132
1194.6118,0.078072
1196.4754,0.078188
1198.3391,0.078426
1200.2028,0.078750
1202.0665,0.079068
1203.9301,0.079307
1205.7938,0.079542
1207.6575,0.079835
1209.5211,0.080227
1211.3848,0.080676
1213.2485,0.081096
1215.1121,0.081599
1216.9758,0.082244
1218.8395,0.082884
1220.7031,0.083479
1222.5668,0.084074
1224.4305,0.084647
1226.2941,0.085156
1228.1578,0.085546
1230.0215,0.086025
1231.8852,0.086649
1233.7488,0.087122
1235.6125,0.087525
1237.4762,0.088039
1239.3398,0.088599
1241.2035,0.089156
1243.0672,0.089718
1244.9308,0.090181
1246.7945,0.090606
1248.6582,0.091218
1250.5218,0.091857
1252.3855,0.092415
1254.2492,0.093090
1256.1129,0.093855
1257.9765,0.094612
1259.8402,0.095554
1261.7039,0.096615
1263.5675,0.097577
1265.4312,0.098507
1267.2949,0.099133
1269.1585,0.099212
1271.0222,0.099013
1272.8859,0.098902
1274.7495,0.099172
1276.6132,0.099876
1278.4769,0.100925
1280.3405,0.102245
1282.2042,0.103784
1284.0679,0.105617
1285.9316,0.107755
1287.7952,0.110227
1289.6589,0.113037
1291.5226,0.116344
1293.3862,0.120299
1295.2499,0.124941
1297.1136,0.130573
1298.9772,0.137253
1300.8409,0.145110
1302.7046,0.153455
1304.5682,0.159164
1306.4319,0.157835
1308.2956,0.145853
1310.1592,0.124623
1312.0229,0.102904
1313.8866,0.088554
1315.7503,0.082838
1317.6139,0.082403
1319.4776,0.084243
1321.3413,0.086658
1323.2049,0.089317
1325.0686,0.092247
1326.9323,0.095183
1328.7959,0.098045
1330.6596,0.100746
1332.5233,0.102985
1334.3869,0.104361
1336.2506,0.105360
1338.1143,0.107072
1339.9780,0.109198
1341.8416,0.109833
1343.7053,0.109693
1345.5690,0.110208
1347.4326,0.111214
1349.2963,0.112657
1351.1600,0.114382
1353.0236,0.116372
1354.8873,0.118881
1356.7510,0.121490
1358.6146,0.123822
1360.4783,0.126896
1362.3420,0.131948
1364.2056,0.136566
1366.0693,0.139122
1367.9330,0.142782
1369.7967,0.147058
1371.6603,0.150639
1373.5240,0.155877
1375.3877,0.161697
1377.2513,0.165363
1379.1150,0.170114
1380.9787,0.176351
1382.8423,0.182701
1384.7060,0.189457
1386.5697,0.197962
1388.4333,0.207173
1390.2970,0.211817
1392.1607,0.213739
1394.0244,0.213791
1395.8880,0.207984
1397.7517,0.198416
1399.6154,0.187824
1401.4790,0.177397
1403.3427,0.168179
1405.2064,0.154926
1407.0700,0.136509
1408.9337,0.118105
1410.7974,0.101607
1412.6610,0.089808
1414.5247,0.083907
1416.3884,0.083255
1418.2520,0.088382
1420.1157,0.097719
1421.9794,0.102341
1423.8431,0.100859
1425.7067,0.092578
1427.5704,0.083030
1429.4341,0.077295
1431.2977,0.075095
1433.1614,0.074834
1435.0251,0.076309
1436.8887,0.080416
1438.7524,0.082932
1440.6161,0.083513
1442.4797,0.085149
1444.3434,0.086724
1446.2071,0.087871
1448.0707,0.088510
1449.9344,0.086883
1451.7981,0.083559
1453.6618,0.080359
1455.5254,0.079748
1457.3891,0.083780
1459.2528,0.085454
1461.1164,0.084112
1462.9801,0.084137
1464.8438,0.085156
1466.7074,0.084402
1468.5711,0.082018
1470.4348,0.080829
1472.2984,0.082153
1474.1621,0.083503
1476.0258,0.082851
1477.8895,0.082488
1479.7531,0.082318
1481.6168,0.082991
1483.4805,0.083422
1485.3441,0.083668
1487.2078,0.085230
1489.0715,0.088403
1490.9351,0.090905
1492.7988,0.090533
1494.6625,0.090625
1496.5261,0.093811
1498.3898,0.096842
1500.2535,0.097376
1502.1171,0.096855
1503.9808,0.096744
1505.8445,0.100572
1507.7082,0.109465
1509.5718,0.108782
1511.4355,0.107849
1513.2992,0.108644
1515.1628,0.109914
1517.0265,0.112063
1518.8902,0.113526
1520.7538,0.115751
1522.6175,0.119260
1524.4812,0.119176
1526.3448,0.120225
1528.2085,0.121381
1530.0722,0.121386
1531.9359,0.122577
1533.7995,0.125692
1535.6632,0.126008
1537.5269,0.125413
1539.3905,0.130119
1541.2542,0.137751
1543.1179,0.138244
1544.9815,0.139256
1546.8452,0.140095
1548.7089,0.141222
1550.5725,0.144009
1552.4362,0.146048
1554.2999,0.147621
1556.1635,0.149763
1558.0272,0.155223
1559.8909,0.167368
1561.7546,0.164165
1563.6182,0.162632
1565.4819,0.164951
1567.3456,0.167658
1569.2092,0.171698
1571.0729,0.175753
1572.9366,0.176246
1574.8002,0.179526
1576.6639,0.186652
1578.5276,0.189212
1580.3912,0.189623
1582.2549,0.192022
1584.1186,0.193938
1585.9822,0.195207
1587.8459,0.195867
1589.7096,0.195880
1591.5733,0.194962
1593.4369,0.193473
1595.3006,0.191448
1597.1643,0.188728
1599.0279,0.185681
1600.8916,0.182804
1602.7553,0.180044
1604.6189,0.177263
1606.4826,0.174851
1608.3463,0.172932
1610.2099,0.170616
1612.0736,0.167323
1613.9373,0.163725
1615.8010,0.160132
1617.6646,0.153325
1619.5283,0.145294
1621.3920,0.140095
1623.2556,0.134064
1625.1193,0.126021
1626.9830,0.118293
1628.8466,0.109473
1630.7103,0.100266
1632.5740,0.092906
1634.4376,0.086167
1636.3013,0.078520
1638.1650,0.072958
1640.0286,0.070983
1641.8923,0.069817
1643.7560,0.069924
1645.6197,0.071422
1647.4833,0.074555
1649.3470,0.076159
1651.2107,0.077895
1653.0743,0.083234
1654.9380,0.087336
1656.8017,0.086266
1658.6653,0.086638
1660.5290,0.087019
1662.3927,0.086761
1664.2563,0.085076
1666.1200,0.083071
1667.9837,0.081603
1669.8474,0.080100
1671.7110,0.078639
1673.5747,0.078894
1675.4384,0.080951
1677.3020,0.083456
1679.1657,0.085454
1681.0294,0.089031
1682.8930,0.093114
1684.7567,0.097925
1686.6204,0.098306
1688.4840,0.096778
1690.3477,0.094521
1692.2114,0.091020
1694.0750,0.087627
1695.9387,0.084091
1697.8024,0.079488
1699.6661,0.076166
1701.5297,0.068840
1703.3934,0.062183
1705.2571,0.055396
1707.1207,0.046465
1708.9844,0.039973
1710.8481,0.035332
1712.7117,0.031501
1714.5754,0.029156
1716.4391,0.027339
1718.3027,0.025832
1720.1664,0.024315
1722.0301,0.023487
1723.8937,0.022088
1725.7574,0.020182
1727.6211,0.018311
1729.4848,0.016690
1731.3484,0.015238
1733.2121,0.014453
1735.0758,0.013280
1736.9394,0.012699
1738.8031,0.012438
1740.6668,0.012089
1742.5304,0.011621
1744.3941,0.011593
1746.2578,0.011387
1748.1214,0.010941
1749.9851,0.010319
1751.8488,0.010264
1753.7125,0.010103
1755.5761,0.009946
1757.4398,0.009783
1759.3035,0.009754
1761.1671,0.009703
1763.0308,0.009823
1764.8945,0.009626
1766.7581,0.009520
1768.6218,0.009498
1770.4855,0.009530
1772.3491,0.009404
1774.2128,0.009317
1776.0765,0.009160
1777.9401,0.009274
1779.8038,0.009356
1781.6675,0.009477
1783.5312,0.009486
1785.3948,0.009567
1787.2585,0.009438
1789.1222,0.009388
1790.9858,0.009407
1792.8495,0.009659
1794.7132,0.009616
1796.5768,0.009624
1798.4405,0.009673
1800.3042,0.009907
1802.1678,0.009758
1804.0315,0.009685
1805.8952,0.009718
1807.7589,0.009965
1809.6225,0.010108
1811.4862,0.010293
1813.3499,0.010053
1815.2135,0.009721
1817.0772,0.009489
1818.9409,0.009689
1820.8045,0.009969
1822.6682,0.010137
1824.5319,0.009840
1826.3955,0.009799
1828.2592,0.009869
1830.1229,0.009897
1831.9865,0.009530
1833.8502,0.009509
1835.7139,0.009585
1837.5776,0.009486
1839.4412,0.009528
1841.3049,0.009691
1843.1686,0.009755
1845.0322,0.010041
1846.8959,0.009676
1848.7596,0.009532
1850.6232,0.009826
1852.4869,0.010036
1854.3506,0.009962
1856.2142,0.010088
1858.0779,0.010048
1859.9416,0.010027
1861.8052,0.009981
1863.6689,0.010218
1865.5326,0.010087
1867.3963,0.010043
1869.2599,0.009715
1871.1236,0.009675
1872.9873,0.010154
1874.8509,0.010559
1876.7146,0.010326
1878.5783,0.010133
1880.4419,0.010072
1882.3056,0.010140
1884.1693,0.009958
1886.0329,0.010074
1887.8966,0.010178
1889.7603,0.010315
1891.6240,0.010024
1893.4876,0.009757
1895.3513,0.009754
1897.2150,0.010208
1899.0786,0.010270
1900.9423,0.010454
1902.8060,0.010467
1904.6696,0.010208
1906.5333,0.010024
1908.3970,0.010057
1910.2606,0.009931
1912.1243,0.010249
1913.9880,0.010161
1915.8516,0.010041
1917.7153,0.009975
1919.5790,0.009943
1921.4427,0.009579
1923.3063,0.009678
1925.1700,0.009868
1927.0337,0.010429
1928.8973,0.010088
1930.7610,0.009515
1932.6247,0.009720
1934.4883,0.010172
1936.3520,0.009244
1938.2157,0.009047
1940.0793,0.009443
1941.9430,0.009521
1943.8067,0.009160
1945.6704,0.008895
1947.5340,0.008849
1949.3977,0.009355
1951.2614,0.008536
1953.1250,0.008944
1954.9887,0.008790
1956.8524,0.007212
1958.7160,0.006401
1960.5797,0.006729
1962.4434,0.006760
1964.3070,0.006332
1966.1707,0.004342
1968.0344,0.004357
1969.8980,0.005047
1971.7617,0.004823
1973.6254,0.003941
1975.4891,0.003658
1977.3527,0.004036
1979.2164,0.005194
1981.0801,0.004925
1982.9437,0.006314
1984.8074,0.007663
1986.6711,0.007344
1988.5347,0.006564
1990.3984,0.008104
1992.2621,0.008608
1994.1257,0.007034
1995.9894,0.005799
1997.8531,0.007323
1999.7167,0.007866
2001.5804,0.007658
2003.4441,0.006724
2005.3078,0.006316
2007.1714,0.005725
2009.0351,0.005022
2010.8988,0.005270
2012.7624,0.005837
2014.6261,0.005498
2016.4898,0.006455
2018.3534,0.004690
2020.2171,0.003578
2022.0808,0.004374
2023.9444,0.004814
2025.8081,0.004581
2027.6718,0.005675
2029.5355,0.004661
2031.3991,0.004802
2033.2628,0.005336
2035.1265,0.005975
2036.9901,0.006636
2038.8538,0.006729
2040.7175,0.005987
2042.5811,0.006862
2044.4448,0.007893
2046.3085,0.008551
2048.1721,0.008621
2050.0358,0.009174
2051.8995,0.009009
2053.7631,0.009532
2055.6268,0.009955
2057.4905,0.010345
2059.3542,0.010773
2061.2178,0.011033
2063.0815,0.010756
2064.9452,0.011342
2066.8088,0.010939
2068.6725,0.011033
2070.5362,0.012083
2072.3998,0.012707
2074.2635,0.012545
2076.1272,0.012374
2077.9908,0.012381
2079.8545,0.013170
2081.7182,0.013763
2083.5819,0.013574
2085.4455,0.013231
2087.3092,0.013532
2089.1729,0.013483
2091.0365,0.013656
2092.9002,0.013686
2094.7639,0.013414
2096.6275,0.013045
2098.4912,0.013241
2100.3549,0.013715
2102.2185,0.014512
2104.0822,0.014425
2105.9459,0.014200
2107.8095,0.013844
2109.6732,0.014275
2111.5369,0.014178
2113.4006,0.013870
2115.2642,0.014069
2117.1279,0.014416
2118.9916,0.014291
2120.8552,0.014351
2122.7189,0.014003
2124.5826,0.013964
2126.4462,0.014039
2128.3099,0.013381
2130.1736,0.012776
2132.0372,0.012532
2133.9009,0.012139
2135.7646,0.012862
2137.6282,0.012954
2139.4919,0.012134
2141.3556,0.011187
2143.2193,0.010945
2145.0829,0.009883
2146.9466,0.009141
2148.8103,0.008926
2150.6739,0.008938
2152.5376,0.007881
2154.4013,0.006794
2156.2649,0.005333
2158.1286,0.004496
2159.9923,0.004487
2161.8559,0.005923
2163.7196,0.007113
2165.5833,0.009403
2167.4470,0.009135
2169.3106,0.009032
2171.1743,0.008983
2173.0380,0.009200
2174.9016,0.009518
2176.7653,0.009500
2178.6290,0.008632
2180.4926,0.009764
2182.3563,0.010576
2184.2200,0.010476
2186.0836,0.010037
2187.9473,0.010810
2189.8110,0.010991
2191.6746,0.011588
2193.5383,0.012789
2195.4020,0.012316
2197.2657,0.011261
2199.1293,0.011385
2200.9930,0.011756
2202.8567,0.012815
2204.7203,0.013148
2206.5840,0.013455
2208.4477,0.014143
2210.3113,0.014649
2212.1750,0.014304
2214.0387,0.013756
2215.9023,0.013907
2217.7660,0.014078
2219.6297,0.014323
2221.4934,0.015171
2223.3570,0.015148
2225.2207,0.015157
2227.0844,0.014795
2228.9480,0.014687
2230.8117,0.015103
2232.6754,0.016447
2234.5390,0.016345
2236.4027,0.016053
2238.2664,0.016170
2240.1300,0.016427
2241.9937,0.016805
2243.8574,0.016915
2245.7210,0.016612
2247.5847,0.017397
2249.4484,0.017578
2251.3121,0.017492
2253.1757,0.016803
2255.0394,0.016753
2256.9031,0.017716
2258.7667,0.018275
2260.6304,0.018377
2262.4941,0.018230
2264.3577,0.018181
2266.2214,0.018575
2268.0851,0.018177
2269.9487,0.018739
2271.8124,0.019785
2273.6761,0.019967
2275.5397,0.020086
2277.4034,0.020747
2279.2671,0.020888
2281.1308,0.021114
2282.9944,0.021371
2284.8581,0.021752
2286.7218,0.021876
2288.5854,0.021694
2290.4491,0.021828
2292.3128,0.022271
2294.1764,0.022144
2296.0401,0.021748
2297.9038,0.021538
2299.7674,0.021410
2301.6311,0.021815
2303.4948,0.022452
2305.3585,0.022501
2307.2221,0.022339
2309.0858,0.022093
2310.9495,0.021962
2312.8131,0.022080
2314.6768,0.022151
2316.5405,0.022020
2318.4041,0.022105
2320.2678,0.022438
2322.1315,0.022578
2323.9951,0.022442
2325.8588,0.022081
2327.7225,0.021488
2329.5861,0.021123
2331.4498,0.020720
2333.3135,0.020489
2335.1772,0.020563
2337.0408,0.020665
2338.9045,0.020770
2340.7682,0.021077
2342.6318,0.021431
2344.4955,0.021420
2346.3592,0.020991
2348.2228,0.020748
2350.0865,0.020728
2351.9502,0.020466
2353.8138,0.020430
2355.6775,0.020745
2357.5412,0.020709
2359.4049,0.020336
2361.2685,0.020537
2363.1322,0.020796
2364.9959,0.020446
2366.8595,0.020513
2368.7232,0.020943
2370.5869,0.021582
2372.4505,0.021834
2374.3142,0.021983
2376.1779,0.022162
2378.0415,0.022122
2379.9052,0.021972
2381.7689,0.021932
2383.6325,0.021946
2385.4962,0.022036
2387.3599,0.022036
2389.2236,0.022088
2391.0872,0.022266
2392.9509,0.022293
2394.8146,0.022129
2396.6782,0.022107
2398.5419,0.022150
2400.4056,0.022387
2402.2692,0.022456
2404.1329,0.022257
2405.9966,0.022309
2407.8602,0.022528
2409.7239,0.022550
2411.5876,0.022780
2413.4512,0.022884
2415.3149,0.023033
2417.1786,0.023149
2419.0423,0.023198
2420.9059,0.023194
2422.7696,0.023373
2424.6333,0.023370
2426.4969,0.023143
2428.3606,0.023095
2430.2243,0.023295
2432.0879,0.023551
2433.9516,0.023627
2435.8153,0.023633
2437.6789,0.023640
2439.5426,0.023816
2441.4063,0.023762
2443.2700,0.023410
2445.1336,0.023355
2446.9973,0.023647
2448.8610,0.023743
2450.7246,0.023658
2452.5883,0.023524
2454.4520,0.023569
2456.3156,0.023665
2458.1793,0.023812
2460.0430,0.023664
2461.9066,0.023108
2463.7703,0.022946
2465.6340,0.022995
2467.4976,0.023221
2469.3613,0.023423
2471.2250,0.023328
2473.0887,0.023312
2474.9523,0.023571
2476.8160,0.023642
2478.6797,0.023623
2480.5433,0.023535
2482.4070,0.023655
2484.2707,0.024204
2486.1343,0.024637
2487.9980,0.024592
2489.8617,0.024523
2491.7253,0.024325
2493.5890,0.024455
2495.4527,0.024906
2497.3164,0.024842
2499.1800,0.024710
2501.0437,0.024694
2502.9074,0.024950
2504.7710,0.024848
2506.6347,0.024627
2508.4984,0.025084
2510.3620,0.025158
2512.2257,0.025298
2514.0894,0.025216
2515.9530,0.025264
2517.8167,0.025267
2519.6804,0.025263
2521.5440,0.025466
2523.4077,0.025814
2525.2714,0.026422
2527.1351,0.026390
2528.9987,0.025940
2530.8624,0.026200
2532.7261,0.026277
2534.5897,0.026136
2536.4534,0.025898
2538.3171,0.025909
2540.1807,0.026206
2542.0444,0.026214
2543.9081,0.026229
2545.7717,0.026226
2547.6354,0.026233
2549.4991,0.026151
2551.3627,0.025887
2553.2264,0.026239
2555.0901,0.026548
2556.9538,0.026328
2558.8174,0.026229
2560.6811,0.026485
2562.5448,0.026802
2564.4084,0.027147
2566.2721,0.027002
2568.1358,0.027036
2569.9994,0.027205
2571.8631,0.027521
2573.7268,0.027425
2575.5904,0.027563
2577.4541,0.027714
2579.3178,0.027592
2581.1815,0.027835
2583.0451,0.028412
2584.9088,0.028485
2586.7725,0.028815
2588.6361,0.028895
2590.4998,0.028579
2592.3635,0.028834
2594.2271,0.029135
2596.0908,0.029231
2597.9545,0.029479
2599.8181,0.030078
2601.6818,0.030227
2603.5455,0.030139
2605.4091,0.030295
2607.2728,0.030356
2609.1365,0.030315
2611.0002,0.030385
2612.8638,0.030539
2614.7275,0.030731
2616.5912,0.031087
2618.4548,0.031269
2620.3185,0.031210
2622.1822,0.031659
2624.0458,0.032105
2625.9095,0.032316
2627.7732,0.032476
2629.6368,0.032573
2631.5005,0.032752
2633.3642,0.033062
2635.2279,0.033225
2637.0915,0.033561
2638.9552,0.034042
2640.8189,0.034440
2642.6825,0.034640
2644.5462,0.034659
2646.4099,0.034723
2648.2735,0.034903
2650.1372,0.035005
2652.0009,0.035201
2653.8645,0.035428
2655.7282,0.035441
2657.5919,0.035399
2659.4555,0.035400
2661.3192,0.035631
2663.1829,0.035736
2665.0466,0.035786
2666.9102,0.035828
2668.7739,0.035913
2670.6376,0.036157
2672.5012,0.036229
2674.3649,0.036430
2676.2286,0.036604
2678.0922,0.036805
2679.9559,0.037071
2681.8196,0.037194
2683.6832,0.037278
2685.5469,0.037373
2687.4106,0.037520
2689.2742,0.037873
2691.1379,0.038336
2693.0016,0.038622
2694.8653,0.038930
2696.7289,0.039080
2698.5926,0.039179
2700.4563,0.039743
2702.3199,0.040357
2704.1836,0.040642
2706.0473,0.040921
2707.9109,0.041114
2709.7746,0.041251
2711.6383,0.041536
2713.5019,0.041961
2715.3656,0.042435
2717.2293,0.042671
2719.0930,0.042917
2720.9566,0.043294
2722.8203,0.043763
2724.6840,0.044331
2726.5476,0.044933
2728.4113,0.045444
2730.2750,0.045791
2732.1386,0.046157
2734.0023,0.046543
2735.8660,0.046792
2737.7296,0.047146
2739.5933,0.047826
2741.4570,0.048267
2743.3206,0.048602
2745.1843,0.049111
2747.0480,0.049793
2748.9117,0.050673
2750.7753,0.051352
2752.6390,0.051969
2754.5027,0.052403
2756.3663,0.052735
2758.2300,0.053337
2760.0937,0.054029
2761.9573,0.054554
2763.8210,0.055190
2765.6847,0.055765
2767.5483,0.056395
2769.4120,0.056818
2771.2757,0.057415
2773.1394,0.058261
2775.0030,0.059076
2776.8667,0.059770
2778.7304,0.060144
2780.5940,0.060409
2782.4577,0.060671
2784.3214,0.060685
2786.1850,0.060605
2788.0487,0.060445
2789.9124,0.060559
2791.7760,0.060167
2793.6397,0.059569
2795.5034,0.058876
2797.3670,0.058165
2799.2307,0.057877
2801.0944,0.057642
2802.9581,0.056913
2804.8217,0.056249
2806.6854,0.055994
2808.5491,0.055779
2810.4127,0.055402
2812.2764,0.055229
2814.1401,0.055099
2816.0037,0.055009
2817.8674,0.054933
2819.7311,0.054906
2821.5947,0.055040
2823.4584,0.055512
2825.3221,0.055752
2827.1857,0.055412
2829.0494,0.054937
2830.9131,0.054676
2832.7768,0.054430
2834.6404,0.054297
2836.5041,0.054305
2838.3678,0.054430
2840.2314,0.054937
2842.0951,0.055597
2843.9588,0.055842
2845.8224,0.055929
2847.6861,0.056416
2849.5498,0.057052
2851.4134,0.057675
2853.2771,0.058287
2855.1408,0.058944
2857.0045,0.059850
2858.8681,0.060565
2860.7318,0.061051
2862.5955,0.061393
2864.4591,0.061670
2866.3228,0.062090
2868.1865,0.062499
2870.0501,0.062665
2871.9138,0.062866
2873.7775,0.063424
2875.6411,0.064079
2877.5048,0.064378
2879.3685,0.064677
2881.2321,0.065085
2883.0958,0.065782
2884.9595,0.066447
2886.8232,0.066822
2888.6868,0.066974
2890.5505,0.067423
2892.4142,0.068103
2894.2778,0.068481
2896.1415,0.068972
2898.0052,0.069539
2899.8688,0.069891
2901.7325,0.069834
2903.5962,0.069733
2905.4598,0.069828
2907.3235,0.069868
2909.1872,0.070306
2911.0509,0.071066
2912.9145,0.071803
2914.7782,0.072494
2916.6419,0.073370
2918.5055,0.073961
2920.3692,0.074625
2922.2329,0.075337
2924.0965,0.075920
2925.9602,0.076126
2927.8239,0.076913
2929.6875,0.078009
2931.5512,0.078738
2933.4149,0.079186
2935.2785,0.079700
2937.1422,0.080343
2939.0059,0.080885
2940.8696,0.081087
2942.7332,0.081399
2944.5969,0.081794
2946.4606,0.082114
2948.3242,0.082212
2950.1879,0.082461
2952.0516,0.083128
2953.9152,0.083591
2955.7789,0.083545
2957.6426,0.083817
2959.5062,0.084284
2961.3699,0.085036
2963.2336,0.085983
2965.0972,0.086835
2966.9609,0.087528
2968.8246,0.088412
2970.6883,0.089298
2972.5519,0.090193
2974.4156,0.090655
2976.2793,0.090902
2978.1429,0.091576
2980.0066,0.092468
2981.8703,0.092823
2983.7339,0.093267
2985.5976,0.093432
2987.4613,0.093855
2989.3249,0.094469
2991.1886,0.094801
2993.0523,0.095349
2994.9160,0.096515
2996.7796,0.097506
2998.6433,0.098149
3000.5070,0.098751
3002.3706,0.099752
3004.2343,0.100509
3006.0980,0.101123
3007.9616,0.101554
3009.8253,0.102301
3011.6890,0.103583
3013.5526,0.104630
3015.4163,0.105088
3017.2800,0.105744
3019.1436,0.105988
3021.0073,0.106216
3022.8710,0.106523
3024.7347,0.106856
3026.5983,0.107161
3028.4620,0.107275
3030.3257,0.107696
3032.1893,0.108533
3034.0530,0.108752
3035.9167,0.109028
3037.7803,0.109169
3039.6440,0.109128
3041.5077,0.109264
3043.3713,0.110026
3045.2350,0.110743
3047.0987,0.111097
3048.9624,0.111224
3050.8260,0.111629
3052.6897,0.111640
3054.5534,0.111573
3056.4170,0.111771
3058.2807,0.111773
3060.1444,0.111435
3062.0080,0.111656
3063.8717,0.111978
3065.7354,0.112020
3067.5990,0.112341
3069.4627,0.112693
3071.3264,0.112126
3073.1900,0.111808
3075.0537,0.111876
3076.9174,0.111825
3078.7811,0.111399
3080.6447,0.111070
3082.5084,0.110693
3084.3721,0.110196
3086.2357,0.109337
3088.0994,0.108770
3089.9631,0.108698
3091.8267,0.108245
3093.6904,0.106833
3095.5541,0.105607
3097.4177,0.104902
3099.2814,0.104408
3101.1451,0.103893
3103.0087,0.102926
3104.8724,0.101378
3106.7361,0.100226
3108.5998,0.099602
3110.4634,0.099368
3112.3271,0.098209
3114.1908,0.096595
3116.0544,0.095578
3117.9181,0.095514
3119.7818,0.095537
3121.6454,0.094948
3123.5091,0.093965
3125.3728,0.092776
3127.2364,0.091337
3129.1001,0.090515
3130.9638,0.090082
3132.8275,0.089451
3134.6911,0.088406
3136.5548,0.087548
3138.4185,0.087242
3140.2821,0.087310
3142.1458,0.087333
3144.0095,0.086849
3145.8731,0.085860
3147.7368,0.084975
3149.6005,0.084288
3151.4641,0.084332
3153.3278,0.084319
3155.1915,0.083753
3157.0551,0.083219
3158.9188,0.082343
3160.7825,0.081502
3162.6462,0.081349
3164.5098,0.081023
3166.3735,0.080074
3168.2372,0.079752
3170.1008,0.079786
3171.9645,0.079166
3173.8282,0.079030
3175.6918,0.078768
3177.5555,0.078224
3179.4192,0.077650
3181.2828,0.077488
3183.1465,0.077656
3185.0102,0.077796
3186.8739,0.077247
3188.7375,0.076533
3190.6012,0.076517
3192.4649,0.076818
3194.3285,0.077216
3196.1922,0.077659
3198.0559,0.077148
3199.9195,0.076503
3201.7832,0.076556
3203.6469,0.076994
3205.5105,0.077196
3207.3742,0.077329
3209.2379,0.077046
3211.1015,0.076826
3212.9652,0.077346
3214.8289,0.077805
3216.6926,0.077658
3218.5562,0.077858
3220.4199,0.078217
3222.2836,0.078475
3224.1472,0.078206
3226.0109,0.077902
3227.8746,0.078302
3229.7382,0.078786
3231.6019,0.078639
3233.4656,0.079032
3235.3292,0.079693
3237.1929,0.079876
3239.0566,0.079817
3240.9202,0.079759
3242.7839,0.079927
3244.6476,0.080360
3246.5113,0.080858
3248.3749,0.081415
3250.2386,0.081588
3252.1023,0.081681
3253.9659,0.081677
3255.8296,0.081979
3257.6933,0.082361
3259.5569,0.082654
3261.4206,0.082916
3263.2843,0.083221
3265.1479,0.083147
3267.0116,0.083001
3268.8753,0.082689
3270.7390,0.083015
3272.6026,0.083922
3274.4663,0.084233
3276.3300,0.083640
3278.1936,0.083135
3280.0573,0.082585
3281.9210,0.082544
3283.7846,0.082625
3285.6483,0.081988
3287.5120,0.080774
3289.3756,0.080009
3291.2393,0.079509
3293.1030,0.079221
3294.9666,0.078539
3296.8303,0.076801
3298.6940,0.075308
3300.5577,0.074999
3302.4213,0.074657
3304.2850,0.074274
3306.1487,0.073952
3308.0123,0.073629
3309.8760,0.072671
3311.7397,0.071144
3313.6033,0.070845
3315.4670,0.071052
3317.3307,0.070268
3319.1943,0.070221
3321.0580,0.070716
3322.9217,0.070821
3324.7854,0.071079
3326.6490,0.071310
3328.5127,0.071477
3330.3764,0.071793
3332.2400,0.071812
3334.1037,0.071565
3335.9674,0.071149
3337.8310,0.070295
3339.6947,0.069886
3341.5584,0.070428
3343.4220,0.069409
3345.2857,0.067077
3347.1494,0.065401
3349.0130,0.064138
3350.8767,0.062695
3352.7404,0.061517
3354.6041,0.059980
3356.4677,0.058645
3358.3314,0.057665
3360.1951,0.057215
3362.0587,0.056510
3363.9224,0.055563
3365.7861,0.055075
3367.6497,0.054944
3369.5134,0.054416
3371.3771,0.054056
3373.2407,0.054363
3375.1044,0.053889
3376.9681,0.053205
3378.8317,0.053771
3380.6954,0.053999
3382.5591,0.054133
3384.4228,0.054321
3386.2864,0.054804
3388.1501,0.054811
3390.0138,0.054822
3391.8774,0.055329
3393.7411,0.055928
3395.6048,0.056206
3397.4684,0.056587
3399.3321,0.055962
3401.1958,0.055221
3403.0594,0.055946
3404.9231,0.055392
3406.7868,0.053837
3408.6505,0.052983
3410.5141,0.051276
3412.3778,0.049091
3414.2415,0.047716
3416.1051,0.046456
3417.9688,0.044930
3419.8325,0.043591
3421.6961,0.041629
3423.5598,0.040058
3425.4235,0.038905
3427.2871,0.037274
3429.1508,0.036003
3431.0145,0.035210
3432.8781,0.034517
3434.7418,0.033823
3436.6055,0.032200
3438.4692,0.031160
3440.3328,0.030820
3442.1965,0.029715
3444.0602,0.029014
3445.9238,0.029545
3447.7875,0.029149
3449.6512,0.026917
3451.5148,0.025812
3453.3785,0.026285
3455.2422,0.026592
3457.1058,0.026337
3458.9695,0.025455
3460.8332,0.024458
3462.6969,0.024260
3464.5605,0.024809
3466.4242,0.024594
3468.2879,0.023549
3470.1515,0.023269
3472.0152,0.023618
3473.8789,0.022461
3475.7425,0.020825
3477.6062,0.020747
3479.4699,0.021491
3481.3335,0.021070
3483.1972,0.019544
3485.0609,0.018904
3486.9245,0.018678
3488.7882,0.018592
3490.6519,0.018502
3492.5156,0.018037
3494.3792,0.017245
3496.2429,0.016777
3498.1066,0.017373
3499.9702,0.017402
3501.8339,0.016672
3503.6976,0.016138
3505.5612,0.015618
3507.4249,0.015025
3509.2886,0.013391
3511.1522,0.012742
3513.0159,0.014311
3514.8796,0.014216
3516.7432,0.013045
3518.6069,0.012676
3520.4706,0.012765
3522.3343,0.012830
3524.1979,0.012812
3526.0616,0.012678
3527.9253,0.011722
3529.7889,0.012328
3531.6526,0.013106
3533.5163,0.012091
3535.3799,0.011321
3537.2436,0.010797
3539.1073,0.010306
3540.9709,0.010464
3542.8346,0.010777
3544.6983,0.010544
3546.5620,0.009513
3548.4256,0.007971
3550.2893,0.008142
3552.1530,0.009857
3554.0166,0.010408
3555.8803,0.009747
3557.7440,0.009177
3559.6076,0.008628
3561.4713,0.008613
3563.3350,0.008869
3565.1986,0.007734
3567.0623,0.006656
3568.9260,0.007180
3570.7896,0.008027
3572.6533,0.008597
3574.5170,0.008188
3576.3807,0.007506
3578.2443,0.007870
3580.1080,0.008137
3581.9717,0.008166
3583.8353,0.008253
3585.6990,0.007914
3587.5627,0.008153
3589.4263,0.008683
3591.2900,0.007938
3593.1537,0.007133
3595.0173,0.006945
3596.8810,0.007475
3598.7447,0.007429
3600.6084,0.006912
3602.4720,0.007090
3604.3357,0.007097
3606.1994,0.007276
3608.0630,0.007400
3609.9267,0.007068
3611.7904,0.006712
3613.6540,0.006471
3615.5177,0.006860
3617.3814,0.007113
3619.2450,0.007090
3621.1087,0.007185
3622.9724,0.007276
3624.8360,0.007089
3626.6997,0.006612
3628.5634,0.006288
3630.4271,0.006292
3632.2907,0.007058
3634.1544,0.008007
3636.0181,0.008140
3637.8817,0.007882
3639.7454,0.008003
3641.6091,0.007776
3643.4727,0.007331
3645.3364,0.006987
3647.2001,0.006984
3649.0637,0.007179
3650.9274,0.006326
3652.7911,0.006443
3654.6547,0.007257
3656.5184,0.007212
3658.3821,0.007581
3660.2458,0.008546
3662.1094,0.008695
3663.9731,0.008345
3665.8368,0.007829
3667.7004,0.007425
3669.5641,0.007452
3671.4278,0.007271
3673.2914,0.007123
3675.1551,0.007762
3677.0188,0.008588
3678.8824,0.008151
3680.7461,0.007771
3682.6098,0.008291
3684.4735,0.008394
3686.3371,0.008063
3688.2008,0.008007
3690.0645,0.007907
3691.9281,0.007454
3693.7918,0.007673
3695.6555,0.008393
3697.5191,0.008697
3699.3828,0.008920
3701.2465,0.009255
3703.1101,0.008971
3704.9738,0.008265
3706.8375,0.008018
3708.7011,0.007804
3710.5648,0.007498
3712.4285,0.007736
3714.2922,0.007910
3716.1558,0.007944
3718.0195,0.008137
3719.8832,0.008210
3721.7468,0.008366
3723.6105,0.008125
3725.4742,0.007746
3727.3378,0.007995
3729.2015,0.007704
3731.0652,0.007393
3732.9288,0.007383
3734.7925,0.007031
3736.6562,0.006819
3738.5199,0.006779
3740.3835,0.006851
3742.2472,0.007348
3744.1109,0.007481
3745.9745,0.005825
3747.8382,0.005910
3749.7019,0.007594
3751.5655,0.008488
3753.4292,0.009053
3755.2929,0.008593
3757.1565,0.008295
3759.0202,0.008601
3760.8839,0.009042
3762.7475,0.009356
3764.6112,0.008937
3766.4749,0.008765
3768.3386,0.008826
3770.2022,0.008731
3772.0659,0.009335
3773.9296,0.009630
3775.7932,0.009777
3777.6569,0.009699
3779.5206,0.009651
3781.3842,0.009737
3783.2479,0.009370
3785.1116,0.009233
3786.9752,0.009186
3788.8389,0.009379
3790.7026,0.009948
3792.5662,0.010143
3794.4299,0.009703
3796.2936,0.009063
3798.1573,0.009009
3800.0209,0.009309
3801.8846,0.009197
3803.7483,0.008687
3805.6119,0.008697
3807.4756,0.009284
3809.3393,0.009889
3811.2029,0.009728
3813.0666,0.009274
3814.9303,0.009103
3816.7939,0.009120
3818.6576,0.009237
3820.5213,0.009079
3822.3850,0.009128
3824.2486,0.009448
3826.1123,0.009779
3827.9760,0.010023
3829.8396,0.009920
3831.7033,0.010015
3833.5670,0.009477
3835.4306,0.008942
3837.2943,0.009546
3839.1580,0.009163
3841.0216,0.008750
3842.8853,0.009294
3844.7490,0.009632
3846.6126,0.009855
3848.4763,0.009805
3850.3400,0.009450
3852.2037,0.009113
3854.0673,0.008790
3855.9310,0.008639
3857.7947,0.009306
3859.6583,0.009820
3861.5220,0.010031
3863.3857,0.010015
3865.2493,0.009816
3867.1130,0.009743
3868.9767,0.009863
3870.8403,0.009766
3872.7040,0.009645
3874.5677,0.009837
3876.4314,0.009954
3878.2950,0.009525
3880.1587,0.009335
3882.0224,0.009525
3883.8860,0.009801
3885.7497,0.010525
3887.6134,0.010796
3889.4770,0.009945
3891.3407,0.009917
3893.2044,0.010737
3895.0680,0.010943
3896.9317,0.010489
3898.7954,0.010383
3900.6590,0.010517
3902.5227,0.010541
3904.3864,0.010521
3906.2501,0.010798
3908.1137,0.011140
3909.9774,0.011136
3911.8411,0.011001
3913.7047,0.010747
3915.5684,0.010667
3917.4321,0.010748
3919.2957,0.010832
3921.1594,0.010775
3923.0231,0.010562
3924.8867,0.010858
3926.7504,0.011621
3928.6141,0.011792
3930.4777,0.011115
3932.3414,0.010704
3934.2051,0.011384
3936.0688,0.011398
3937.9324,0.010937
3939.7961,0.010990
3941.6598,0.011270
3943.5234,0.011735
3945.3871,0.012182
3947.2508,0.011976
3949.1144,0.011417
3950.9781,0.011261
3952.8418,0.011425
3954.7054,0.011550
3956.5691,0.011842
3958.4328,0.012087
3960.2965,0.012120
3962.1601,0.011882
3964.0238,0.011478
3965.8875,0.011108
3967.7511,0.011063
3969.6148,0.011837
3971.4785,0.012164
3973.3421,0.011908
3975.2058,0.012044
3977.0695,0.012245
3978.9331,0.012238
3980.7968,0.011901
3982.6605,0.011807
3984.5241,0.012057
3986.3878,0.012244
3988.2515,0.012070
3990.1152,0.011536
3991.9788,0.011618
3993.8425,0.011854
3995.7062,0.011990
3997.5698,0.012150
3999.4335,0.011927
