Wavenumber,Intensity
650.4205,0.185008
652.2841,0.180507
654.1478,0.175488
656.0115,0.170984
657.8751,0.167777
659.7388,0.165337
661.6025,0.164339
663.4661,0.163189
665.3298,0.161238
667.1935,0.160658
669.0571,0.161318
670.9208,0.161584
672.7845,0.160531
674.6481,0.159076
676.5118,0.160409
678.3755,0.160638
680.2392,0.158066
682.1028,0.156233
683.9665,0.154607
685.8302,0.151161
687.6938,0.148122
689.5575,0.146772
691.4212,0.146590
693.2848,0.146343
695.1485,0.145643
697.0122,0.145112
698.8758,0.145584
700.7395,0.146006
702.6032,0.145349
704.4669,0.143592
706.3305,0.140507
708.1942,0.135707
710.0579,0.130056
711.9215,0.125088
713.7852,0.120389
715.6489,0.115086
717.5125,0.110070
719.3762,0.106050
721.2399,0.102292
723.1035,0.098463
724.9672,0.094678
726.8309,0.091080
728.6945,0.088114
730.5582,0.085197
732.4219,0.081941
734.2856,0.078688
736.1492,0.076282
738.0129,0.074670
739.8766,0.074289
741.7402,0.075889
743.6039,0.078275
745.4676,0.079979
747.3312,0.080480
749.1949,0.080149
751.0586,0.079332
752.9222,0.078412
754.7859,0.077893
756.6496,0.077374
758.5132,0.076846
760.3769,0.076569
762.2406,0.076553
764.1043,0.076779
765.9679,0.077316
767.8316,0.078193
769.6953,0.079477
771.5589,0.081620
773.4226,0.084631
775.2863,0.086909
777.1499,0.086538
779.0136,0.083499
780.8773,0.079826
782.7409,0.077502
784.6046,0.077259
786.4683,0.078421
788.3320,0.079946
790.1956,0.081467
792.0593,0.083169
793.9230,0.085075
795.7866,0.087241
797.6503,0.089392
799.5140,0.091326
801.3776,0.093845
803.2413,0.096719
805.1050,0.099645
806.9686,0.103065
808.8323,0.104816
810.6960,0.100170
812.5596,0.089853
814.4233,0.080718
816.2870,0.075568
818.1507,0.072408
820.0143,0.069937
821.8780,0.068451
823.7417,0.068116
825.6053,0.068913
827.4690,0.070561
829.3327,0.071739
831.1963,0.068662
833.0600,0.060771
834.9237,0.053889
836.7873,0.051141
838.6510,0.050885
840.5147,0.051583
842.3784,0.052722
844.2420,0.053890
846.1057,0.054787
847.9694,0.054725
849.8330,0.053135
851.6967,0.050840
853.5604,0.048365
855.4240,0.045683
857.2877,0.043544
859.1514,0.042330
861.0150,0.041640
862.8787,0.041293
864.7424,0.041299
866.6060,0.041458
868.4697,0.041564
870.3334,0.041739
872.1971,0.041888
874.0607,0.041901
875.9244,0.042212
877.7881,0.042773
879.6517,0.043212
881.5154,0.043711
883.3791,0.044268
885.2427,0.044711
887.1064,0.045245
888.9701,0.046104
890.8337,0.047136
892.6974,0.048249
894.5611,0.049427
896.4247,0.050460
898.2884,0.050866
900.1521,0.050624
902.0158,0.050746
903.8794,0.052123
905.7431,0.054615
907.6068,0.057873
909.4704,0.061829
911.3341,0.066644
913.1978,0.072195
915.0614,0.075391
916.9251,0.070868
918.7888,0.059903
920.6524,0.050760
922.5161,0.047228
924.3798,0.046880
926.2435,0.046574
928.1071,0.044912
929.9708,0.042957
931.8345,0.042097
933.6981,0.042256
935.5618,0.042806
937.4255,0.043399
939.2891,0.043980
941.1528,0.044587
943.0165,0.045184
944.8801,0.045832
946.7438,0.046584
948.6075,0.047305
950.4711,0.047932
952.3348,0.048594
954.1985,0.049317
956.0622,0.050116
957.9258,0.050961
959.7895,0.051782
961.6532,0.052767
963.5168,0.054008
965.3805,0.055347
967.2442,0.056866
969.1078,0.058791
970.9715,0.060912
972.8352,0.063396
974.6988,0.067427
976.5625,0.074396
978.4262,0.086313
980.2899,0.103541
982.1535,0.112447
984.0172,0.095006
985.8809,0.068197
987.7445,0.055320
989.6082,0.053252
991.4719,0.054078
993.3355,0.055651
995.1992,0.057490
997.0629,0.059303
998.9265,0.060331
1000.7902,0.059633
1002.6539,0.057583
1004.5175,0.056222
1006.3812,0.056208
1008.2449,0.056670
1010.1086,0.057119
1011.9722,0.057637
1013.8359,0.058414
1015.6996,0.059358
1017.5632,0.060447
1019.4269,0.061870
1021.2906,0.063280
1023.1542,0.064635
1025.0179,0.066172
1026.8816,0.067726
1028.7452,0.069331
1030.6089,0.071173
1032.4726,0.073123
1034.3362,0.075178
1036.1999,0.077633
1038.0636,0.080578
1039.9273,0.084045
1041.7909,0.088020
1043.6546,0.092503
1045.5183,0.097427
1047.3819,0.102021
1049.2456,0.104284
1051.1093,0.101305
1052.9729,0.092098
1054.8366,0.079988
1056.7003,0.070188
1058.5639,0.065122
1060.4276,0.063573
1062.2913,0.063724
1064.1550,0.064690
1066.0186,0.066037
1067.8823,0.067660
1069.7460,0.069548
1071.6096,0.071496
1073.4733,0.073603
1075.3370,0.076088
1077.2006,0.078921
1079.0643,0.082221
1080.9280,0.085622
1082.7916,0.088721
1084.6553,0.091490
1086.5190,0.093250
1088.3826,0.093810
1090.2463,0.094601
1092.1100,0.097105
1093.9737,0.101664
1095.8373,0.107561
1097.7010,0.113979
1099.5647,0.120680
1101.4283,0.127289
1103.2920,0.132358
1105.1557,0.134192
1107.0193,0.132098
1108.8830,0.126346
1110.7467,0.117646
1112.6103,0.107450
1114.4740,0.097399
1116.3377,0.088585
1118.2014,0.081748
1120.0650,0.077065
1121.9287,0.074243
1123.7924,0.072922
1125.6560,0.072511
1127.5197,0.072083
1129.3834,0.071059
1131.2470,0.069040
1133.1107,0.066181
1134.9744,0.063459
1136.8380,0.061585
1138.7017,0.060766
1140.5654,0.060809
1142.4290,0.061284
1144.2927,0.061936
1146.1564,0.062732
1148.0201,0.063768
1149.8837,0.065041
1151.7474,0.066542
1153.6111,0.068467
1155.4747,0.070820
1157.3384,0.073492
1159.2021,0.076140
1161.0657,0.078207
1162.9294,0.079257
1164.7931,0.079422
1166.6567,0.078929
1168.5204,0.078135
1170.3841,0.077628
1172.2477,0.077278
1174.1114,0.075700
1175.9751,0.072321
1177.8388,0.068244
1179.7024,0.064974
1181.5661,0.063125
1183.4298,0.062513
1185.2934,0.062753
1187.1571,0.063406
1189.0208,0.064076
1190.8844,0.064832
1192.7481,0.065780
1194.6118,0.066865
1196.4754,0.068235
1198.3391,0.069968
1200.2028,0.071776
1202.0665,0.072633
1203.9301,0.071200
1205.7938,0.068171
1207.6575,0.065678
1209.5211,0.064771
1211.3848,0.064989
1213.2485,0.065650
1215.1121,0.066420
1216.9758,0.067207
1218.8395,0.067998
1220.7031,0.068776
1222.5668,0.069484
1224.4305,0.070210
1226.2941,0.070998
1228.1578,0.071761
1230.0215,0.072517
1231.8852,0.073283
1233.7488,0.073928
1235.6125,0.074620
1237.4762,0.075384
1239.3398,0.076158
1241.2035,0.077126
1243.0672,0.078239
1244.9308,0.079348
1246.7945,0.080504
1248.6582,0.081920
1250.5218,0.083485
1252.3855,0.084789
1254.2492,0.085656
1256.1129,0.085855
1257.9765,0.085418
1259.8402,0.084844
1261.7039,0.084746
1263.5675,0.085219
1265.4312,0.086378
1267.2949,0.087645
1269.1585,0.088548
1271.0222,0.089354
1272.8859,0.090361
1274.7495,0.091587
1276.6132,0.093132
1278.4769,0.094830
1280.3405,0.096233
1282.2042,0.096722
1284.0679,0.096341
1285.9316,0.096055
1287.7952,0.096718
1289.6589,0.098322
1291.5226,0.100900
1293.3862,0.104501
1295.2499,0.108833
1297.1136,0.113815
1298.9772,0.119621
1300.8409,0.126333
1302.7046,0.133337
1304.5682,0.138480
1306.4319,0.138584
1308.2956,0.130601
1310.1592,0.115394
1312.0229,0.099504
1313.8866,0.088862
1315.7503,0.084303
1317.6139,0.083133
1319.4776,0.083298
1321.3413,0.084372
1323.2049,0.086469
1325.0686,0.089734
1326.9323,0.093610
1328.7959,0.097276
1330.6596,0.100052
1332.5233,0.101383
1334.3869,0.100736
1336.2506,0.098515
1338.1143,0.095507
1339.9780,0.092481
1341.8416,0.089594
1343.7053,0.087693
1345.5690,0.087355
1347.4326,0.088131
1349.2963,0.089779
1351.1600,0.092209
1353.0236,0.095169
1354.8873,0.098781
1356.7510,0.102309
1358.6146,0.104875
1360.4783,0.106257
1362.3420,0.106785
1364.2056,0.106828
1366.0693,0.107359
1367.9330,0.110063
1369.7967,0.113847
1371.6603,0.116988
1373.5240,0.121550
1375.3877,0.126824
1377.2513,0.130331
1379.1150,0.134713
1380.9787,0.140184
1382.8423,0.145619
1384.7060,0.151685
1386.5697,0.159087
1388.4333,0.166989
1390.2970,0.171489
1392.1607,0.174156
1394.0244,0.175059
1395.8880,0.171983
1397.7517,0.166100
1399.6154,0.158723
1401.4790,0.152110
1403.3427,0.146118
1405.2064,0.137395
1407.0700,0.124912
1408.9337,0.111584
1410.7974,0.098635
1412.6610,0.088829
1414.5247,0.083804
1416.3884,0.083314
1418.2520,0.085500
1420.1157,0.088778
1421.9794,0.090046
1423.8431,0.087616
1425.7067,0.080046
1427.5704,0.071749
1429.4341,0.066242
1431.2977,0.063777
1433.1614,0.063342
1435.0251,0.064721
1436.8887,0.068170
1438.7524,0.070688
1440.6161,0.071463
1442.4797,0.073667
1444.3434,0.075876
1446.2071,0.078001
1448.0707,0.079849
1449.9344,0.079204
1451.7981,0.074564
1453.6618,0.069359
1455.5254,0.067537
1457.3891,0.071200
1459.2528,0.073502
1461.1164,0.073102
1462.9801,0.073897
1464.8438,0.075587
1466.7074,0.075698
1468.5711,0.074339
1470.4348,0.074252
1472.2984,0.076072
1474.1621,0.078095
1476.0258,0.077905
1477.8895,0.078243
1479.7531,0.078514
1481.6168,0.079328
1483.4805,0.079583
1485.3441,0.079291
1487.2078,0.079676
1489.0715,0.080327
1490.9351,0.079870
1492.7988,0.077765
1494.6625,0.076083
1496.5261,0.076239
1498.3898,0.076346
1500.2535,0.075044
1502.1171,0.073286
1503.9808,0.072392
1505.8445,0.074029
1507.7082,0.078502
1509.5718,0.077416
1511.4355,0.076657
1513.2992,0.077082
1515.1628,0.077624
1517.0265,0.079007
1518.8902,0.080281
1520.7538,0.081390
1522.6175,0.084338
1524.4812,0.084411
1526.3448,0.085784
1528.2085,0.086731
1530.0722,0.086978
1531.9359,0.088346
1533.7995,0.091140
1535.6632,0.091740
1537.5269,0.091526
1539.3905,0.095502
1541.2542,0.102260
1543.1179,0.103560
1544.9815,0.105244
1546.8452,0.106532
1548.7089,0.108015
1550.5725,0.111073
1552.4362,0.113242
1554.2999,0.115210
1556.1635,0.118189
1558.0272,0.122855
1559.8909,0.134276
1561.7546,0.131815
1563.6182,0.131505
1565.4819,0.134442
1567.3456,0.137631
1569.2092,0.141431
1571.0729,0.145912
1572.9366,0.147082
1574.8002,0.150547
1576.6639,0.156443
1578.5276,0.159330
1580.3912,0.159912
1582.2549,0.161909
1584.1186,0.162618
1585.9822,0.162984
1587.8459,0.162253
1589.7096,0.161235
1591.5733,0.159420
1593.4369,0.157891
1595.3006,0.156070
1597.1643,0.154535
1599.0279,0.153010
1600.8916,0.152266
1602.7553,0.151455
1604.6189,0.151033
1606.4826,0.150505
1608.3463,0.150017
1610.2099,0.148590
1612.0736,0.146893
1613.9373,0.144618
1615.8010,0.141650
1617.6646,0.135835
1619.5283,0.130608
1621.3920,0.125963
1623.2556,0.120022
1625.1193,0.112635
1626.9830,0.106155
1628.8466,0.098279
1630.7103,0.090565
1632.5740,0.084477
1634.4376,0.078658
1636.3013,0.070935
1638.1650,0.066134
1640.0286,0.064207
1641.8923,0.062826
1643.7560,0.062092
1645.6197,0.062333
1647.4833,0.063026
1649.3470,0.063260
1651.2107,0.063801
1653.0743,0.065665
1654.9380,0.066757
1656.8017,0.066177
1658.6653,0.066292
1660.5290,0.066138
1662.3927,0.065550
1664.2563,0.064442
1666.1200,0.063113
1667.9837,0.062608
1669.8474,0.062625
1671.7110,0.062929
1673.5747,0.064044
1675.4384,0.066880
1677.3020,0.070856
1679.1657,0.073698
1681.0294,0.078504
1682.8930,0.082123
1684.7567,0.084855
1686.6204,0.083211
1688.4840,0.080665
1690.3477,0.076810
1692.2114,0.072060
1694.0750,0.067843
1695.9387,0.063408
1697.8024,0.059481
1699.6661,0.056300
1701.5297,0.051253
1703.3934,0.046786
1705.2571,0.041716
1707.1207,0.035477
1708.9844,0.030731
1710.8481,0.027461
1712.7117,0.024640
1714.5754,0.022972
1716.4391,0.021554
1718.3027,0.020216
1720.1664,0.019417
1722.0301,0.018671
1723.8937,0.017844
1725.7574,0.016490
1727.6211,0.015059
1729.4848,0.013973
1731.3484,0.013098
1733.2121,0.011851
1735.0758,0.011081
1736.9394,0.010489
1738.8031,0.010218
1740.6668,0.010383
1742.5304,0.009849
1744.3941,0.009856
1746.2578,0.009415
1748.1214,0.009039
1749.9851,0.008855
1751.8488,0.008688
1753.7125,0.008373
1755.5761,0.008122
1757.4398,0.008453
1759.3035,0.008278
1761.1671,0.008154
1763.0308,0.008443
1764.8945,0.008129
1766.7581,0.007945
1768.6218,0.008134
1770.4855,0.007971
1772.3491,0.008059
1774.2128,0.008292
1776.0765,0.007863
1777.9401,0.008026
1779.8038,0.007944
1781.6675,0.008185
1783.5312,0.008003
1785.3948,0.008300
1787.2585,0.008224
1789.1222,0.008213
1790.9858,0.008209
1792.8495,0.008439
1794.7132,0.008184
1796.5768,0.008084
1798.4405,0.008092
1800.3042,0.008307
1802.1678,0.008528
1804.0315,0.008484
1805.8952,0.008388
1807.7589,0.008530
1809.6225,0.008605
1811.4862,0.008698
1813.3499,0.008364
1815.2135,0.008201
1817.0772,0.008185
1818.9409,0.008309
1820.8045,0.008348
1822.6682,0.008305
1824.5319,0.008197
1826.3955,0.008581
1828.2592,0.008385
1830.1229,0.008577
1831.9865,0.008242
1833.8502,0.007990
1835.7139,0.008183
1837.5776,0.008255
1839.4412,0.007891
1841.3049,0.007786
1843.1686,0.008397
1845.0322,0.008643
1846.8959,0.008111
1848.7596,0.008258
1850.6232,0.008358
1852.4869,0.008495
1854.3506,0.008566
1856.2142,0.008389
1858.0779,0.008370
1859.9416,0.008390
1861.8052,0.008332
1863.6689,0.008263
1865.5326,0.008498
1867.3963,0.008764
1869.2599,0.008972
1871.1236,0.008782
1872.9873,0.008626
1874.8509,0.008768
1876.7146,0.008592
1878.5783,0.008751
1880.4419,0.008935
1882.3056,0.008651
1884.1693,0.008410
1886.0329,0.008450
1887.8966,0.008703
1889.7603,0.009015
1891.6240,0.008683
1893.4876,0.008689
1895.3513,0.008959
1897.2150,0.008948
1899.0786,0.008763
1900.9423,0.008623
1902.8060,0.008749
1904.6696,0.009192
1906.5333,0.009305
1908.3970,0.009156
1910.2606,0.008894
1912.1243,0.009007
1913.9880,0.009444
1915.8516,0.009374
1917.7153,0.009158
1919.5790,0.009098
1921.4427,0.008856
1923.3063,0.009223
1925.1700,0.008999
1927.0337,0.009006
1928.8973,0.009012
1930.7610,0.008988
1932.6247,0.009296
1934.4883,0.008935
1936.3520,0.008412
1938.2157,0.008587
1940.0793,0.008486
1941.9430,0.008595
1943.8067,0.008775
1945.6704,0.008204
1947.5340,0.007505
1949.3977,0.007745
1951.2614,0.008404
1953.1250,0.008745
1954.9887,0.008362
1956.8524,0.007445
1958.7160,0.006675
1960.5797,0.006982
1962.4434,0.006823
1964.3070,0.006303
1966.1707,0.005713
1968.0344,0.005041
1969.8980,0.005080
1971.7617,0.005801
1973.6254,0.005300
1975.4891,0.005898
1977.3527,0.006281
1979.2164,0.006427
1981.0801,0.006837
1982.9437,0.006792
1984.8074,0.007107
1986.6711,0.007190
1988.5347,0.006586
1990.3984,0.007184
1992.2621,0.008415
1994.1257,0.007827
1995.9894,0.007102
1997.8531,0.007449
1999.7167,0.007791
2001.5804,0.007521
2003.4441,0.007774
2005.3078,0.007780
2007.1714,0.007811
2009.0351,0.008944
2010.8988,0.008551
2012.7624,0.007276
2014.6261,0.006767
2016.4898,0.007057
2018.3534,0.007244
2020.2171,0.007258
2022.0808,0.006781
2023.9444,0.007009
2025.8081,0.007716
2027.6718,0.007242
2029.5355,0.006855
2031.3991,0.007847
2033.2628,0.008227
2035.1265,0.007630
2036.9901,0.008136
2038.8538,0.009418
2040.7175,0.010134
2042.5811,0.009581
2044.4448,0.009508
2046.3085,0.009565
2048.1721,0.009262
2050.0358,0.009519
2051.8995,0.010644
2053.7631,0.010900
2055.6268,0.010283
2057.4905,0.010146
2059.3542,0.010156
2061.2178,0.010289
2063.0815,0.010278
2064.9452,0.010555
2066.8088,0.010692
2068.6725,0.010494
2070.5362,0.010838
2072.3998,0.011362
2074.2635,0.011329
2076.1272,0.011315
2077.9908,0.011542
2079.8545,0.011776
2081.7182,0.012036
2083.5819,0.012119
2085.4455,0.011838
2087.3092,0.011555
2089.1729,0.011719
2091.0365,0.012077
2092.9002,0.011833
2094.7639,0.011312
2096.6275,0.011386
2098.4912,0.011942
2100.3549,0.012224
2102.2185,0.011945
2104.0822,0.011614
2105.9459,0.011955
2107.8095,0.012467
2109.6732,0.012283
2111.5369,0.012155
2113.4006,0.012070
2115.2642,0.012465
2117.1279,0.012604
2118.9916,0.012034
2120.8552,0.012335
2122.7189,0.012970
2124.5826,0.012839
2126.4462,0.012363
2128.3099,0.012054
2130.1736,0.011595
2132.0372,0.010795
2133.9009,0.010356
2135.7646,0.010478
2137.6282,0.010906
2139.4919,0.011324
2141.3556,0.012040
2143.2193,0.011931
2145.0829,0.010566
2146.9466,0.009635
2148.8103,0.009690
2150.6739,0.009011
2152.5376,0.007878
2154.4013,0.007367
2156.2649,0.007069
2158.1286,0.007201
2159.9923,0.008341
2161.8559,0.008217
2163.7196,0.007121
2165.5833,0.006505
2167.4470,0.007616
2169.3106,0.008708
2171.1743,0.009080
2173.0380,0.009276
2174.9016,0.009136
2176.7653,0.008569
2178.6290,0.008779
2180.4926,0.009325
2182.3563,0.008737
2184.2200,0.008727
2186.0836,0.009504
2187.9473,0.010025
2189.8110,0.010664
2191.6746,0.010879
2193.5383,0.010551
2195.4020,0.010702
2197.2657,0.012234
2199.1293,0.012181
2200.9930,0.011395
2202.8567,0.011517
2204.7203,0.011773
2206.5840,0.011772
2208.4477,0.011890
2210.3113,0.011942
2212.1750,0.012349
2214.0387,0.013324
2215.9023,0.014207
2217.7660,0.013838
2219.6297,0.012930
2221.4934,0.012943
2223.3570,0.013280
2225.2207,0.013227
2227.0844,0.013501
2228.9480,0.013806
2230.8117,0.013775
2232.6754,0.013940
2234.5390,0.014564
2236.4027,0.014762
2238.2664,0.014572
2240.1300,0.014544
2241.9937,0.014629
2243.8574,0.014233
2245.7210,0.014842
2247.5847,0.015765
2249.4484,0.015254
2251.3121,0.014799
2253.1757,0.015316
2255.0394,0.015674
2256.9031,0.015700
2258.7667,0.016170
2260.6304,0.016493
2262.4941,0.016279
2264.3577,0.016358
2266.2214,0.016076
2268.0851,0.016166
2269.9487,0.016711
2271.8124,0.017020
2273.6761,0.017219
2275.5397,0.017722
2277.4034,0.018196
2279.2671,0.018471
2281.1308,0.018519
2282.9944,0.018755
2284.8581,0.018817
2286.7218,0.018906
2288.5854,0.019255
2290.4491,0.019435
2292.3128,0.019399
2294.1764,0.019374
2296.0401,0.019135
2297.9038,0.018974
2299.7674,0.018723
2301.6311,0.018782
2303.4948,0.019259
2305.3585,0.019603
2307.2221,0.019460
2309.0858,0.019443
2310.9495,0.019833
2312.8131,0.020027
2314.6768,0.019763
2316.5405,0.019795
2318.4041,0.019948
2320.2678,0.020082
2322.1315,0.020176
2323.9951,0.020161
2325.8588,0.019697
2327.7225,0.019088
2329.5861,0.018859
2331.4498,0.019017
2333.3135,0.019141
2335.1772,0.019205
2337.0408,0.019198
2338.9045,0.019269
2340.7682,0.019345
2342.6318,0.019431
2344.4955,0.019428
2346.3592,0.019330
2348.2228,0.018887
2350.0865,0.018606
2351.9502,0.018648
2353.8138,0.018951
2355.6775,0.019371
2357.5412,0.019254
2359.4049,0.019264
2361.2685,0.019818
2363.1322,0.019747
2364.9959,0.019411
2366.8595,0.019084
2368.7232,0.019411
2370.5869,0.019774
2372.4505,0.019723
2374.3142,0.019868
2376.1779,0.020150
2378.0415,0.020377
2379.9052,0.020477
2381.7689,0.020193
2383.6325,0.019994
2385.4962,0.019981
2387.3599,0.019816
2389.2236,0.020001
2391.0872,0.020558
2392.9509,0.020501
2394.8146,0.020204
2396.6782,0.020270
2398.5419,0.020328
2400.4056,0.020193
2402.2692,0.020373
2404.1329,0.020338
2405.9966,0.020243
2407.8602,0.020535
2409.7239,0.021024
2411.5876,0.021051
2413.4512,0.021088
2415.3149,0.021339
2417.1786,0.021383
2419.0423,0.021229
2420.9059,0.021255
2422.7696,0.021644
2424.6333,0.021919
2426.4969,0.021697
2428.3606,0.021681
2430.2243,0.021735
2432.0879,0.022074
2433.9516,0.022129
2435.8153,0.021813
2437.6789,0.021862
2439.5426,0.022183
2441.4063,0.022087
2443.2700,0.022106
2445.1336,0.022063
2446.9973,0.022122
2448.8610,0.022391
2450.7246,0.022461
2452.5883,0.022485
2454.4520,0.022393
2456.3156,0.022263
2458.1793,0.022223
2460.0430,0.021911
2461.9066,0.021811
2463.7703,0.022100
2465.6340,0.022501
2467.4976,0.022456
2469.3613,0.022310
2471.2250,0.022379
2473.0887,0.022746
2474.9523,0.022962
2476.8160,0.023034
2478.6797,0.022775
2480.5433,0.022613
2482.4070,0.022915
2484.2707,0.023048
2486.1343,0.023098
2487.9980,0.023483
2489.8617,0.023677
2491.7253,0.023865
2493.5890,0.023992
2495.4527,0.024210
2497.3164,0.024230
2499.1800,0.024167
2501.0437,0.024146
2502.9074,0.024235
2504.7710,0.024618
2506.6347,0.025001
2508.4984,0.024608
2510.3620,0.024387
2512.2257,0.024313
2514.0894,0.024247
2515.9530,0.024474
2517.8167,0.024854
2519.6804,0.025059
2521.5440,0.025330
2523.4077,0.025257
2525.2714,0.025241
2527.1351,0.025431
2528.9987,0.025647
2530.8624,0.025829
2532.7261,0.026005
2534.5897,0.025875
2536.4534,0.025908
2538.3171,0.025853
2540.1807,0.025797
2542.0444,0.025797
2543.9081,0.025982
2545.7717,0.026154
2547.6354,0.026006
2549.4991,0.025851
2551.3627,0.026202
2553.2264,0.026003
2555.0901,0.025907
2556.9538,0.026234
2558.8174,0.026287
2560.6811,0.026075
2562.5448,0.026341
2564.4084,0.026813
2566.2721,0.026790
2568.1358,0.026907
2569.9994,0.027424
2571.8631,0.027407
2573.7268,0.027227
2575.5904,0.027228
2577.4541,0.027492
2579.3178,0.027803
2581.1815,0.028064
2583.0451,0.028121
2584.9088,0.028036
2586.7725,0.028156
2588.6361,0.028560
2590.4998,0.028873
2592.3635,0.029063
2594.2271,0.029342
2596.0908,0.029740
2597.9545,0.029721
2599.8181,0.029745
2601.6818,0.029838
2603.5455,0.030086
2605.4091,0.030241
2607.2728,0.030256
2609.1365,0.030302
2611.0002,0.030344
2612.8638,0.030359
2614.7275,0.030511
2616.5912,0.030672
2618.4548,0.030659
2620.3185,0.030650
2622.1822,0.030918
2624.0458,0.031193
2625.9095,0.031192
2627.7732,0.031191
2629.6368,0.031421
2631.5005,0.031569
2633.3642,0.031669
2635.2279,0.031806
2637.0915,0.032179
2638.9552,0.032367
2640.8189,0.032380
2642.6825,0.032367
2644.5462,0.032513
2646.4099,0.032689
2648.2735,0.032697
2650.1372,0.032723
2652.0009,0.032862
2653.8645,0.032652
2655.7282,0.032529
2657.5919,0.032584
2659.4555,0.032647
2661.3192,0.032672
2663.1829,0.032710
2665.0466,0.032640
2666.9102,0.032682
2668.7739,0.032813
2670.6376,0.032992
2672.5012,0.033063
2674.3649,0.033250
2676.2286,0.033488
2678.0922,0.033416
2679.9559,0.033411
2681.8196,0.033917
2683.6832,0.034283
2685.5469,0.034424
2687.4106,0.034491
2689.2742,0.034574
2691.1379,0.034907
2693.0016,0.035247
2694.8653,0.035421
2696.7289,0.035547
2698.5926,0.035828
2700.4563,0.036261
2702.3199,0.036486
2704.1836,0.036735
2706.0473,0.037032
2707.9109,0.037224
2709.7746,0.037488
2711.6383,0.037880
2713.5019,0.038008
2715.3656,0.038109
2717.2293,0.038363
2719.0930,0.038505
2720.9566,0.038615
2722.8203,0.038724
2724.6840,0.038883
2726.5476,0.039421
2728.4113,0.039913
2730.2750,0.040064
2732.1386,0.040153
2734.0023,0.040462
2735.8660,0.040622
2737.7296,0.040860
2739.5933,0.041327
2741.4570,0.041555
2743.3206,0.041607
2745.1843,0.041972
2747.0480,0.042544
2748.9117,0.043067
2750.7753,0.043538
2752.6390,0.043950
2754.5027,0.044147
2756.3663,0.044444
2758.2300,0.044761
2760.0937,0.045095
2761.9573,0.045400
2763.8210,0.045940
2765.6847,0.046656
2767.5483,0.047098
2769.4120,0.047303
2771.2757,0.047930
2773.1394,0.048682
2775.0030,0.049364
2776.8667,0.049828
2778.7304,0.050128
2780.5940,0.050404
2782.4577,0.050539
2784.3214,0.050526
2786.1850,0.050472
2788.0487,0.050296
2789.9124,0.050044
2791.7760,0.049638
2793.6397,0.048870
2795.5034,0.048244
2797.3670,0.048019
2799.2307,0.047879
2801.0944,0.047520
2802.9581,0.046978
2804.8217,0.046752
2806.6854,0.046638
2808.5491,0.046498
2810.4127,0.046485
2812.2764,0.046628
2814.1401,0.046406
2816.0037,0.046278
2817.8674,0.046265
2819.7311,0.046335
2821.5947,0.046609
2823.4584,0.046818
2825.3221,0.046743
2827.1857,0.046505
2829.0494,0.046249
2830.9131,0.046065
2832.7768,0.045866
2834.6404,0.045778
2836.5041,0.045910
2838.3678,0.046016
2840.2314,0.046242
2842.0951,0.046697
2843.9588,0.046842
2845.8224,0.047030
2847.6861,0.047562
2849.5498,0.048093
2851.4134,0.048400
2853.2771,0.048890
2855.1408,0.049441
2857.0045,0.050028
2858.8681,0.050530
2860.7318,0.050972
2862.5955,0.051188
2864.4591,0.051131
2866.3228,0.051347
2868.1865,0.051722
2870.0501,0.051797
2871.9138,0.051712
2873.7775,0.052020
2875.6411,0.052560
2877.5048,0.052790
2879.3685,0.052878
2881.2321,0.053305
2883.0958,0.053623
2884.9595,0.053912
2886.8232,0.054328
2888.6868,0.054703
2890.5505,0.055025
2892.4142,0.055354
2894.2778,0.055711
2896.1415,0.056308
2898.0052,0.056744
2899.8688,0.056610
2901.7325,0.056490
2903.5962,0.056572
2905.4598,0.056504
2907.3235,0.056616
2909.1872,0.056857
2911.0509,0.057331
2912.9145,0.057881
2914.7782,0.058360
2916.6419,0.058983
2918.5055,0.059634
2920.3692,0.060105
2922.2329,0.060697
2924.0965,0.061440
2925.9602,0.061900
2927.8239,0.062091
2929.6875,0.062446
2931.5512,0.062904
2933.4149,0.063329
2935.2785,0.063807
2937.1422,0.064174
2939.0059,0.064280
2940.8696,0.064546
2942.7332,0.064741
2944.5969,0.064661
2946.4606,0.064650
2948.3242,0.065118
2950.1879,0.065705
2952.0516,0.066238
2953.9152,0.066550
2955.7789,0.066721
2957.6426,0.066911
2959.5062,0.066981
2961.3699,0.067055
2963.2336,0.067592
2965.0972,0.067997
2966.9609,0.068421
2968.8246,0.068927
2970.6883,0.069712
2972.5519,0.070625
2974.4156,0.071153
2976.2793,0.071511
2978.1429,0.071891
2980.0066,0.072442
2981.8703,0.072823
2983.7339,0.073013
2985.5976,0.073396
2987.4613,0.073878
2989.3249,0.074431
2991.1886,0.074441
2993.0523,0.074537
2994.9160,0.074941
2996.7796,0.075663
2998.6433,0.076502
3000.5070,0.077272
3002.3706,0.077560
3004.2343,0.077826
3006.0980,0.078450
3007.9616,0.079134
3009.8253,0.079724
3011.6890,0.080014
3013.5526,0.080175
3015.4163,0.080658
3017.2800,0.080912
3019.1436,0.081104
3021.0073,0.081620
3022.8710,0.082065
3024.7347,0.081960
3026.5983,0.081898
3028.4620,0.082272
3030.3257,0.082579
3032.1893,0.082341
3034.0530,0.082511
3035.9167,0.082981
3037.7803,0.083238
3039.6440,0.083294
3041.5077,0.083270
3043.3713,0.083198
3045.2350,0.083474
3047.0987,0.084103
3048.9624,0.084562
3050.8260,0.084589
3052.6897,0.084690
3054.5534,0.084671
3056.4170,0.084760
3058.2807,0.084927
3060.1444,0.084967
3062.0080,0.084957
3063.8717,0.084922
3065.7354,0.084502
3067.5990,0.084294
3069.4627,0.084504
3071.3264,0.084712
3073.1900,0.084565
3075.0537,0.084573
3076.9174,0.084121
3078.7811,0.083787
3080.6447,0.083733
3082.5084,0.084119
3084.3721,0.083987
3086.2357,0.083303
3088.0994,0.082982
3089.9631,0.082665
3091.8267,0.082272
3093.6904,0.082399
3095.5541,0.081518
3097.4177,0.079932
3099.2814,0.079286
3101.1451,0.079679
3103.0087,0.079438
3104.8724,0.078490
3106.7361,0.077663
3108.5998,0.077251
3110.4634,0.077020
3112.3271,0.076284
3114.1908,0.075527
3116.0544,0.075340
3117.9181,0.075064
3119.7818,0.074544
3121.6454,0.073756
3123.5091,0.073325
3125.3728,0.072708
3127.2364,0.072084
3129.1001,0.071878
3130.9638,0.071542
3132.8275,0.070832
3134.6911,0.070077
3136.5548,0.070234
3138.4185,0.070253
3140.2821,0.069979
3142.1458,0.069565
3144.0095,0.068958
3145.8731,0.068407
3147.7368,0.068444
3149.6005,0.068548
3151.4641,0.068500
3153.3278,0.068710
3155.1915,0.068376
3157.0551,0.067990
3158.9188,0.067277
3160.7825,0.066845
3162.6462,0.066767
3164.5098,0.067044
3166.3735,0.066560
3168.2372,0.065498
3170.1008,0.065019
3171.9645,0.065052
3173.8282,0.064669
3175.6918,0.063886
3177.5555,0.063385
3179.4192,0.062936
3181.2828,0.062334
3183.1465,0.062420
3185.0102,0.062378
3186.8739,0.061740
3188.7375,0.061770
3190.6012,0.061960
3192.4649,0.061316
3194.3285,0.061029
3196.1922,0.061171
3198.0559,0.061556
3199.9195,0.061911
3201.7832,0.062321
3203.6469,0.062059
3205.5105,0.062067
3207.3742,0.062449
3209.2379,0.062320
3211.1015,0.061903
3212.9652,0.062131
3214.8289,0.062326
3216.6926,0.062120
3218.5562,0.061747
3220.4199,0.061117
3222.2836,0.060338
3224.1472,0.060011
3226.0109,0.059966
3227.8746,0.059871
3229.7382,0.059645
3231.6019,0.059231
3233.4656,0.059441
3235.3292,0.060700
3237.1929,0.060056
3239.0566,0.058960
3240.9202,0.058940
3242.7839,0.059523
3244.6476,0.060304
3246.5113,0.060834
3248.3749,0.060773
3250.2386,0.060754
3252.1023,0.060431
3253.9659,0.060747
3255.8296,0.061647
3257.6933,0.062109
3259.5569,0.062521
3261.4206,0.062374
3263.2843,0.062584
3265.1479,0.062838
3267.0116,0.062285
3268.8753,0.062720
3270.7390,0.063482
3272.6026,0.063385
3274.4663,0.063178
3276.3300,0.063368
3278.1936,0.063070
3280.0573,0.062740
3281.9210,0.062099
3283.7846,0.061913
3285.6483,0.061815
3287.5120,0.061971
3289.3756,0.060919
3291.2393,0.059892
3293.1030,0.059591
3294.9666,0.059417
3296.8303,0.058340
3298.6940,0.057335
3300.5577,0.056751
3302.4213,0.056979
3304.2850,0.056624
3306.1487,0.055665
3308.0123,0.055583
3309.8760,0.055314
3311.7397,0.054690
3313.6033,0.054814
3315.4670,0.054580
3317.3307,0.054524
3319.1943,0.054657
3321.0580,0.055022
3322.9217,0.055433
3324.7854,0.055600
3326.6490,0.055754
3328.5127,0.055240
3330.3764,0.054591
3332.2400,0.054539
3334.1037,0.053899
3335.9674,0.053547
3337.8310,0.053147
3339.6947,0.052151
3341.5584,0.051818
3343.4220,0.051630
3345.2857,0.049776
3347.1494,0.048094
3349.0130,0.047168
3350.8767,0.046549
3352.7404,0.045929
3354.6041,0.045347
3356.4677,0.044507
3358.3314,0.043907
3360.1951,0.043311
3362.0587,0.042787
3363.9224,0.042804
3365.7861,0.042678
3367.6497,0.041042
3369.5134,0.040955
3371.3771,0.042180
3373.2407,0.042058
3375.1044,0.041848
3376.9681,0.042347
3378.8317,0.043098
3380.6954,0.043660
3382.5591,0.043325
3384.4228,0.043487
3386.2864,0.044111
3388.1501,0.044842
3390.0138,0.046878
3391.8774,0.048801
3393.7411,0.049429
3395.6048,0.049387
3397.4684,0.049152
3399.3321,0.049534
3401.1958,0.048494
3403.0594,0.048270
3404.9231,0.048279
3406.7868,0.046329
3408.6505,0.043923
3410.5141,0.042203
3412.3778,0.039939
3414.2415,0.037377
3416.1051,0.036227
3417.9688,0.035666
3419.8325,0.033416
3421.6961,0.031650
3423.5598,0.030362
3425.4235,0.028772
3427.2871,0.027741
3429.1508,0.026949
3431.0145,0.025650
3432.8781,0.025366
3434.7418,0.025154
3436.6055,0.024206
3438.4692,0.023062
3440.3328,0.022693
3442.1965,0.022126
3444.0602,0.020944
3445.9238,0.019951
3447.7875,0.020068
3449.6512,0.019854
3451.5148,0.019978
3453.3785,0.020743
3455.2422,0.019867
3457.1058,0.017940
3458.9695,0.017217
3460.8332,0.017213
3462.6969,0.017174
3464.5605,0.017631
3466.4242,0.017644
3468.2879,0.016921
3470.1515,0.016651
3472.0152,0.016750
3473.8789,0.016345
3475.7425,0.015649
3477.6062,0.015098
3479.4699,0.015422
3481.3335,0.016011
3483.1972,0.014761
3485.0609,0.013958
3486.9245,0.014262
3488.7882,0.013243
3490.6519,0.012899
3492.5156,0.014285
3494.3792,0.014319
3496.2429,0.013461
3498.1066,0.012377
3499.9702,0.011722
3501.8339,0.011534
3503.6976,0.011545
3505.5612,0.011729
3507.4249,0.011076
3509.2886,0.010619
3511.1522,0.010364
3513.0159,0.009887
3514.8796,0.010101
3516.7432,0.010329
3518.6069,0.010289
3520.4706,0.010137
3522.3343,0.010008
3524.1979,0.010398
3526.0616,0.009632
3527.9253,0.008364
3529.7889,0.007999
3531.6526,0.008582
3533.5163,0.009269
3535.3799,0.009154
3537.2436,0.009400
3539.1073,0.009109
3540.9709,0.009042
3542.8346,0.009445
3544.6983,0.008802
3546.5620,0.007533
3548.4256,0.007006
3550.2893,0.006967
3552.1530,0.007312
3554.0166,0.007867
3555.8803,0.008174
3557.7440,0.008233
3559.6076,0.008325
3561.4713,0.008715
3563.3350,0.008219
3565.1986,0.006538
3567.0623,0.006587
3568.9260,0.007278
3570.7896,0.007194
3572.6533,0.007669
3574.5170,0.007513
3576.3807,0.006831
3578.2443,0.006598
3580.1080,0.007047
3581.9717,0.007795
3583.8353,0.007765
3585.6990,0.007654
3587.5627,0.007020
3589.4263,0.006294
3591.2900,0.006093
3593.1537,0.006782
3595.0173,0.007759
3596.8810,0.007516
3598.7447,0.006596
3600.6084,0.006664
3602.4720,0.006631
3604.3357,0.006422
3606.1994,0.006944
3608.0630,0.006782
3609.9267,0.006809
3611.7904,0.007007
3613.6540,0.007061
3615.5177,0.007659
3617.3814,0.007573
3619.2450,0.007858
3621.1087,0.007998
3622.9724,0.007620
3624.8360,0.007169
3626.6997,0.007000
3628.5634,0.006909
3630.4271,0.007571
3632.2907,0.007101
3634.1544,0.007424
3636.0181,0.008199
3637.8817,0.007585
3639.7454,0.007786
3641.6091,0.007908
3643.4727,0.007704
3645.3364,0.007856
3647.2001,0.007316
3649.0637,0.006988
3650.9274,0.007045
3652.7911,0.007220
3654.6547,0.006877
3656.5184,0.007856
3658.3821,0.008489
3660.2458,0.008024
3662.1094,0.008363
3663.9731,0.007735
3665.8368,0.006896
3667.7004,0.006830
3669.5641,0.006907
3671.4278,0.007305
3673.2914,0.007218
3675.1551,0.007174
3677.0188,0.008588
3678.8824,0.008154
3680.7461,0.008207
3682.6098,0.007986
3684.4735,0.007663
3686.3371,0.008170
3688.2008,0.007270
3690.0645,0.006808
3691.9281,0.006661
3693.7918,0.007041
3695.6555,0.007315
3697.5191,0.008058
3699.3828,0.007960
3701.2465,0.007826
3703.1101,0.007902
3704.9738,0.007603
3706.8375,0.007849
3708.7011,0.008530
3710.5648,0.008484
3712.4285,0.008615
3714.2922,0.008186
3716.1558,0.008186
3718.0195,0.008557
3719.8832,0.008343
3721.7468,0.007800
3723.6105,0.008681
3725.4742,0.008758
3727.3378,0.008373
3729.2015,0.008136
3731.0652,0.007813
3732.9288,0.007567
3734.7925,0.007125
3736.6562,0.006906
3738.5199,0.007328
3740.3835,0.007516
3742.2472,0.008035
3744.1109,0.007227
3745.9745,0.008030
3747.8382,0.008204
3749.7019,0.008564
3751.5655,0.007813
3753.4292,0.007400
3755.2929,0.008165
3757.1565,0.008580
3759.0202,0.008731
3760.8839,0.008537
3762.7475,0.008797
3764.6112,0.008801
3766.4749,0.009166
3768.3386,0.008729
3770.2022,0.008616
3772.0659,0.009109
3773.9296,0.008757
3775.7932,0.009166
3777.6569,0.009304
3779.5206,0.009227
3781.3842,0.009380
3783.2479,0.009379
3785.1116,0.009327
3786.9752,0.009054
3788.8389,0.008801
3790.7026,0.009138
3792.5662,0.009110
3794.4299,0.008847
3796.2936,0.008715
3798.1573,0.008988
3800.0209,0.008832
3801.8846,0.009565
3803.7483,0.009627
3805.6119,0.008922
3807.4756,0.009376
3809.3393,0.009451
3811.2029,0.009053
3813.0666,0.009177
3814.9303,0.008572
3816.7939,0.009150
3818.6576,0.009489
3820.5213,0.008898
3822.3850,0.009760
3824.2486,0.009394
3826.1123,0.009392
3827.9760,0.010109
3829.8396,0.009540
3831.7033,0.009183
3833.5670,0.009451
3835.4306,0.009393
3837.2943,0.008939
3839.1580,0.008812
3841.0216,0.009265
3842.8853,0.009379
3844.7490,0.009451
3846.6126,0.009434
3848.4763,0.009659
3850.3400,0.009895
3852.2037,0.009239
3854.0673,0.008775
3855.9310,0.009178
3857.7947,0.009375
3859.6583,0.009617
3861.5220,0.009381
3863.3857,0.009652
3865.2493,0.009763
3867.1130,0.009880
3868.9767,0.009391
3870.8403,0.009953
3872.7040,0.009582
3874.5677,0.009575
3876.4314,0.010181
3878.2950,0.009793
3880.1587,0.009898
3882.0224,0.010350
3883.8860,0.010167
3885.7497,0.009678
3887.6134,0.009945
3889.4770,0.009719
3891.3407,0.010242
3893.2044,0.010165
3895.0680,0.009764
3896.9317,0.009539
3898.7954,0.009339
3900.6590,0.009811
3902.5227,0.010148
3904.3864,0.010102
3906.2501,0.010181
3908.1137,0.009719
3909.9774,0.009933
3911.8411,0.010190
3913.7047,0.010174
3915.5684,0.010135
3917.4321,0.010634
3919.2957,0.010494
3921.1594,0.010736
3923.0231,0.010991
3924.8867,0.010909
3926.7504,0.011278
3928.6141,0.011121
3930.4777,0.010489
3932.3414,0.010120
3934.2051,0.010134
3936.0688,0.010178
3937.9324,0.010306
3939.7961,0.010606
3941.6598,0.010806
3943.5234,0.011169
3945.3871,0.011119
3947.2508,0.010648
3949.1144,0.010509
3950.9781,0.010635
3952.8418,0.010735
3954.7054,0.010982
3956.5691,0.011139
3958.4328,0.011306
3960.2965,0.011178
3962.1601,0.010766
3964.0238,0.010717
3965.8875,0.011103
3967.7511,0.010949
3969.6148,0.010689
3971.4785,0.010588
3973.3421,0.010686
3975.2058,0.011039
3977.0695,0.011188
3978.9331,0.010750
3980.7968,0.010691
3982.6605,0.010911
3984.5241,0.010977
3986.3878,0.010884
3988.2515,0.010818
3990.1152,0.010761
3991.9788,0.011145
3993.8425,0.011301
3995.7062,0.011356
3997.5698,0.011311
3999.4335,0.011234
