Wavenumber,Intensity
650.4205,0.231623
652.2841,0.225630
654.1478,0.217395
656.0115,0.212639
657.8751,0.209231
659.7388,0.207490
661.6025,0.205953
663.4661,0.204443
665.3298,0.202958
667.1935,0.202715
669.0571,0.204269
670.9208,0.204234
672.7845,0.204050
674.6481,0.203700
676.5118,0.201500
678.3755,0.199239
680.2392,0.197473
682.1028,0.194580
683.9665,0.191779
685.8302,0.188940
687.6938,0.186153
689.5575,0.183860
691.4212,0.181587
693.2848,0.179558
695.1485,0.179140
697.0122,0.179045
698.8758,0.179341
700.7395,0.180018
702.6032,0.179435
704.4669,0.177474
706.3305,0.173402
708.1942,0.167084
710.0579,0.159978
711.9215,0.153439
713.7852,0.147347
715.6489,0.141313
717.5125,0.135894
719.3762,0.131338
721.2399,0.127049
723.1035,0.122878
724.9672,0.118160
726.8309,0.113453
728.6945,0.109860
730.5582,0.106040
732.4219,0.101195
734.2856,0.096600
736.1492,0.093719
738.0129,0.092312
739.8766,0.092256
741.7402,0.094007
743.6039,0.096511
745.4676,0.098683
747.3312,0.099326
749.1949,0.098339
751.0586,0.097374
752.9222,0.097096
754.7859,0.096881
756.6496,0.096262
758.5132,0.095615
760.3769,0.095253
762.2406,0.095115
764.1043,0.095296
765.9679,0.096125
767.8316,0.097797
769.6953,0.100188
771.5589,0.103484
773.4226,0.108012
775.2863,0.112570
777.1499,0.113219
779.0136,0.107986
780.8773,0.101208
782.7409,0.097523
784.6046,0.096561
786.4683,0.096895
788.3320,0.098463
790.1956,0.100789
792.0593,0.103254
793.9230,0.105912
795.7866,0.108653
797.6503,0.111419
799.5140,0.114676
801.3776,0.118344
803.2413,0.122503
805.1050,0.127313
806.9686,0.133337
808.8323,0.137195
810.6960,0.130536
812.5596,0.114798
814.4233,0.100616
816.2870,0.092544
818.1507,0.088355
820.0143,0.085924
821.8780,0.084580
823.7417,0.084106
825.6053,0.084840
827.4690,0.087112
829.3327,0.088935
831.1963,0.085366
833.0600,0.076313
834.9237,0.068413
836.7873,0.065149
838.6510,0.065057
840.5147,0.066296
842.3784,0.068421
844.2420,0.070832
846.1057,0.072559
847.9694,0.072243
849.8330,0.069508
851.6967,0.065891
853.5604,0.062361
855.4240,0.058573
857.2877,0.055265
859.1514,0.053199
861.0150,0.052009
862.8787,0.051345
864.7424,0.051306
866.6060,0.051587
868.4697,0.051753
870.3334,0.051813
872.1971,0.052011
874.0607,0.052483
875.9244,0.052950
877.7881,0.053397
879.6517,0.054137
881.5154,0.054939
883.3791,0.055740
885.2427,0.056570
887.1064,0.057448
888.9701,0.058565
890.8337,0.060059
892.6974,0.061920
894.5611,0.063611
896.4247,0.064819
898.2884,0.064962
900.1521,0.063934
902.0158,0.063425
903.8794,0.064570
905.7431,0.067286
907.6068,0.071269
909.4704,0.075998
911.3341,0.081893
913.1978,0.089271
915.0614,0.094124
916.9251,0.089056
918.7888,0.075610
920.6524,0.064724
922.5161,0.060883
924.3798,0.060984
926.2435,0.060635
928.1071,0.057654
929.9708,0.054096
931.8345,0.052423
933.6981,0.052472
935.5618,0.053140
937.4255,0.053958
939.2891,0.054719
941.1528,0.055434
943.0165,0.056171
944.8801,0.056964
946.7438,0.057736
948.6075,0.058617
950.4711,0.059591
952.3348,0.060410
954.1985,0.061248
956.0622,0.062306
957.9258,0.063340
959.7895,0.064311
961.6532,0.065374
963.5168,0.066816
965.3805,0.068517
967.2442,0.070492
969.1078,0.072990
970.9715,0.075799
972.8352,0.078907
974.6988,0.083776
976.5625,0.092083
978.4262,0.106671
980.2899,0.128226
982.1535,0.139787
984.0172,0.118326
985.8809,0.085221
987.7445,0.069761
989.6082,0.067559
991.4719,0.068775
993.3355,0.070951
995.1992,0.073640
997.0629,0.076422
998.9265,0.077836
1000.7902,0.076219
1002.6539,0.072657
1004.5175,0.070127
1006.3812,0.069568
1008.2449,0.070125
1010.1086,0.071152
1011.9722,0.072275
1013.8359,0.073404
1015.6996,0.074552
1017.5632,0.075800
1019.4269,0.077246
1021.2906,0.078881
1023.1542,0.080552
1025.0179,0.082212
1026.8816,0.083966
1028.7452,0.085976
1030.6089,0.088309
1032.4726,0.090823
1034.3362,0.093608
1036.1999,0.096896
1038.0636,0.100879
1039.9273,0.105628
1041.7909,0.111114
1043.6546,0.117556
1045.5183,0.124866
1047.3819,0.132196
1049.2456,0.136892
1051.1093,0.134340
1052.9729,0.122316
1054.8366,0.105270
1056.7003,0.090970
1058.5639,0.083256
1060.4276,0.080843
1062.2913,0.081084
1064.1550,0.082259
1066.0186,0.084164
1067.8823,0.086609
1069.7460,0.089253
1071.6096,0.092124
1073.4733,0.095190
1075.3370,0.098579
1077.2006,0.102559
1079.0643,0.107237
1080.9280,0.112312
1082.7916,0.117060
1084.6553,0.120677
1086.5190,0.122399
1088.3826,0.121885
1090.2463,0.121409
1092.1100,0.123910
1093.9737,0.129516
1095.8373,0.137117
1097.7010,0.146158
1099.5647,0.156023
1101.4283,0.165574
1103.2920,0.172778
1105.1557,0.174971
1107.0193,0.171352
1108.8830,0.162832
1110.7467,0.150982
1112.6103,0.137624
1114.4740,0.124713
1116.3377,0.113659
1118.2014,0.105207
1120.0650,0.099479
1121.9287,0.096300
1123.7924,0.095102
1125.6560,0.095020
1127.5197,0.094996
1129.3834,0.094059
1131.2470,0.091646
1133.1107,0.087754
1134.9744,0.083620
1136.8380,0.080698
1138.7017,0.079438
1140.5654,0.079494
1142.4290,0.080269
1144.2927,0.081329
1146.1564,0.082582
1148.0201,0.084277
1149.8837,0.086391
1151.7474,0.088828
1153.6111,0.091821
1155.4747,0.095524
1157.3384,0.099791
1159.2021,0.103912
1161.0657,0.107075
1162.9294,0.108373
1164.7931,0.107787
1166.6567,0.105869
1168.5204,0.103369
1170.3841,0.101395
1172.2477,0.099889
1174.1114,0.097387
1175.9751,0.092905
1177.8388,0.087623
1179.7024,0.083587
1181.5661,0.081519
1183.4298,0.081001
1185.2934,0.081452
1187.1571,0.082499
1189.0208,0.083597
1190.8844,0.084824
1192.7481,0.086292
1194.6118,0.088228
1196.4754,0.090679
1198.3391,0.093655
1200.2028,0.096622
1202.0665,0.097847
1203.9301,0.095261
1205.7938,0.089998
1207.6575,0.085709
1209.5211,0.084157
1211.3848,0.084321
1213.2485,0.085274
1215.1121,0.086405
1216.9758,0.087545
1218.8395,0.088708
1220.7031,0.089811
1222.5668,0.090771
1224.4305,0.091753
1226.2941,0.092847
1228.1578,0.093918
1230.0215,0.094915
1231.8852,0.095938
1233.7488,0.096956
1235.6125,0.098097
1237.4762,0.099319
1239.3398,0.100625
1241.2035,0.102027
1243.0672,0.103608
1244.9308,0.105287
1246.7945,0.107164
1248.6582,0.109284
1250.5218,0.111572
1252.3855,0.113771
1254.2492,0.115328
1256.1129,0.115576
1257.9765,0.114569
1259.8402,0.113212
1261.7039,0.112695
1263.5675,0.113273
1265.4312,0.114777
1267.2949,0.116429
1269.1585,0.117851
1271.0222,0.119311
1272.8859,0.121056
1274.7495,0.123103
1276.6132,0.125620
1278.4769,0.128246
1280.3405,0.130077
1282.2042,0.129982
1284.0679,0.128285
1285.9316,0.126757
1287.7952,0.126812
1289.6589,0.128490
1291.5226,0.131712
1293.3862,0.136423
1295.2499,0.142295
1297.1136,0.149100
1298.9772,0.157071
1300.8409,0.166335
1302.7046,0.176098
1304.5682,0.183715
1306.4319,0.185053
1308.2956,0.175608
1310.1592,0.156071
1312.0229,0.135711
1313.8866,0.122500
1315.7503,0.116433
1317.6139,0.114051
1319.4776,0.113365
1321.3413,0.114331
1323.2049,0.117358
1325.0686,0.122279
1326.9323,0.127864
1328.7959,0.133150
1330.6596,0.137169
1332.5233,0.138775
1334.3869,0.136924
1336.2506,0.132343
1338.1143,0.126421
1339.9780,0.120626
1341.8416,0.115569
1343.7053,0.112501
1345.5690,0.111769
1347.4326,0.112766
1349.2963,0.115302
1351.1600,0.118982
1353.0236,0.123572
1354.8873,0.129253
1356.7510,0.134443
1358.6146,0.137623
1360.4783,0.138216
1362.3420,0.137313
1364.2056,0.136170
1366.0693,0.136187
1367.9330,0.139274
1369.7967,0.144046
1371.6603,0.148360
1373.5240,0.154535
1375.3877,0.161715
1377.2513,0.166606
1379.1150,0.172713
1380.9787,0.180234
1382.8423,0.187665
1384.7060,0.195657
1386.5697,0.206115
1388.4333,0.218441
1390.2970,0.224963
1392.1607,0.228772
1394.0244,0.231399
1395.8880,0.229645
1397.7517,0.222536
1399.6154,0.213956
1401.4790,0.205931
1403.3427,0.198440
1405.2064,0.187665
1407.0700,0.171643
1408.9337,0.154082
1410.7974,0.136589
1412.6610,0.123304
1414.5247,0.116681
1416.3884,0.115709
1418.2520,0.117569
1420.1157,0.121031
1421.9794,0.121674
1423.8431,0.118030
1425.7067,0.107481
1427.5704,0.096122
1429.4341,0.088870
1431.2977,0.085608
1433.1614,0.084989
1435.0251,0.086719
1436.8887,0.091540
1438.7524,0.094952
1440.6161,0.096110
1442.4797,0.099035
1444.3434,0.102048
1446.2071,0.105717
1448.0707,0.109410
1449.9344,0.108918
1451.7981,0.101727
1453.6618,0.093329
1455.5254,0.089974
1457.3891,0.095560
1459.2528,0.099298
1461.1164,0.099147
1462.9801,0.100208
1464.8438,0.102985
1466.7074,0.103399
1468.5711,0.101687
1470.4348,0.101153
1472.2984,0.103995
1474.1621,0.107059
1476.0258,0.107481
1477.8895,0.108332
1479.7531,0.108829
1481.6168,0.110126
1483.4805,0.110365
1485.3441,0.109360
1487.2078,0.108800
1489.0715,0.108618
1490.9351,0.107506
1492.7988,0.103880
1494.6625,0.101146
1496.5261,0.100389
1498.3898,0.099352
1500.2535,0.097182
1502.1171,0.094448
1503.9808,0.092260
1505.8445,0.093880
1507.7082,0.099614
1509.5718,0.098086
1511.4355,0.096871
1513.2992,0.096933
1515.1628,0.097303
1517.0265,0.099395
1518.8902,0.100194
1520.7538,0.101876
1522.6175,0.105990
1524.4812,0.105910
1526.3448,0.107779
1528.2085,0.109126
1530.0722,0.109306
1531.9359,0.110907
1533.7995,0.115218
1535.6632,0.115512
1537.5269,0.114387
1539.3905,0.119598
1541.2542,0.129074
1543.1179,0.131270
1544.9815,0.133888
1546.8452,0.135646
1548.7089,0.137528
1550.5725,0.141999
1552.4362,0.144492
1554.2999,0.147007
1556.1635,0.149842
1558.0272,0.156647
1559.8909,0.175633
1561.7546,0.172442
1563.6182,0.171264
1565.4819,0.175019
1567.3456,0.178848
1569.2092,0.185086
1571.0729,0.192302
1572.9366,0.193462
1574.8002,0.197959
1576.6639,0.208159
1578.5276,0.212883
1580.3912,0.213276
1582.2549,0.215942
1584.1186,0.217247
1585.9822,0.217615
1587.8459,0.216103
1589.7096,0.214061
1591.5733,0.211145
1593.4369,0.208818
1595.3006,0.206356
1597.1643,0.204901
1599.0279,0.203603
1600.8916,0.203536
1602.7553,0.203603
1604.6189,0.204265
1606.4826,0.204658
1608.3463,0.205296
1610.2099,0.204248
1612.0736,0.202358
1613.9373,0.198800
1615.8010,0.195250
1617.6646,0.189209
1619.5283,0.182327
1621.3920,0.175622
1623.2556,0.167683
1625.1193,0.157657
1626.9830,0.148873
1628.8466,0.138143
1630.7103,0.127575
1632.5740,0.118436
1634.4376,0.109972
1636.3013,0.099760
1638.1650,0.093512
1640.0286,0.090432
1641.8923,0.087694
1643.7560,0.085501
1645.6197,0.085089
1647.4833,0.085293
1649.3470,0.084770
1651.2107,0.084680
1653.0743,0.086829
1654.9380,0.087460
1656.8017,0.086621
1658.6653,0.086245
1660.5290,0.085319
1662.3927,0.084317
1664.2563,0.082989
1666.1200,0.081362
1667.9837,0.080597
1669.8474,0.080926
1671.7110,0.081848
1673.5747,0.083588
1675.4384,0.088469
1677.3020,0.094071
1679.1657,0.098297
1681.0294,0.104478
1682.8930,0.109081
1684.7567,0.113563
1686.6204,0.111231
1688.4840,0.106706
1690.3477,0.100332
1692.2114,0.092920
1694.0750,0.086035
1695.9387,0.079326
1697.8024,0.073254
1699.6661,0.069627
1701.5297,0.063513
1703.3934,0.057935
1705.2571,0.051966
1707.1207,0.043732
1708.9844,0.037954
1710.8481,0.034052
1712.7117,0.030874
1714.5754,0.028850
1716.4391,0.026893
1718.3027,0.025432
1720.1664,0.024417
1722.0301,0.023822
1723.8937,0.022899
1725.7574,0.020893
1727.6211,0.019053
1729.4848,0.017557
1731.3484,0.016242
1733.2121,0.015238
1735.0758,0.014212
1736.9394,0.012960
1738.8031,0.013134
1740.6668,0.013005
1742.5304,0.012676
1744.3941,0.012744
1746.2578,0.012143
1748.1214,0.011833
1749.9851,0.011448
1751.8488,0.010993
1753.7125,0.010796
1755.5761,0.011007
1757.4398,0.011156
1759.3035,0.010498
1761.1671,0.010753
1763.0308,0.010952
1764.8945,0.010667
1766.7581,0.010671
1768.6218,0.010662
1770.4855,0.010366
1772.3491,0.010667
1774.2128,0.010388
1776.0765,0.010324
1777.9401,0.010561
1779.8038,0.010712
1781.6675,0.011059
1783.5312,0.010933
1785.3948,0.011092
1787.2585,0.010935
1789.1222,0.011085
1790.9858,0.011196
1792.8495,0.011127
1794.7132,0.010640
1796.5768,0.010759
1798.4405,0.010950
1800.3042,0.011184
1802.1678,0.011282
1804.0315,0.011160
1805.8952,0.011085
1807.7589,0.011245
1809.6225,0.011355
1811.4862,0.011391
1813.3499,0.011119
1815.2135,0.011087
1817.0772,0.011188
1818.9409,0.011124
1820.8045,0.011103
1822.6682,0.011263
1824.5319,0.011308
1826.3955,0.011203
1828.2592,0.011163
1830.1229,0.011585
1831.9865,0.011019
1833.8502,0.011021
1835.7139,0.011304
1837.5776,0.011149
1839.4412,0.010807
1841.3049,0.010885
1843.1686,0.011393
1845.0322,0.011320
1846.8959,0.010800
1848.7596,0.011443
1850.6232,0.011379
1852.4869,0.011120
1854.3506,0.011122
1856.2142,0.011486
1858.0779,0.011837
1859.9416,0.011706
1861.8052,0.011613
1863.6689,0.011671
1865.5326,0.011643
1867.3963,0.011650
1869.2599,0.011629
1871.1236,0.011574
1872.9873,0.011757
1874.8509,0.011775
1876.7146,0.011714
1878.5783,0.011861
1880.4419,0.011776
1882.3056,0.011771
1884.1693,0.011857
1886.0329,0.011840
1887.8966,0.012067
1889.7603,0.012280
1891.6240,0.011728
1893.4876,0.011571
1895.3513,0.011750
1897.2150,0.012140
1899.0786,0.012304
1900.9423,0.012129
1902.8060,0.012202
1904.6696,0.012214
1906.5333,0.012151
1908.3970,0.012277
1910.2606,0.012306
1912.1243,0.012226
1913.9880,0.012238
1915.8516,0.012104
1917.7153,0.012319
1919.5790,0.012280
1921.4427,0.012257
1923.3063,0.012355
1925.1700,0.011658
1927.0337,0.011658
1928.8973,0.011986
1930.7610,0.011826
1932.6247,0.011718
1934.4883,0.011778
1936.3520,0.011967
1938.2157,0.012042
1940.0793,0.011681
1941.9430,0.011560
1943.8067,0.011312
1945.6704,0.011017
1947.5340,0.011179
1949.3977,0.011272
1951.2614,0.010768
1953.1250,0.010642
1954.9887,0.011378
1956.8524,0.011256
1958.7160,0.009897
1960.5797,0.008620
1962.4434,0.008765
1964.3070,0.008543
1966.1707,0.008116
1968.0344,0.008083
1969.8980,0.006863
1971.7617,0.006210
1973.6254,0.007023
1975.4891,0.007645
1977.3527,0.007728
1979.2164,0.008909
1981.0801,0.009676
1982.9437,0.009423
1984.8074,0.009511
1986.6711,0.009708
1988.5347,0.010160
1990.3984,0.010627
1992.2621,0.010896
1994.1257,0.011084
1995.9894,0.011234
1997.8531,0.010863
1999.7167,0.010554
2001.5804,0.010330
2003.4441,0.009716
2005.3078,0.009523
2007.1714,0.010092
2009.0351,0.010781
2010.8988,0.010600
2012.7624,0.009974
2014.6261,0.009217
2016.4898,0.009224
2018.3534,0.010051
2020.2171,0.010069
2022.0808,0.009465
2023.9444,0.009309
2025.8081,0.009940
2027.6718,0.009877
2029.5355,0.010465
2031.3991,0.011736
2033.2628,0.011387
2035.1265,0.010776
2036.9901,0.011238
2038.8538,0.011627
2040.7175,0.012060
2042.5811,0.012822
2044.4448,0.013054
2046.3085,0.013197
2048.1721,0.013723
2050.0358,0.014228
2051.8995,0.014488
2053.7631,0.014270
2055.6268,0.013988
2057.4905,0.014259
2059.3542,0.015093
2061.2178,0.014842
2063.0815,0.014795
2064.9452,0.015196
2066.8088,0.014434
2068.6725,0.014547
2070.5362,0.015319
2072.3998,0.015187
2074.2635,0.014890
2076.1272,0.014765
2077.9908,0.015085
2079.8545,0.015708
2081.7182,0.016098
2083.5819,0.015974
2085.4455,0.016040
2087.3092,0.016376
2089.1729,0.016357
2091.0365,0.015961
2092.9002,0.015959
2094.7639,0.015995
2096.6275,0.015824
2098.4912,0.015650
2100.3549,0.015954
2102.2185,0.016052
2104.0822,0.016109
2105.9459,0.016740
2107.8095,0.017105
2109.6732,0.016880
2111.5369,0.016432
2113.4006,0.016089
2115.2642,0.016516
2117.1279,0.017141
2118.9916,0.017128
2120.8552,0.016630
2122.7189,0.016596
2124.5826,0.016643
2126.4462,0.016323
2128.3099,0.016006
2130.1736,0.015696
2132.0372,0.015146
2133.9009,0.014679
2135.7646,0.013705
2137.6282,0.013633
2139.4919,0.014535
2141.3556,0.014545
2143.2193,0.013767
2145.0829,0.013157
2146.9466,0.012839
2148.8103,0.012095
2150.6739,0.010733
2152.5376,0.010643
2154.4013,0.010888
2156.2649,0.009988
2158.1286,0.008559
2159.9923,0.008341
2161.8559,0.009022
2163.7196,0.009514
2165.5833,0.009995
2167.4470,0.010585
2169.3106,0.010534
2171.1743,0.011086
2173.0380,0.010858
2174.9016,0.011346
2176.7653,0.012342
2178.6290,0.012306
2180.4926,0.012125
2182.3563,0.011953
2184.2200,0.011560
2186.0836,0.012029
2187.9473,0.013539
2189.8110,0.014693
2191.6746,0.014168
2193.5383,0.013780
2195.4020,0.014275
2197.2657,0.015323
2199.1293,0.016106
2200.9930,0.016103
2202.8567,0.016211
2204.7203,0.016359
2206.5840,0.015585
2208.4477,0.015879
2210.3113,0.017060
2212.1750,0.017295
2214.0387,0.016425
2215.9023,0.016668
2217.7660,0.017207
2219.6297,0.016949
2221.4934,0.016955
2223.3570,0.017177
2225.2207,0.017026
2227.0844,0.017261
2228.9480,0.018385
2230.8117,0.019723
2232.6754,0.019467
2234.5390,0.018305
2236.4027,0.018040
2238.2664,0.018849
2240.1300,0.019107
2241.9937,0.019371
2243.8574,0.020116
2245.7210,0.020436
2247.5847,0.020423
2249.4484,0.020538
2251.3121,0.021068
2253.1757,0.021474
2255.0394,0.021099
2256.9031,0.021192
2258.7667,0.021265
2260.6304,0.021354
2262.4941,0.021341
2264.3577,0.021381
2266.2214,0.021827
2268.0851,0.022250
2269.9487,0.022354
2271.8124,0.022892
2273.6761,0.023529
2275.5397,0.023801
2277.4034,0.024064
2279.2671,0.024495
2281.1308,0.024911
2282.9944,0.025205
2284.8581,0.025430
2286.7218,0.025736
2288.5854,0.025693
2290.4491,0.025551
2292.3128,0.025758
2294.1764,0.025905
2296.0401,0.025800
2297.9038,0.025566
2299.7674,0.025521
2301.6311,0.026043
2303.4948,0.026477
2305.3585,0.026464
2307.2221,0.026528
2309.0858,0.026598
2310.9495,0.026475
2312.8131,0.026417
2314.6768,0.026347
2316.5405,0.026703
2318.4041,0.026868
2320.2678,0.026907
2322.1315,0.027127
2323.9951,0.027160
2325.8588,0.026667
2327.7225,0.026016
2329.5861,0.025847
2331.4498,0.025907
2333.3135,0.025654
2335.1772,0.025566
2337.0408,0.025506
2338.9045,0.025634
2340.7682,0.025892
2342.6318,0.026384
2344.4955,0.026627
2346.3592,0.026418
2348.2228,0.026005
2350.0865,0.025691
2351.9502,0.025424
2353.8138,0.025491
2355.6775,0.025754
2357.5412,0.025938
2359.4049,0.025842
2361.2685,0.026141
2363.1322,0.026077
2364.9959,0.025932
2366.8595,0.026356
2368.7232,0.026784
2370.5869,0.026959
2372.4505,0.027103
2374.3142,0.027266
2376.1779,0.027341
2378.0415,0.027362
2379.9052,0.027424
2381.7689,0.027467
2383.6325,0.027630
2385.4962,0.027809
2387.3599,0.027839
2389.2236,0.027720
2391.0872,0.027805
2392.9509,0.027691
2394.8146,0.027678
2396.6782,0.027874
2398.5419,0.028268
2400.4056,0.028486
2402.2692,0.028564
2404.1329,0.028302
2405.9966,0.027966
2407.8602,0.028204
2409.7239,0.028501
2411.5876,0.028436
2413.4512,0.028691
2415.3149,0.028603
2417.1786,0.028622
2419.0423,0.028942
2420.9059,0.029288
2422.7696,0.029405
2424.6333,0.029640
2426.4969,0.029779
2428.3606,0.029631
2430.2243,0.029358
2432.0879,0.029582
2433.9516,0.029893
2435.8153,0.029839
2437.6789,0.029812
2439.5426,0.030081
2441.4063,0.030416
2443.2700,0.030414
2445.1336,0.030248
2446.9973,0.030424
2448.8610,0.030327
2450.7246,0.030281
2452.5883,0.030638
2454.4520,0.031004
2456.3156,0.030789
2458.1793,0.030484
2460.0430,0.030440
2461.9066,0.030460
2463.7703,0.030453
2465.6340,0.030587
2467.4976,0.030577
2469.3613,0.030750
2471.2250,0.030902
2473.0887,0.031296
2474.9523,0.031488
2476.8160,0.031542
2478.6797,0.031585
2480.5433,0.031671
2482.4070,0.031895
2484.2707,0.032335
2486.1343,0.032594
2487.9980,0.032507
2489.8617,0.032762
2491.7253,0.033051
2493.5890,0.032926
2495.4527,0.033236
2497.3164,0.033347
2499.1800,0.033216
2501.0437,0.033404
2502.9074,0.033645
2504.7710,0.033480
2506.6347,0.033534
2508.4984,0.033953
2510.3620,0.033928
2512.2257,0.033778
2514.0894,0.034204
2515.9530,0.034530
2517.8167,0.034586
2519.6804,0.034637
2521.5440,0.034585
2523.4077,0.034856
2525.2714,0.035236
2527.1351,0.035043
2528.9987,0.034828
2530.8624,0.035230
2532.7261,0.035574
2534.5897,0.035583
2536.4534,0.035627
2538.3171,0.036003
2540.1807,0.036397
2542.0444,0.036367
2543.9081,0.036316
2545.7717,0.036330
2547.6354,0.036144
2549.4991,0.035808
2551.3627,0.035708
2553.2264,0.035809
2555.0901,0.035966
2556.9538,0.036081
2558.8174,0.036268
2560.6811,0.036419
2562.5448,0.036420
2564.4084,0.036771
2566.2721,0.037129
2568.1358,0.036891
2569.9994,0.036724
2571.8631,0.037237
2573.7268,0.038075
2575.5904,0.038461
2577.4541,0.038535
2579.3178,0.038728
2581.1815,0.038896
2583.0451,0.038952
2584.9088,0.039105
2586.7725,0.039560
2588.6361,0.040025
2590.4998,0.040053
2592.3635,0.040202
2594.2271,0.040438
2596.0908,0.040533
2597.9545,0.040590
2599.8181,0.041021
2601.6818,0.041334
2603.5455,0.041559
2605.4091,0.041823
2607.2728,0.041823
2609.1365,0.041878
2611.0002,0.042222
2612.8638,0.042251
2614.7275,0.042009
2616.5912,0.041993
2618.4548,0.042421
2620.3185,0.042652
2622.1822,0.042711
2624.0458,0.042925
2625.9095,0.043124
2627.7732,0.043334
2629.6368,0.043374
2631.5005,0.043589
2633.3642,0.043744
2635.2279,0.043715
2637.0915,0.044009
2638.9552,0.044333
2640.8189,0.044576
2642.6825,0.044582
2644.5462,0.044386
2646.4099,0.044412
2648.2735,0.044699
2650.1372,0.044731
2652.0009,0.044702
2653.8645,0.044510
2655.7282,0.044313
2657.5919,0.044320
2659.4555,0.044392
2661.3192,0.044293
2663.1829,0.044066
2665.0466,0.044114
2666.9102,0.044319
2668.7739,0.044364
2670.6376,0.044416
2672.5012,0.044544
2674.3649,0.044708
2676.2286,0.045050
2678.0922,0.045408
2679.9559,0.045757
2681.8196,0.046096
2683.6832,0.046354
2685.5469,0.046479
2687.4106,0.046709
2689.2742,0.047053
2691.1379,0.047333
2693.0016,0.047650
2694.8653,0.047997
2696.7289,0.048311
2698.5926,0.048662
2700.4563,0.048949
2702.3199,0.049253
2704.1836,0.049506
2706.0473,0.049736
2707.9109,0.050067
2709.7746,0.050436
2711.6383,0.050813
2713.5019,0.051145
2715.3656,0.051366
2717.2293,0.051537
2719.0930,0.051674
2720.9566,0.051733
2722.8203,0.052175
2724.6840,0.052601
2726.5476,0.052776
2728.4113,0.053096
2730.2750,0.053405
2732.1386,0.053618
2734.0023,0.053932
2735.8660,0.054275
2737.7296,0.054644
2739.5933,0.054994
2741.4570,0.055033
2743.3206,0.055087
2745.1843,0.055436
2747.0480,0.055781
2748.9117,0.056263
2750.7753,0.056943
2752.6390,0.057523
2754.5027,0.057866
2756.3663,0.058035
2758.2300,0.058610
2760.0937,0.059315
2761.9573,0.059914
2763.8210,0.060533
2765.6847,0.061084
2767.5483,0.061629
2769.4120,0.062487
2771.2757,0.063212
2773.1394,0.063729
2775.0030,0.064524
2776.8667,0.065362
2778.7304,0.065549
2780.5940,0.065464
2782.4577,0.065537
2784.3214,0.065409
2786.1850,0.065184
2788.0487,0.064899
2789.9124,0.064576
2791.7760,0.064250
2793.6397,0.063693
2795.5034,0.063115
2797.3670,0.062537
2799.2307,0.062323
2801.0944,0.062058
2802.9581,0.061377
2804.8217,0.061002
2806.6854,0.060921
2808.5491,0.060525
2810.4127,0.060403
2812.2764,0.060672
2814.1401,0.060751
2816.0037,0.060618
2817.8674,0.060837
2819.7311,0.060929
2821.5947,0.061214
2823.4584,0.061438
2825.3221,0.061340
2827.1857,0.060973
2829.0494,0.060796
2830.9131,0.060594
2832.7768,0.060143
2834.6404,0.059917
2836.5041,0.060175
2838.3678,0.060648
2840.2314,0.061295
2842.0951,0.061660
2843.9588,0.061836
2845.8224,0.062111
2847.6861,0.062389
2849.5498,0.062979
2851.4134,0.063789
2853.2771,0.064333
2855.1408,0.064781
2857.0045,0.065533
2858.8681,0.066185
2860.7318,0.066471
2862.5955,0.067069
2864.4591,0.067575
2866.3228,0.067712
2868.1865,0.067567
2870.0501,0.067329
2871.9138,0.067461
2873.7775,0.068205
2875.6411,0.068701
2877.5048,0.068531
2879.3685,0.068588
2881.2321,0.069121
2883.0958,0.069705
2884.9595,0.070270
2886.8232,0.070579
2888.6868,0.071005
2890.5505,0.071462
2892.4142,0.071759
2894.2778,0.072107
2896.1415,0.072786
2898.0052,0.073210
2899.8688,0.073197
2901.7325,0.073101
2903.5962,0.072805
2905.4598,0.072615
2907.3235,0.072998
2909.1872,0.073789
2911.0509,0.074145
2912.9145,0.074520
2914.7782,0.075493
2916.6419,0.076527
2918.5055,0.077261
2920.3692,0.077783
2922.2329,0.078440
2924.0965,0.078802
2925.9602,0.079405
2927.8239,0.080178
2929.6875,0.080578
2931.5512,0.080931
2933.4149,0.081554
2935.2785,0.081895
2937.1422,0.082217
2939.0059,0.082499
2940.8696,0.082640
2942.7332,0.082927
2944.5969,0.083405
2946.4606,0.083452
2948.3242,0.083366
2950.1879,0.083715
2952.0516,0.084016
2953.9152,0.084203
2955.7789,0.084560
2957.6426,0.084957
2959.5062,0.085064
2961.3699,0.084993
2963.2336,0.085300
2965.0972,0.086039
2966.9609,0.087207
2968.8246,0.087939
2970.6883,0.088353
2972.5519,0.089062
2974.4156,0.090004
2976.2793,0.090834
2978.1429,0.091292
2980.0066,0.091306
2981.8703,0.091744
2983.7339,0.092228
2985.5976,0.092400
2987.4613,0.092617
2989.3249,0.092885
2991.1886,0.093012
2993.0523,0.093387
2994.9160,0.094131
2996.7796,0.095283
2998.6433,0.096153
3000.5070,0.096816
3002.3706,0.097211
3004.2343,0.097825
3006.0980,0.098418
3007.9616,0.098834
3009.8253,0.099313
3011.6890,0.100102
3013.5526,0.100730
3015.4163,0.101153
3017.2800,0.101435
3019.1436,0.101479
3021.0073,0.101547
3022.8710,0.101600
3024.7347,0.101821
3026.5983,0.102299
3028.4620,0.102243
3030.3257,0.102076
3032.1893,0.102178
3034.0530,0.102720
3035.9167,0.103035
3037.7803,0.103305
3039.6440,0.103226
3041.5077,0.103130
3043.3713,0.103461
3045.2350,0.103952
3047.0987,0.104015
3048.9624,0.104427
3050.8260,0.104545
3052.6897,0.104550
3054.5534,0.104777
3056.4170,0.104723
3058.2807,0.104778
3060.1444,0.105037
3062.0080,0.104850
3063.8717,0.104723
3065.7354,0.104957
3067.5990,0.105170
3069.4627,0.105249
3071.3264,0.105286
3073.1900,0.104987
3075.0537,0.104669
3076.9174,0.104544
3078.7811,0.104252
3080.6447,0.103740
3082.5084,0.103656
3084.3721,0.103557
3086.2357,0.103334
3088.0994,0.102946
3089.9631,0.102570
3091.8267,0.101839
3093.6904,0.101412
3095.5541,0.100824
3097.4177,0.100322
3099.2814,0.099490
3101.1451,0.098743
3103.0087,0.098097
3104.8724,0.097383
3106.7361,0.096354
3108.5998,0.095861
3110.4634,0.095899
3112.3271,0.095321
3114.1908,0.094015
3116.0544,0.093399
3117.9181,0.093253
3119.7818,0.092943
3121.6454,0.092256
3123.5091,0.091825
3125.3728,0.090880
3127.2364,0.089990
3129.1001,0.089531
3130.9638,0.089141
3132.8275,0.088535
3134.6911,0.088245
3136.5548,0.087920
3138.4185,0.087660
3140.2821,0.087463
3142.1458,0.087105
3144.0095,0.086971
3145.8731,0.087287
3147.7368,0.087208
3149.6005,0.086824
3151.4641,0.086493
3153.3278,0.086643
3155.1915,0.086636
3157.0551,0.086468
3158.9188,0.086151
3160.7825,0.085634
3162.6462,0.084955
3164.5098,0.085042
3166.3735,0.084918
3168.2372,0.084582
3170.1008,0.083773
3171.9645,0.082989
3173.8282,0.082064
3175.6918,0.081493
3177.5555,0.081134
3179.4192,0.080760
3181.2828,0.079910
3183.1465,0.078966
3185.0102,0.078471
3186.8739,0.078110
3188.7375,0.077988
3190.6012,0.078121
3192.4649,0.077867
3194.3285,0.077810
3196.1922,0.078237
3198.0559,0.078299
3199.9195,0.078201
3201.7832,0.078845
3203.6469,0.079011
3205.5105,0.079120
3207.3742,0.079456
3209.2379,0.079488
3211.1015,0.078950
3212.9652,0.078294
3214.8289,0.078065
3216.6926,0.077864
3218.5562,0.077008
3220.4199,0.076025
3222.2836,0.075572
3224.1472,0.075371
3226.0109,0.074320
3227.8746,0.073326
3229.7382,0.073029
3231.6019,0.073086
3233.4656,0.072876
3235.3292,0.072938
3237.1929,0.072692
3239.0566,0.073107
3240.9202,0.073888
3242.7839,0.073713
3244.6476,0.073163
3246.5113,0.073355
3248.3749,0.073597
3250.2386,0.074318
3252.1023,0.075052
3253.9659,0.075627
3255.8296,0.075573
3257.6933,0.075622
3259.5569,0.076436
3261.4206,0.077665
3263.2843,0.077375
3265.1479,0.077154
3267.0116,0.077524
3268.8753,0.077842
3270.7390,0.077820
3272.6026,0.077887
3274.4663,0.077536
3276.3300,0.077103
3278.1936,0.077005
3280.0573,0.077567
3281.9210,0.076777
3283.7846,0.075445
3285.6483,0.075098
3287.5120,0.075176
3289.3756,0.074022
3291.2393,0.072733
3293.1030,0.071974
3294.9666,0.071721
3296.8303,0.071416
3298.6940,0.071151
3300.5577,0.070385
3302.4213,0.069868
3304.2850,0.069631
3306.1487,0.069167
3308.0123,0.068566
3309.8760,0.068557
3311.7397,0.067989
3313.6033,0.067124
3315.4670,0.066677
3317.3307,0.067110
3319.1943,0.067352
3321.0580,0.067248
3322.9217,0.066580
3324.7854,0.066456
3326.6490,0.066980
3328.5127,0.067524
3330.3764,0.067476
3332.2400,0.067153
3334.1037,0.066470
3335.9674,0.065491
3337.8310,0.064419
3339.6947,0.063566
3341.5584,0.062722
3343.4220,0.061611
3345.2857,0.059787
3347.1494,0.058712
3349.0130,0.057300
3350.8767,0.056050
3352.7404,0.055593
3354.6041,0.055167
3356.4677,0.054485
3358.3314,0.053376
3360.1951,0.051600
3362.0587,0.050750
3363.9224,0.050393
3365.7861,0.050673
3367.6497,0.051445
3369.5134,0.052289
3371.3771,0.052372
3373.2407,0.052405
3375.1044,0.052207
3376.9681,0.051772
3378.8317,0.051434
3380.6954,0.052845
3382.5591,0.054290
3384.4228,0.055415
3386.2864,0.056662
3388.1501,0.057996
3390.0138,0.059100
3391.8774,0.060750
3393.7411,0.062044
3395.6048,0.062783
3397.4684,0.063404
3399.3321,0.063266
3401.1958,0.062710
3403.0594,0.062805
3404.9231,0.061855
3406.7868,0.059797
3408.6505,0.056518
3410.5141,0.053175
3412.3778,0.050507
3414.2415,0.047839
3416.1051,0.044240
3417.9688,0.041856
3419.8325,0.040578
3421.6961,0.039233
3423.5598,0.037295
3425.4235,0.034515
3427.2871,0.032512
3429.1508,0.032207
3431.0145,0.030948
3432.8781,0.029449
3434.7418,0.028604
3436.6055,0.028122
3438.4692,0.027156
3440.3328,0.026184
3442.1965,0.025596
3444.0602,0.025308
3445.9238,0.025024
3447.7875,0.025082
3449.6512,0.024076
3451.5148,0.023442
3453.3785,0.023515
3455.2422,0.023534
3457.1058,0.022339
3458.9695,0.021285
3460.8332,0.021213
3462.6969,0.021200
3464.5605,0.019998
3466.4242,0.019753
3468.2879,0.020852
3470.1515,0.020921
3472.0152,0.020067
3473.8789,0.018852
3475.7425,0.018116
3477.6062,0.019077
3479.4699,0.018888
3481.3335,0.017479
3483.1972,0.016935
3485.0609,0.017452
3486.9245,0.017076
3488.7882,0.016350
3490.6519,0.016513
3492.5156,0.017500
3494.3792,0.017209
3496.2429,0.016293
3498.1066,0.015283
3499.9702,0.014917
3501.8339,0.015351
3503.6976,0.015753
3505.5612,0.014164
3507.4249,0.012521
3509.2886,0.012724
3511.1522,0.013134
3513.0159,0.012324
3514.8796,0.012814
3516.7432,0.012891
3518.6069,0.012149
3520.4706,0.011575
3522.3343,0.011656
3524.1979,0.012133
3526.0616,0.012242
3527.9253,0.011156
3529.7889,0.009900
3531.6526,0.010126
3533.5163,0.011757
3535.3799,0.011377
3537.2436,0.010905
3539.1073,0.011082
3540.9709,0.010490
3542.8346,0.009207
3544.6983,0.009654
3546.5620,0.010521
3548.4256,0.010317
3550.2893,0.009546
3552.1530,0.010359
3554.0166,0.011327
3555.8803,0.010952
3557.7440,0.010290
3559.6076,0.009878
3561.4713,0.009210
3563.3350,0.009487
3565.1986,0.009421
3567.0623,0.008755
3568.9260,0.008343
3570.7896,0.008879
3572.6533,0.009616
3574.5170,0.009851
3576.3807,0.009522
3578.2443,0.009374
3580.1080,0.009254
3581.9717,0.009303
3583.8353,0.009154
3585.6990,0.009178
3587.5627,0.008387
3589.4263,0.007910
3591.2900,0.008622
3593.1537,0.009152
3595.0173,0.008938
3596.8810,0.009850
3598.7447,0.010297
3600.6084,0.009679
3602.4720,0.009080
3604.3357,0.009146
3606.1994,0.009041
3608.0630,0.009195
3609.9267,0.009164
3611.7904,0.009511
3613.6540,0.009856
3615.5177,0.009387
3617.3814,0.009124
3619.2450,0.009502
3621.1087,0.009284
3622.9724,0.009572
3624.8360,0.009533
3626.6997,0.009186
3628.5634,0.009190
3630.4271,0.008979
3632.2907,0.008029
3634.1544,0.009601
3636.0181,0.010272
3637.8817,0.010003
3639.7454,0.009566
3641.6091,0.009767
3643.4727,0.010109
3645.3364,0.009739
3647.2001,0.009660
3649.0637,0.010064
3650.9274,0.009455
3652.7911,0.009277
3654.6547,0.009568
3656.5184,0.010021
3658.3821,0.009530
3660.2458,0.009994
3662.1094,0.010166
3663.9731,0.010054
3665.8368,0.010042
3667.7004,0.009626
3669.5641,0.009659
3671.4278,0.010182
3673.2914,0.009263
3675.1551,0.010079
3677.0188,0.010686
3678.8824,0.010117
3680.7461,0.010235
3682.6098,0.009858
3684.4735,0.009891
3686.3371,0.009394
3688.2008,0.009456
3690.0645,0.009824
3691.9281,0.009967
3693.7918,0.010401
3695.6555,0.010338
3697.5191,0.010622
3699.3828,0.010825
3701.2465,0.010909
3703.1101,0.010780
3704.9738,0.010989
3706.8375,0.010606
3708.7011,0.010543
3710.5648,0.010865
3712.4285,0.011200
3714.2922,0.010642
3716.1558,0.010278
3718.0195,0.011017
3719.8832,0.011187
3721.7468,0.010342
3723.6105,0.010703
3725.4742,0.011138
3727.3378,0.011017
3729.2015,0.010427
3731.0652,0.011212
3732.9288,0.011785
3734.7925,0.010520
3736.6562,0.009387
3738.5199,0.009361
3740.3835,0.010002
3742.2472,0.010128
3744.1109,0.010025
3745.9745,0.009909
3747.8382,0.009509
3749.7019,0.010990
3751.5655,0.010575
3753.4292,0.010965
3755.2929,0.010306
3757.1565,0.010769
3759.0202,0.011128
3760.8839,0.011715
3762.7475,0.011661
3764.6112,0.011786
3766.4749,0.012009
3768.3386,0.012168
3770.2022,0.012222
3772.0659,0.011609
3773.9296,0.011820
3775.7932,0.012278
3777.6569,0.011840
3779.5206,0.012099
3781.3842,0.012048
3783.2479,0.012326
3785.1116,0.012635
3786.9752,0.012386
3788.8389,0.011901
3790.7026,0.011872
3792.5662,0.011854
3794.4299,0.011756
3796.2936,0.011749
3798.1573,0.011533
3800.0209,0.011181
3801.8846,0.012276
3803.7483,0.012369
3805.6119,0.012394
3807.4756,0.012518
3809.3393,0.012151
3811.2029,0.012026
3813.0666,0.012244
3814.9303,0.012050
3816.7939,0.012280
3818.6576,0.011410
3820.5213,0.012099
3822.3850,0.012358
3824.2486,0.011889
3826.1123,0.012490
3827.9760,0.012970
3829.8396,0.012669
3831.7033,0.012239
3833.5670,0.011678
3835.4306,0.011890
3837.2943,0.011821
3839.1580,0.011948
3841.0216,0.012033
3842.8853,0.012321
3844.7490,0.012289
3846.6126,0.012237
3848.4763,0.012487
3850.3400,0.012753
3852.2037,0.012138
3854.0673,0.011870
3855.9310,0.011531
3857.7947,0.011981
3859.6583,0.011691
3861.5220,0.012153
3863.3857,0.011897
3865.2493,0.011665
3867.1130,0.011962
3868.9767,0.012428
3870.8403,0.013017
3872.7040,0.013059
3874.5677,0.013346
3876.4314,0.013009
3878.2950,0.013197
3880.1587,0.013366
3882.0224,0.012827
3883.8860,0.012608
3885.7497,0.013169
3887.6134,0.013451
3889.4770,0.013094
3891.3407,0.013228
3893.2044,0.013454
3895.0680,0.013782
3896.9317,0.013152
3898.7954,0.012874
3900.6590,0.013042
3902.5227,0.013709
3904.3864,0.014132
3906.2501,0.013657
3908.1137,0.013582
3909.9774,0.013639
3911.8411,0.013443
3913.7047,0.013705
3915.5684,0.013865
3917.4321,0.014048
3919.2957,0.013840
3921.1594,0.014090
3923.0231,0.014028
3924.8867,0.014343
3926.7504,0.014049
3928.6141,0.013671
3930.4777,0.013633
3932.3414,0.013638
3934.2051,0.013636
3936.0688,0.014100
3937.9324,0.013949
3939.7961,0.013919
3941.6598,0.014008
3943.5234,0.014104
3945.3871,0.014199
3947.2508,0.014465
3949.1144,0.014242
3950.9781,0.014230
3952.8418,0.014185
3954.7054,0.014180
3956.5691,0.014136
3958.4328,0.014117
3960.2965,0.014082
3962.1601,0.014492
3964.0238,0.014193
3965.8875,0.013923
3967.7511,0.014134
3969.6148,0.014120
3971.4785,0.013858
3973.3421,0.014548
3975.2058,0.014811
3977.0695,0.014274
3978.9331,0.013916
3980.7968,0.014117
3982.6605,0.014178
3984.5241,0.014238
3986.3878,0.014117
3988.2515,0.014106
3990.1152,0.014433
3991.9788,0.014778
3993.8425,0.014563
3995.7062,0.014421
3997.5698,0.014573
3999.4335,0.014791
