Wavenumber,Intensity
650.4205,0.204300
652.2841,0.199467
654.1478,0.197832
656.0115,0.194616
657.8751,0.191884
659.7388,0.187339
661.6025,0.184208
663.4661,0.182198
665.3298,0.179534
667.1935,0.177787
669.0571,0.177766
670.9208,0.176345
672.7845,0.176088
674.6481,0.176253
676.5118,0.177451
678.3755,0.176867
680.2392,0.176006
682.1028,0.176059
683.9665,0.176456
685.8302,0.176268
687.6938,0.176608
689.5575,0.176799
691.4212,0.178433
693.2848,0.177860
695.1485,0.176127
697.0122,0.177265
698.8758,0.180602
700.7395,0.181678
702.6032,0.180928
704.4669,0.178594
706.3305,0.174052
708.1942,0.166865
710.0579,0.159244
711.9215,0.151620
713.7852,0.144663
715.6489,0.138175
717.5125,0.132827
719.3762,0.128204
721.2399,0.122848
723.1035,0.117870
724.9672,0.114089
726.8309,0.109948
728.6945,0.106363
730.5582,0.102846
732.4219,0.098778
734.2856,0.095157
736.1492,0.092555
738.0129,0.091005
739.8766,0.090762
741.7402,0.092313
743.6039,0.094047
745.4676,0.094670
747.3312,0.095006
749.1949,0.094591
751.0586,0.093687
752.9222,0.092464
754.7859,0.091250
756.6496,0.090510
758.5132,0.089932
760.3769,0.089304
762.2406,0.089168
764.1043,0.088623
765.9679,0.087649
767.8316,0.087214
769.6953,0.087114
771.5589,0.087141
773.4226,0.087792
775.2863,0.088605
777.1499,0.089422
779.0136,0.090247
780.8773,0.091193
782.7409,0.092387
784.6046,0.093561
786.4683,0.094716
788.3320,0.096241
790.1956,0.098018
792.0593,0.099818
793.9230,0.101570
795.7866,0.103294
797.6503,0.104565
799.5140,0.105695
801.3776,0.106484
803.2413,0.106972
805.1050,0.106646
806.9686,0.105347
808.8323,0.103385
810.6960,0.101152
812.5596,0.098615
814.4233,0.095945
816.2870,0.093103
818.1507,0.090408
820.0143,0.088028
821.8780,0.085902
823.7417,0.084687
825.6053,0.084815
827.4690,0.086105
829.3327,0.086446
831.1963,0.081459
833.0600,0.071277
834.9237,0.062406
836.7873,0.058040
838.6510,0.056398
840.5147,0.055366
842.3784,0.054730
844.2420,0.054606
846.1057,0.054565
847.9694,0.054466
849.8330,0.054456
851.6967,0.054173
853.5604,0.053762
855.4240,0.053759
857.2877,0.053950
859.1514,0.054098
861.0150,0.054131
862.8787,0.054122
864.7424,0.054249
866.6060,0.054437
868.4697,0.054661
870.3334,0.054834
872.1971,0.054927
874.0607,0.055040
875.9244,0.055315
877.7881,0.055844
879.6517,0.056267
881.5154,0.056401
883.3791,0.056753
885.2427,0.057111
887.1064,0.057538
888.9701,0.058040
890.8337,0.058509
892.6974,0.059193
894.5611,0.059862
896.4247,0.060524
898.2884,0.061525
900.1521,0.062844
902.0158,0.064494
903.8794,0.066776
905.7431,0.070053
907.6068,0.074176
909.4704,0.078697
911.3341,0.084094
913.1978,0.090309
915.0614,0.092984
916.9251,0.085947
918.7888,0.072401
920.6524,0.061782
922.5161,0.057178
924.3798,0.056015
926.2435,0.055841
928.1071,0.056143
929.9708,0.056784
931.8345,0.057361
933.6981,0.057936
935.5618,0.058694
937.4255,0.059514
939.2891,0.060302
941.1528,0.061116
943.0165,0.061979
944.8801,0.062817
946.7438,0.063733
948.6075,0.064835
950.4711,0.065972
952.3348,0.067038
954.1985,0.068122
956.0622,0.069389
957.9258,0.070717
959.7895,0.071960
961.6532,0.073174
963.5168,0.074558
965.3805,0.076215
967.2442,0.078251
969.1078,0.080723
970.9715,0.083374
972.8352,0.086516
974.6988,0.091532
976.5625,0.100035
978.4262,0.114606
980.2899,0.135279
982.1535,0.144424
984.0172,0.122758
985.8809,0.092738
987.7445,0.078864
989.6082,0.076754
991.4719,0.077524
993.3355,0.078734
995.1992,0.079987
997.0629,0.081229
998.9265,0.082357
1000.7902,0.083533
1002.6539,0.084815
1004.5175,0.086138
1006.3812,0.087392
1008.2449,0.088486
1010.1086,0.089618
1011.9722,0.090827
1013.8359,0.091937
1015.6996,0.092874
1017.5632,0.093698
1019.4269,0.094519
1021.2906,0.095383
1023.1542,0.096221
1025.0179,0.097100
1026.8816,0.098014
1028.7452,0.098910
1030.6089,0.099924
1032.4726,0.101173
1034.3362,0.102594
1036.1999,0.104284
1038.0636,0.106411
1039.9273,0.108933
1041.7909,0.111882
1043.6546,0.115314
1045.5183,0.118929
1047.3819,0.121839
1049.2456,0.121936
1051.1093,0.117239
1052.9729,0.108942
1054.8366,0.100735
1056.7003,0.095128
1058.5639,0.092256
1060.4276,0.091212
1062.2913,0.090977
1064.1550,0.091143
1066.0186,0.091670
1067.8823,0.092525
1069.7460,0.093565
1071.6096,0.094659
1073.4733,0.095821
1075.3370,0.096980
1077.2006,0.098236
1079.0643,0.099783
1080.9280,0.101524
1082.7916,0.103542
1084.6553,0.105901
1086.5190,0.108410
1088.3826,0.111000
1090.2463,0.114042
1092.1100,0.117720
1093.9737,0.121741
1095.8373,0.126048
1097.7010,0.130968
1099.5647,0.136439
1101.4283,0.141868
1103.2920,0.146717
1105.1557,0.150016
1107.0193,0.150122
1108.8830,0.145779
1110.7467,0.137116
1112.6103,0.125641
1114.4740,0.113631
1116.3377,0.102880
1118.2014,0.094138
1120.0650,0.087595
1121.9287,0.083014
1123.7924,0.079910
1125.6560,0.077589
1127.5197,0.075418
1129.3834,0.073268
1131.2470,0.071226
1133.1107,0.069291
1134.9744,0.067649
1136.8380,0.066464
1138.7017,0.065714
1140.5654,0.065369
1142.4290,0.065312
1144.2927,0.065477
1146.1564,0.065724
1148.0201,0.065959
1149.8837,0.066312
1151.7474,0.066806
1153.6111,0.067382
1155.4747,0.068027
1157.3384,0.068717
1159.2021,0.069506
1161.0657,0.070450
1162.9294,0.071606
1164.7931,0.073242
1166.6567,0.075527
1168.5204,0.078317
1170.3841,0.081182
1172.2477,0.083075
1174.1114,0.082359
1175.9751,0.078541
1177.8388,0.073564
1179.7024,0.069452
1181.5661,0.066838
1183.4298,0.065659
1185.2934,0.065390
1187.1571,0.065499
1189.0208,0.065623
1190.8844,0.065695
1192.7481,0.065706
1194.6118,0.065624
1196.4754,0.065548
1198.3391,0.065506
1200.2028,0.065576
1202.0665,0.065749
1203.9301,0.066016
1205.7938,0.066347
1207.6575,0.066715
1209.5211,0.067156
1211.3848,0.067716
1213.2485,0.068351
1215.1121,0.069044
1216.9758,0.069871
1218.8395,0.070659
1220.7031,0.071370
1222.5668,0.072137
1224.4305,0.072894
1226.2941,0.073651
1228.1578,0.074442
1230.0215,0.075259
1231.8852,0.076070
1233.7488,0.076859
1235.6125,0.077604
1237.4762,0.078289
1239.3398,0.078959
1241.2035,0.079562
1243.0672,0.080131
1244.9308,0.080680
1246.7945,0.081243
1248.6582,0.081871
1250.5218,0.082501
1252.3855,0.083181
1254.2492,0.083843
1256.1129,0.084426
1257.9765,0.085106
1259.8402,0.086029
1261.7039,0.087058
1263.5675,0.088007
1265.4312,0.088835
1267.2949,0.089315
1269.1585,0.089343
1271.0222,0.089165
1272.8859,0.089065
1274.7495,0.089292
1276.6132,0.089892
1278.4769,0.090724
1280.3405,0.091817
1282.2042,0.093168
1284.0679,0.094571
1285.9316,0.096186
1287.7952,0.098360
1289.6589,0.100903
1291.5226,0.103653
1293.3862,0.106959
1295.2499,0.111032
1297.1136,0.115916
1298.9772,0.121852
1300.8409,0.129066
1302.7046,0.136707
1304.5682,0.141912
1306.4319,0.140741
1308.2956,0.129945
1310.1592,0.110977
1312.0229,0.091680
1313.8866,0.078760
1315.7503,0.073438
1317.6139,0.072983
1319.4776,0.074623
1321.3413,0.076664
1323.2049,0.078846
1325.0686,0.081355
1326.9323,0.083898
1328.7959,0.086389
1330.6596,0.088758
1332.5233,0.090610
1334.3869,0.091793
1336.2506,0.092819
1338.1143,0.094477
1339.9780,0.096460
1341.8416,0.097147
1343.7053,0.097111
1345.5690,0.097773
1347.4326,0.098926
1349.2963,0.100315
1351.1600,0.101971
1353.0236,0.103901
1354.8873,0.106251
1356.7510,0.108697
1358.6146,0.110879
1360.4783,0.113748
1362.3420,0.118515
1364.2056,0.122836
1366.0693,0.124895
1367.9330,0.127911
1369.7967,0.131673
1371.6603,0.134628
1373.5240,0.138777
1375.3877,0.143500
1377.2513,0.146473
1379.1150,0.150408
1380.9787,0.155630
1382.8423,0.160954
1384.7060,0.166954
1386.5697,0.174889
1388.4333,0.183381
1390.2970,0.187741
1392.1607,0.189980
1394.0244,0.190627
1395.8880,0.185854
1397.7517,0.177502
1399.6154,0.168258
1401.4790,0.159224
1403.3427,0.151452
1405.2064,0.140191
1407.0700,0.123923
1408.9337,0.107346
1410.7974,0.092180
1412.6610,0.081105
1414.5247,0.075533
1416.3884,0.074671
1418.2520,0.078930
1420.1157,0.086999
1421.9794,0.090828
1423.8431,0.089439
1425.7067,0.082195
1427.5704,0.073469
1429.4341,0.067728
1431.2977,0.065083
1433.1614,0.064310
1435.0251,0.065192
1436.8887,0.068463
1438.7524,0.070479
1440.6161,0.070931
1442.4797,0.072261
1444.3434,0.073509
1446.2071,0.074542
1448.0707,0.075078
1449.9344,0.073533
1451.7981,0.070753
1453.6618,0.068000
1455.5254,0.067260
1457.3891,0.070830
1459.2528,0.072461
1461.1164,0.071231
1462.9801,0.071261
1464.8438,0.072189
1466.7074,0.071450
1468.5711,0.069208
1470.4348,0.068085
1472.2984,0.069003
1474.1621,0.070133
1476.0258,0.069667
1477.8895,0.069271
1479.7531,0.068919
1481.6168,0.069197
1483.4805,0.069417
1485.3441,0.069490
1487.2078,0.070333
1489.0715,0.072568
1490.9351,0.074574
1492.7988,0.074044
1494.6625,0.073703
1496.5261,0.076043
1498.3898,0.078541
1500.2535,0.078824
1502.1171,0.078103
1503.9808,0.077749
1505.8445,0.080596
1507.7082,0.087897
1509.5718,0.087501
1511.4355,0.086594
1513.2992,0.087095
1515.1628,0.088174
1517.0265,0.090222
1518.8902,0.091451
1520.7538,0.093207
1522.6175,0.096566
1524.4812,0.096597
1526.3448,0.097641
1528.2085,0.098870
1530.0722,0.098870
1531.9359,0.099892
1533.7995,0.102956
1535.6632,0.103340
1537.5269,0.102521
1539.3905,0.106498
1541.2542,0.114127
1543.1179,0.115145
1544.9815,0.116359
1546.8452,0.117433
1548.7089,0.118645
1550.5725,0.121261
1552.4362,0.123053
1554.2999,0.124511
1556.1635,0.126747
1558.0272,0.132365
1559.8909,0.144718
1561.7546,0.141797
1563.6182,0.140284
1565.4819,0.142587
1567.3456,0.145507
1569.2092,0.149977
1571.0729,0.154501
1572.9366,0.155087
1574.8002,0.158467
1576.6639,0.166003
1578.5276,0.169179
1580.3912,0.169912
1582.2549,0.172644
1584.1186,0.175220
1585.9822,0.177102
1587.8459,0.178211
1589.7096,0.178817
1591.5733,0.178620
1593.4369,0.177876
1595.3006,0.176321
1597.1643,0.174062
1599.0279,0.171205
1600.8916,0.168438
1602.7553,0.165735
1604.6189,0.162796
1606.4826,0.160280
1608.3463,0.158167
1610.2099,0.155442
1612.0736,0.152038
1613.9373,0.148484
1615.8010,0.145065
1617.6646,0.138741
1619.5283,0.130711
1621.3920,0.125537
1623.2556,0.119986
1625.1193,0.112229
1626.9830,0.104717
1628.8466,0.096444
1630.7103,0.087905
1632.5740,0.080890
1634.4376,0.074383
1636.3013,0.067653
1638.1650,0.062744
1640.0286,0.060500
1641.8923,0.058880
1643.7560,0.058596
1645.6197,0.059967
1647.4833,0.062912
1649.3470,0.064081
1651.2107,0.065346
1653.0743,0.070135
1654.9380,0.074534
1656.8017,0.073598
1658.6653,0.073881
1660.5290,0.074434
1662.3927,0.074688
1664.2563,0.073621
1666.1200,0.071968
1667.9837,0.070941
1669.8474,0.070220
1671.7110,0.069243
1673.5747,0.069475
1675.4384,0.071473
1677.3020,0.073655
1679.1657,0.075309
1681.0294,0.078642
1682.8930,0.082523
1684.7567,0.087646
1686.6204,0.088852
1688.4840,0.087794
1690.3477,0.086470
1692.2114,0.083922
1694.0750,0.081335
1695.9387,0.079009
1697.8024,0.075394
1699.6661,0.072679
1701.5297,0.066903
1703.3934,0.060900
1705.2571,0.055009
1707.1207,0.047401
1708.9844,0.041478
1710.8481,0.037141
1712.7117,0.033756
1714.5754,0.031590
1716.4391,0.030067
1718.3027,0.029199
1720.1664,0.027729
1722.0301,0.026716
1723.8937,0.025388
1725.7574,0.023517
1727.6211,0.021556
1729.4848,0.019802
1731.3484,0.018380
1733.2121,0.017677
1735.0758,0.016435
1736.9394,0.015344
1738.8031,0.014802
1740.6668,0.014452
1742.5304,0.013938
1744.3941,0.013507
1746.2578,0.012878
1748.1214,0.012503
1749.9851,0.011935
1751.8488,0.011316
1753.7125,0.010923
1755.5761,0.010956
1757.4398,0.010895
1759.3035,0.010838
1761.1671,0.010731
1763.0308,0.010594
1764.8945,0.010326
1766.7581,0.010277
1768.6218,0.010121
1770.4855,0.010132
1772.3491,0.010190
1774.2128,0.010193
1776.0765,0.010020
1777.9401,0.010131
1779.8038,0.010290
1781.6675,0.010482
1783.5312,0.010490
1785.3948,0.010649
1787.2585,0.010580
1789.1222,0.010441
1790.9858,0.010405
1792.8495,0.010545
1794.7132,0.010507
1796.5768,0.010511
1798.4405,0.010516
1800.3042,0.010659
1802.1678,0.010680
1804.0315,0.010811
1805.8952,0.010798
1807.7589,0.010857
1809.6225,0.011008
1811.4862,0.010971
1813.3499,0.010602
1815.2135,0.010547
1817.0772,0.010534
1818.9409,0.010788
1820.8045,0.010848
1822.6682,0.010769
1824.5319,0.010599
1826.3955,0.010644
1828.2592,0.010403
1830.1229,0.010471
1831.9865,0.010564
1833.8502,0.010541
1835.7139,0.010454
1837.5776,0.010554
1839.4412,0.010431
1841.3049,0.010477
1843.1686,0.010693
1845.0322,0.010817
1846.8959,0.010671
1848.7596,0.010719
1850.6232,0.010568
1852.4869,0.010635
1854.3506,0.010886
1856.2142,0.010962
1858.0779,0.010801
1859.9416,0.010941
1861.8052,0.011129
1863.6689,0.011162
1865.5326,0.011110
1867.3963,0.011066
1869.2599,0.010779
1871.1236,0.011006
1872.9873,0.011009
1874.8509,0.011056
1876.7146,0.011092
1878.5783,0.011051
1880.4419,0.010974
1882.3056,0.010903
1884.1693,0.010786
1886.0329,0.011109
1887.8966,0.011019
1889.7603,0.011096
1891.6240,0.011050
1893.4876,0.010736
1895.3513,0.010692
1897.2150,0.010906
1899.0786,0.010942
1900.9423,0.011130
1902.8060,0.010885
1904.6696,0.010936
1906.5333,0.011108
1908.3970,0.011005
1910.2606,0.010395
1912.1243,0.010684
1913.9880,0.011181
1915.8516,0.011354
1917.7153,0.010902
1919.5790,0.010464
1921.4427,0.010799
1923.3063,0.011172
1925.1700,0.010858
1927.0337,0.010897
1928.8973,0.010709
1930.7610,0.010412
1932.6247,0.010267
1934.4883,0.010725
1936.3520,0.010822
1938.2157,0.010164
1940.0793,0.009413
1941.9430,0.009899
1943.8067,0.009756
1945.6704,0.009186
1947.5340,0.009355
1949.3977,0.010030
1951.2614,0.009659
1953.1250,0.009557
1954.9887,0.008988
1956.8524,0.008625
1958.7160,0.007936
1960.5797,0.007340
1962.4434,0.006733
1964.3070,0.006368
1966.1707,0.005923
1968.0344,0.005872
1969.8980,0.005179
1971.7617,0.005371
1973.6254,0.004727
1975.4891,0.004011
1977.3527,0.005386
1979.2164,0.007393
1981.0801,0.006818
1982.9437,0.006589
1984.8074,0.006740
1986.6711,0.007446
1988.5347,0.007376
1990.3984,0.007802
1992.2621,0.007760
1994.1257,0.007803
1995.9894,0.008330
1997.8531,0.009071
1999.7167,0.008083
2001.5804,0.008203
2003.4441,0.008248
2005.3078,0.007366
2007.1714,0.005832
2009.0351,0.006399
2010.8988,0.006870
2012.7624,0.006944
2014.6261,0.006481
2016.4898,0.006132
2018.3534,0.005280
2020.2171,0.005368
2022.0808,0.004973
2023.9444,0.005476
2025.8081,0.005481
2027.6718,0.005457
2029.5355,0.005266
2031.3991,0.005691
2033.2628,0.005790
2035.1265,0.005853
2036.9901,0.006416
2038.8538,0.007093
2040.7175,0.006412
2042.5811,0.007743
2044.4448,0.009344
2046.3085,0.010231
2048.1721,0.009858
2050.0358,0.010748
2051.8995,0.010912
2053.7631,0.010863
2055.6268,0.011706
2057.4905,0.012421
2059.3542,0.011950
2061.2178,0.011484
2063.0815,0.011739
2064.9452,0.012106
2066.8088,0.011693
2068.6725,0.012357
2070.5362,0.013319
2072.3998,0.013303
2074.2635,0.012728
2076.1272,0.013061
2077.9908,0.013244
2079.8545,0.012947
2081.7182,0.013154
2083.5819,0.014133
2085.4455,0.014305
2087.3092,0.014059
2089.1729,0.013580
2091.0365,0.013538
2092.9002,0.014006
2094.7639,0.014133
2096.6275,0.013815
2098.4912,0.014029
2100.3549,0.014512
2102.2185,0.014999
2104.0822,0.014856
2105.9459,0.014486
2107.8095,0.014383
2109.6732,0.014599
2111.5369,0.014471
2113.4006,0.014559
2115.2642,0.014876
2117.1279,0.015025
2118.9916,0.014616
2120.8552,0.014626
2122.7189,0.014903
2124.5826,0.015191
2126.4462,0.014955
2128.3099,0.014156
2130.1736,0.013391
2132.0372,0.012778
2133.9009,0.012097
2135.7646,0.012354
2137.6282,0.013081
2139.4919,0.012627
2141.3556,0.012042
2143.2193,0.012086
2145.0829,0.011603
2146.9466,0.011022
2148.8103,0.009856
2150.6739,0.008913
2152.5376,0.008526
2154.4013,0.008736
2156.2649,0.007830
2158.1286,0.006954
2159.9923,0.005998
2161.8559,0.006639
2163.7196,0.007549
2165.5833,0.008924
2167.4470,0.009450
2169.3106,0.010365
2171.1743,0.010496
2173.0380,0.009637
2174.9016,0.009687
2176.7653,0.011139
2178.6290,0.010275
2180.4926,0.009426
2182.3563,0.010407
2184.2200,0.012031
2186.0836,0.011957
2187.9473,0.012237
2189.8110,0.012594
2191.6746,0.011733
2193.5383,0.011421
2195.4020,0.012426
2197.2657,0.012923
2199.1293,0.013502
2200.9930,0.013320
2202.8567,0.013223
2204.7203,0.013658
2206.5840,0.014484
2208.4477,0.014189
2210.3113,0.014894
2212.1750,0.015173
2214.0387,0.014896
2215.9023,0.014733
2217.7660,0.014088
2219.6297,0.013812
2221.4934,0.014666
2223.3570,0.014687
2225.2207,0.015058
2227.0844,0.016065
2228.9480,0.016128
2230.8117,0.015049
2232.6754,0.015216
2234.5390,0.016345
2236.4027,0.016791
2238.2664,0.016342
2240.1300,0.016313
2241.9937,0.016921
2243.8574,0.017537
2245.7210,0.017327
2247.5847,0.017119
2249.4484,0.017350
2251.3121,0.017184
2253.1757,0.016877
2255.0394,0.017404
2256.9031,0.017748
2258.7667,0.018034
2260.6304,0.018250
2262.4941,0.017850
2264.3577,0.017810
2266.2214,0.018521
2268.0851,0.018767
2269.9487,0.019328
2271.8124,0.019715
2273.6761,0.020073
2275.5397,0.020002
2277.4034,0.019860
2279.2671,0.020230
2281.1308,0.020772
2282.9944,0.021450
2284.8581,0.021980
2286.7218,0.022098
2288.5854,0.022037
2290.4491,0.021734
2292.3128,0.021182
2294.1764,0.021033
2296.0401,0.021398
2297.9038,0.021716
2299.7674,0.021681
2301.6311,0.021608
2303.4948,0.021946
2305.3585,0.022064
2307.2221,0.021879
2309.0858,0.021763
2310.9495,0.021751
2312.8131,0.021979
2314.6768,0.021925
2316.5405,0.021632
2318.4041,0.021868
2320.2678,0.022074
2322.1315,0.022121
2323.9951,0.022187
2325.8588,0.021888
2327.7225,0.021034
2329.5861,0.020890
2331.4498,0.021150
2333.3135,0.021099
2335.1772,0.020816
2337.0408,0.020898
2338.9045,0.020703
2340.7682,0.020611
2342.6318,0.021208
2344.4955,0.021597
2346.3592,0.021340
2348.2228,0.020970
2350.0865,0.020539
2351.9502,0.020572
2353.8138,0.021012
2355.6775,0.021108
2357.5412,0.020446
2359.4049,0.019748
2361.2685,0.019973
2363.1322,0.020120
2364.9959,0.020493
2366.8595,0.020897
2368.7232,0.020734
2370.5869,0.020997
2372.4505,0.021325
2374.3142,0.021712
2376.1779,0.021654
2378.0415,0.021410
2379.9052,0.021585
2381.7689,0.021687
2383.6325,0.021577
2385.4962,0.021695
2387.3599,0.021983
2389.2236,0.022145
2391.0872,0.021812
2392.9509,0.021594
2394.8146,0.021730
2396.6782,0.021981
2398.5419,0.022126
2400.4056,0.022217
2402.2692,0.022238
2404.1329,0.022061
2405.9966,0.021900
2407.8602,0.021956
2409.7239,0.022286
2411.5876,0.022474
2413.4512,0.022274
2415.3149,0.022372
2417.1786,0.022542
2419.0423,0.022632
2420.9059,0.022836
2422.7696,0.022951
2424.6333,0.023202
2426.4969,0.023296
2428.3606,0.023287
2430.2243,0.023295
2432.0879,0.023196
2433.9516,0.023067
2435.8153,0.022539
2437.6789,0.022608
2439.5426,0.023209
2441.4063,0.023074
2443.2700,0.022670
2445.1336,0.022853
2446.9973,0.023222
2448.8610,0.023299
2450.7246,0.023384
2452.5883,0.023491
2454.4520,0.023158
2456.3156,0.022864
2458.1793,0.023001
2460.0430,0.023231
2461.9066,0.023284
2463.7703,0.023095
2465.6340,0.022696
2467.4976,0.022674
2469.3613,0.022958
2471.2250,0.023059
2473.0887,0.023172
2474.9523,0.023411
2476.8160,0.023300
2478.6797,0.023097
2480.5433,0.023224
2482.4070,0.023397
2484.2707,0.023468
2486.1343,0.023369
2487.9980,0.023451
2489.8617,0.023562
2491.7253,0.023973
2493.5890,0.024196
2495.4527,0.023956
2497.3164,0.023824
2499.1800,0.023974
2501.0437,0.024004
2502.9074,0.024128
2504.7710,0.024650
2506.6347,0.024791
2508.4984,0.024485
2510.3620,0.024191
2512.2257,0.024462
2514.0894,0.024705
2515.9530,0.024962
2517.8167,0.024902
2519.6804,0.024377
2521.5440,0.024471
2523.4077,0.024857
2525.2714,0.025117
2527.1351,0.025009
2528.9987,0.024666
2530.8624,0.024951
2532.7261,0.025377
2534.5897,0.025334
2536.4534,0.025442
2538.3171,0.025274
2540.1807,0.025363
2542.0444,0.025563
2543.9081,0.025727
2545.7717,0.025818
2547.6354,0.025670
2549.4991,0.025310
2551.3627,0.025312
2553.2264,0.025534
2555.0901,0.025490
2556.9538,0.025551
2558.8174,0.025802
2560.6811,0.026012
2562.5448,0.026322
2564.4084,0.026255
2566.2721,0.025953
2568.1358,0.026107
2569.9994,0.026496
2571.8631,0.026768
2573.7268,0.026724
2575.5904,0.026635
2577.4541,0.027049
2579.3178,0.027168
2581.1815,0.027243
2583.0451,0.027537
2584.9088,0.027527
2586.7725,0.027618
2588.6361,0.027781
2590.4998,0.027797
2592.3635,0.027918
2594.2271,0.028286
2596.0908,0.028563
2597.9545,0.028473
2599.8181,0.028408
2601.6818,0.028774
2603.5455,0.029141
2605.4091,0.029224
2607.2728,0.029437
2609.1365,0.029588
2611.0002,0.029433
2612.8638,0.029282
2614.7275,0.029423
2616.5912,0.029568
2618.4548,0.029728
2620.3185,0.029873
2622.1822,0.029861
2624.0458,0.030260
2625.9095,0.030836
2627.7732,0.030943
2629.6368,0.031287
2631.5005,0.031639
2633.3642,0.031641
2635.2279,0.031745
2637.0915,0.031853
2638.9552,0.032323
2640.8189,0.032666
2642.6825,0.032730
2644.5462,0.032787
2646.4099,0.032668
2648.2735,0.032750
2650.1372,0.033176
2652.0009,0.033390
2653.8645,0.033557
2655.7282,0.033658
2657.5919,0.033708
2659.4555,0.033859
2661.3192,0.034043
2663.1829,0.033972
2665.0466,0.033888
2666.9102,0.034074
2668.7739,0.034265
2670.6376,0.034408
2672.5012,0.034617
2674.3649,0.034657
2676.2286,0.034655
2678.0922,0.035010
2679.9559,0.035427
2681.8196,0.035541
2683.6832,0.035406
2685.5469,0.035467
2687.4106,0.035760
2689.2742,0.035925
2691.1379,0.036068
2693.0016,0.036299
2694.8653,0.036632
2696.7289,0.036883
2698.5926,0.037207
2700.4563,0.037461
2702.3199,0.037480
2704.1836,0.037734
2706.0473,0.038243
2707.9109,0.038511
2709.7746,0.038583
2711.6383,0.038830
2713.5019,0.039142
2715.3656,0.039526
2717.2293,0.039987
2719.0930,0.040512
2720.9566,0.040680
2722.8203,0.040772
2724.6840,0.041204
2726.5476,0.041999
2728.4113,0.042630
2730.2750,0.042709
2732.1386,0.042621
2734.0023,0.043001
2735.8660,0.043566
2737.7296,0.044052
2739.5933,0.044343
2741.4570,0.044605
2743.3206,0.044934
2745.1843,0.045466
2747.0480,0.046024
2748.9117,0.046609
2750.7753,0.047290
2752.6390,0.047915
2754.5027,0.048320
2756.3663,0.048506
2758.2300,0.048755
2760.0937,0.049357
2761.9573,0.049907
2763.8210,0.050433
2765.6847,0.050783
2767.5483,0.051264
2769.4120,0.051949
2771.2757,0.052598
2773.1394,0.053130
2775.0030,0.053890
2776.8667,0.054702
2778.7304,0.055160
2780.5940,0.055343
2782.4577,0.055605
2784.3214,0.055682
2786.1850,0.055573
2788.0487,0.055401
2789.9124,0.055219
2791.7760,0.055095
2793.6397,0.054619
2795.5034,0.053986
2797.3670,0.053569
2799.2307,0.053133
2801.0944,0.052886
2802.9581,0.052585
2804.8217,0.052109
2806.6854,0.051737
2808.5491,0.051393
2810.4127,0.051197
2812.2764,0.051137
2814.1401,0.050949
2816.0037,0.050669
2817.8674,0.050574
2819.7311,0.050777
2821.5947,0.050930
2823.4584,0.051153
2825.3221,0.051387
2827.1857,0.051257
2829.0494,0.050990
2830.9131,0.050631
2832.7768,0.050216
2834.6404,0.050316
2836.5041,0.050577
2838.3678,0.050596
2840.2314,0.050822
2842.0951,0.051250
2843.9588,0.051573
2845.8224,0.051855
2847.6861,0.052246
2849.5498,0.052876
2851.4134,0.053499
2853.2771,0.054166
2855.1408,0.054798
2857.0045,0.055219
2858.8681,0.055586
2860.7318,0.056199
2862.5955,0.056886
2864.4591,0.057374
2866.3228,0.057641
2868.1865,0.057804
2870.0501,0.058182
2871.9138,0.058596
2873.7775,0.058739
2875.6411,0.059245
2877.5048,0.059850
2879.3685,0.060091
2881.2321,0.060319
2883.0958,0.060685
2884.9595,0.061073
2886.8232,0.061449
2888.6868,0.061662
2890.5505,0.062174
2892.4142,0.062861
2894.2778,0.063393
2896.1415,0.063564
2898.0052,0.063919
2899.8688,0.064437
2901.7325,0.064579
2903.5962,0.064361
2905.4598,0.064081
2907.3235,0.064046
2909.1872,0.064449
2911.0509,0.064668
2912.9145,0.065001
2914.7782,0.065804
2916.6419,0.066652
2918.5055,0.067186
2920.3692,0.067866
2922.2329,0.068229
2924.0965,0.068537
2925.9602,0.069069
2927.8239,0.069532
2929.6875,0.069996
2931.5512,0.070683
2933.4149,0.071369
2935.2785,0.071772
2937.1422,0.071813
2939.0059,0.072170
2940.8696,0.072771
2942.7332,0.073109
2944.5969,0.072962
2946.4606,0.072996
2948.3242,0.073147
2950.1879,0.073272
2952.0516,0.073819
2953.9152,0.074541
2955.7789,0.074727
2957.6426,0.074863
2959.5062,0.075122
2961.3699,0.075713
2963.2336,0.076288
2965.0972,0.077086
2966.9609,0.077643
2968.8246,0.078181
2970.6883,0.078812
2972.5519,0.079616
2974.4156,0.080438
2976.2793,0.081196
2978.1429,0.081551
2980.0066,0.082089
2981.8703,0.082754
2983.7339,0.082916
2985.5976,0.082813
2987.4613,0.083217
2989.3249,0.083912
2991.1886,0.084559
2993.0523,0.085307
2994.9160,0.086331
2996.7796,0.086683
2998.6433,0.087052
3000.5070,0.087955
3002.3706,0.088782
3004.2343,0.089252
3006.0980,0.090104
3007.9616,0.090983
3009.8253,0.091732
3011.6890,0.092417
3013.5526,0.092797
3015.4163,0.093205
3017.2800,0.094145
3019.1436,0.094557
3021.0073,0.094769
3022.8710,0.095121
3024.7347,0.095532
3026.5983,0.095723
3028.4620,0.095982
3030.3257,0.096647
3032.1893,0.097182
3034.0530,0.096948
3035.9167,0.097281
3037.7803,0.097801
3039.6440,0.097962
3041.5077,0.098200
3043.3713,0.098716
3045.2350,0.098854
3047.0987,0.099227
3048.9624,0.099941
3050.8260,0.100344
3052.6897,0.100398
3054.5534,0.100592
3056.4170,0.100278
3058.2807,0.100403
3060.1444,0.100787
3062.0080,0.101186
3063.8717,0.101394
3065.7354,0.101459
3067.5990,0.101240
3069.4627,0.100986
3071.3264,0.101014
3073.1900,0.101607
3075.0537,0.101644
3076.9174,0.101051
3078.7811,0.100461
3080.6447,0.100228
3082.5084,0.100116
3084.3721,0.100236
3086.2357,0.099747
3088.0994,0.098914
3089.9631,0.098271
3091.8267,0.098232
3093.6904,0.097809
3095.5541,0.097119
3097.4177,0.096533
3099.2814,0.096166
3101.1451,0.095303
3103.0087,0.094275
3104.8724,0.093285
3106.7361,0.092577
3108.5998,0.091688
3110.4634,0.091422
3112.3271,0.091138
3114.1908,0.089990
3116.0544,0.088804
3117.9181,0.088595
3119.7818,0.088234
3121.6454,0.087355
3123.5091,0.086733
3125.3728,0.086075
3127.2364,0.084666
3129.1001,0.083569
3130.9638,0.083339
3132.8275,0.083238
3134.6911,0.082381
3136.5548,0.082052
3138.4185,0.081691
3140.2821,0.081178
3142.1458,0.081026
3144.0095,0.080597
3145.8731,0.079856
3147.7368,0.079326
3149.6005,0.079005
3151.4641,0.079014
3153.3278,0.078958
3155.1915,0.079097
3157.0551,0.078650
3158.9188,0.078053
3160.7825,0.077534
3162.6462,0.076827
3164.5098,0.075900
3166.3735,0.075423
3168.2372,0.074818
3170.1008,0.074556
3171.9645,0.074662
3173.8282,0.074501
3175.6918,0.074222
3177.5555,0.074038
3179.4192,0.073730
3181.2828,0.073210
3183.1465,0.072741
3185.0102,0.073061
3186.8739,0.073173
3188.7375,0.072727
3190.6012,0.072498
3192.4649,0.072910
3194.3285,0.072865
3196.1922,0.072561
3198.0559,0.072572
3199.9195,0.072766
3201.7832,0.072710
3203.6469,0.072777
3205.5105,0.072718
3207.3742,0.072832
3209.2379,0.073301
3211.1015,0.073661
3212.9652,0.073319
3214.8289,0.073368
3216.6926,0.073538
3218.5562,0.073251
3220.4199,0.073620
3222.2836,0.074287
3224.1472,0.073860
3226.0109,0.073948
3227.8746,0.074102
3229.7382,0.074118
3231.6019,0.074926
3233.4656,0.075031
3235.3292,0.074707
3237.1929,0.075055
3239.0566,0.075279
3240.9202,0.076180
3242.7839,0.076474
3244.6476,0.076066
3246.5113,0.076161
3248.3749,0.076754
3250.2386,0.076830
3252.1023,0.077181
3253.9659,0.077224
3255.8296,0.076761
3257.6933,0.077118
3259.5569,0.077986
3261.4206,0.077898
3263.2843,0.078436
3265.1479,0.079429
3267.0116,0.079367
3268.8753,0.078333
3270.7390,0.078497
3272.6026,0.079229
3274.4663,0.079125
3276.3300,0.078443
3278.1936,0.078310
3280.0573,0.078217
3281.9210,0.077407
3283.7846,0.076725
3285.6483,0.077011
3287.5120,0.076474
3289.3756,0.075760
3291.2393,0.075229
3293.1030,0.074306
3294.9666,0.074062
3296.8303,0.073621
3298.6940,0.072430
3300.5577,0.071461
3302.4213,0.070896
3304.2850,0.070977
3306.1487,0.070375
3308.0123,0.069431
3309.8760,0.068632
3311.7397,0.068259
3313.6033,0.068382
3315.4670,0.068218
3317.3307,0.067845
3319.1943,0.068430
3321.0580,0.068684
3322.9217,0.068351
3324.7854,0.068288
3326.6490,0.068048
3328.5127,0.068423
3330.3764,0.069467
3332.2400,0.069843
3334.1037,0.069318
3335.9674,0.068072
3337.8310,0.067580
3339.6947,0.067171
3341.5584,0.066238
3343.4220,0.065806
3345.2857,0.065087
3347.1494,0.063673
3349.0130,0.062083
3350.8767,0.061007
3352.7404,0.060444
3354.6041,0.059366
3356.4677,0.058415
3358.3314,0.057849
3360.1951,0.057416
3362.0587,0.056626
3363.9224,0.056123
3365.7861,0.055649
3367.6497,0.054416
3369.5134,0.053360
3371.3771,0.053272
3373.2407,0.053340
3375.1044,0.053209
3376.9681,0.053118
3378.8317,0.053244
3380.6954,0.052880
3382.5591,0.053122
3384.4228,0.054092
3386.2864,0.053950
3388.1501,0.053647
3390.0138,0.054232
3391.8774,0.054632
3393.7411,0.055253
3395.6048,0.055615
3397.4684,0.055241
3399.3321,0.055328
3401.1958,0.055762
3403.0594,0.055367
3404.9231,0.054369
3406.7868,0.053118
3408.6505,0.051411
3410.5141,0.049565
3412.3778,0.048800
3414.2415,0.047826
3416.1051,0.045750
3417.9688,0.044299
3419.8325,0.043669
3421.6961,0.042859
3423.5598,0.041176
3425.4235,0.039028
3427.2871,0.037656
3429.1508,0.037022
3431.0145,0.036446
3432.8781,0.035194
3434.7418,0.034492
3436.6055,0.034734
3438.4692,0.034144
3440.3328,0.033061
3442.1965,0.032252
3444.0602,0.031292
3445.9238,0.030386
3447.7875,0.029860
3449.6512,0.029353
3451.5148,0.028840
3453.3785,0.028486
3455.2422,0.028394
3457.1058,0.027629
3458.9695,0.026399
3460.8332,0.026112
3462.6969,0.026811
3464.5605,0.027131
3466.4242,0.026191
3468.2879,0.025385
3470.1515,0.024843
3472.0152,0.024240
3473.8789,0.024510
3475.7425,0.024061
3477.6062,0.022803
3479.4699,0.022665
3481.3335,0.022311
3483.1972,0.021037
3485.0609,0.020709
3486.9245,0.021043
3488.7882,0.020937
3490.6519,0.020398
3492.5156,0.019972
3494.3792,0.019893
3496.2429,0.019607
3498.1066,0.019048
3499.9702,0.017531
3501.8339,0.017076
3503.6976,0.018012
3505.5612,0.017773
3507.4249,0.017526
3509.2886,0.017371
3511.1522,0.016071
3513.0159,0.015466
3514.8796,0.016170
3516.7432,0.015789
3518.6069,0.015114
3520.4706,0.014661
3522.3343,0.013943
3524.1979,0.014171
3526.0616,0.013687
3527.9253,0.012597
3529.7889,0.012407
3531.6526,0.012158
3533.5163,0.012617
3535.3799,0.012697
3537.2436,0.011943
3539.1073,0.012012
3540.9709,0.012209
3542.8346,0.011824
3544.6983,0.012204
3546.5620,0.012630
3548.4256,0.010991
3550.2893,0.009494
3552.1530,0.009775
3554.0166,0.010027
3555.8803,0.010505
3557.7440,0.011671
3559.6076,0.011306
3561.4713,0.010511
3563.3350,0.010682
3565.1986,0.010088
3567.0623,0.009258
3568.9260,0.008903
3570.7896,0.008789
3572.6533,0.009496
3574.5170,0.010039
3576.3807,0.010002
3578.2443,0.010074
3580.1080,0.009375
3581.9717,0.008789
3583.8353,0.008841
3585.6990,0.008242
3587.5627,0.007847
3589.4263,0.007963
3591.2900,0.008202
3593.1537,0.008432
3595.0173,0.008574
3596.8810,0.009064
3598.7447,0.008856
3600.6084,0.007947
3602.4720,0.007876
3604.3357,0.008168
3606.1994,0.008345
3608.0630,0.008449
3609.9267,0.008041
3611.7904,0.007633
3613.6540,0.008218
3615.5177,0.007980
3617.3814,0.006787
3619.2450,0.006755
3621.1087,0.006498
3622.9724,0.006655
3624.8360,0.007854
3626.6997,0.008120
3628.5634,0.007338
3630.4271,0.006772
3632.2907,0.007306
3634.1544,0.007816
3636.0181,0.007719
3637.8817,0.007569
3639.7454,0.007660
3641.6091,0.007621
3643.4727,0.007280
3645.3364,0.007378
3647.2001,0.007380
3649.0637,0.006162
3650.9274,0.005594
3652.7911,0.006527
3654.6547,0.007145
3656.5184,0.006951
3658.3821,0.006768
3660.2458,0.007107
3662.1094,0.007553
3663.9731,0.008166
3665.8368,0.008138
3667.7004,0.007402
3669.5641,0.006746
3671.4278,0.006274
3673.2914,0.006012
3675.1551,0.006711
3677.0188,0.007306
3678.8824,0.006561
3680.7461,0.006797
3682.6098,0.007466
3684.4735,0.007718
3686.3371,0.007961
3688.2008,0.008141
3690.0645,0.007646
3691.9281,0.006852
3693.7918,0.007153
3695.6555,0.007878
3697.5191,0.008234
3699.3828,0.007851
3701.2465,0.007248
3703.1101,0.007468
3704.9738,0.008392
3706.8375,0.008301
3708.7011,0.007465
3710.5648,0.007209
3712.4285,0.007477
3714.2922,0.007424
3716.1558,0.007474
3718.0195,0.007762
3719.8832,0.007632
3721.7468,0.007507
3723.6105,0.007788
3725.4742,0.007999
3727.3378,0.007664
3729.2015,0.007456
3731.0652,0.007764
3732.9288,0.007367
3734.7925,0.006609
3736.6562,0.007103
3738.5199,0.007409
3740.3835,0.007508
3742.2472,0.007418
3744.1109,0.007186
3745.9745,0.007795
3747.8382,0.007920
3749.7019,0.006926
3751.5655,0.006023
3753.4292,0.006587
3755.2929,0.007654
3757.1565,0.008162
3759.0202,0.008278
3760.8839,0.008695
3762.7475,0.009029
3764.6112,0.008651
3766.4749,0.008354
3768.3386,0.008708
3770.2022,0.009476
3772.0659,0.009529
3773.9296,0.008850
3775.7932,0.008645
3777.6569,0.009064
3779.5206,0.009226
3781.3842,0.008851
3783.2479,0.009029
3785.1116,0.009693
3786.9752,0.010025
3788.8389,0.009937
3790.7026,0.009799
3792.5662,0.009526
3794.4299,0.009144
3796.2936,0.008869
3798.1573,0.008811
3800.0209,0.009132
3801.8846,0.009202
3803.7483,0.008476
3805.6119,0.008720
3807.4756,0.009402
3809.3393,0.009299
3811.2029,0.009368
3813.0666,0.009530
3814.9303,0.009209
3816.7939,0.008698
3818.6576,0.008665
3820.5213,0.009321
3822.3850,0.010165
3824.2486,0.009853
3826.1123,0.009246
3827.9760,0.009416
3829.8396,0.009667
3831.7033,0.009640
3833.5670,0.009288
3835.4306,0.008905
3837.2943,0.009210
3839.1580,0.009263
3841.0216,0.009151
3842.8853,0.009409
3844.7490,0.009072
3846.6126,0.009021
3848.4763,0.009471
3850.3400,0.009519
3852.2037,0.009455
3854.0673,0.009666
3855.9310,0.009877
3857.7947,0.009607
3859.6583,0.009622
3861.5220,0.009866
3863.3857,0.009679
3865.2493,0.009301
3867.1130,0.009509
3868.9767,0.009651
3870.8403,0.009683
3872.7040,0.009682
3874.5677,0.009437
3876.4314,0.009889
3878.2950,0.010216
3880.1587,0.009713
3882.0224,0.009421
3883.8860,0.009685
3885.7497,0.009881
3887.6134,0.009961
3889.4770,0.009810
3891.3407,0.009856
3893.2044,0.010197
3895.0680,0.010377
3896.9317,0.010421
3898.7954,0.010182
3900.6590,0.009745
3902.5227,0.009799
3904.3864,0.009753
3906.2501,0.009604
3908.1137,0.010420
3909.9774,0.011174
3911.8411,0.010945
3913.7047,0.010376
3915.5684,0.010250
3917.4321,0.010525
3919.2957,0.010873
3921.1594,0.010863
3923.0231,0.010636
3924.8867,0.010610
3926.7504,0.011211
3928.6141,0.011219
3930.4777,0.010592
3932.3414,0.010838
3934.2051,0.010924
3936.0688,0.010381
3937.9324,0.010547
3939.7961,0.011082
3941.6598,0.011037
3943.5234,0.010895
3945.3871,0.010970
3947.2508,0.010978
3949.1144,0.011161
3950.9781,0.011242
3952.8418,0.011206
3954.7054,0.011231
3956.5691,0.010986
3958.4328,0.010950
3960.2965,0.011166
3962.1601,0.011110
3964.0238,0.011094
3965.8875,0.011183
3967.7511,0.011545
3969.6148,0.011782
3971.4785,0.011640
3973.3421,0.011226
3975.2058,0.010925
3977.0695,0.011288
3978.9331,0.011526
3980.7968,0.011346
3982.6605,0.011468
3984.5241,0.011446
3986.3878,0.011665
3988.2515,0.011747
3990.1152,0.011158
3991.9788,0.011099
3993.8425,0.011310
3995.7062,0.011154
3997.5698,0.011100
3999.4335,0.011289
