Wavenumber,Intensity
650.4205,0.248306
652.2841,0.245349
654.1478,0.243747
656.0115,0.240454
657.8751,0.236697
659.7388,0.233007
661.6025,0.232556
663.4661,0.231687
665.3298,0.229640
667.1935,0.232059
669.0571,0.234444
670.9208,0.227297
672.7845,0.222961
674.6481,0.221185
676.5118,0.221029
678.3755,0.219512
680.2392,0.217702
682.1028,0.216715
683.9665,0.217545
685.8302,0.217951
687.6938,0.217976
689.5575,0.216625
691.4212,0.216380
693.2848,0.216982
695.1485,0.218361
697.0122,0.220529
698.8758,0.223963
700.7395,0.226520
702.6032,0.227130
704.4669,0.223384
706.3305,0.215404
708.1942,0.204107
710.0579,0.193157
711.9215,0.182873
713.7852,0.173250
715.6489,0.164274
717.5125,0.156720
719.3762,0.150542
721.2399,0.144707
723.1035,0.139286
724.9672,0.134409
726.8309,0.129653
728.6945,0.125891
730.5582,0.123607
732.4219,0.121605
734.2856,0.117588
736.1492,0.112342
738.0129,0.109090
739.8766,0.109996
741.7402,0.113000
743.6039,0.114729
745.4676,0.114280
747.3312,0.113075
749.1949,0.111931
751.0586,0.111148
752.9222,0.109929
754.7859,0.108407
756.6496,0.107161
758.5132,0.106075
760.3769,0.105886
762.2406,0.106074
764.1043,0.105652
765.9679,0.105038
767.8316,0.104239
769.6953,0.103295
771.5589,0.102827
773.4226,0.102951
775.2863,0.103244
777.1499,0.104307
779.0136,0.106192
780.8773,0.108355
782.7409,0.110367
784.6046,0.112619
786.4683,0.114815
788.3320,0.116244
790.1956,0.117541
792.0593,0.119422
793.9230,0.121232
795.7866,0.123682
797.6503,0.126640
799.5140,0.129699
801.3776,0.132363
803.2413,0.133226
805.1050,0.131762
806.9686,0.128960
808.8323,0.126052
810.6960,0.123321
812.5596,0.120359
814.4233,0.117159
816.2870,0.113631
818.1507,0.110374
820.0143,0.107712
821.8780,0.105441
823.7417,0.103749
825.6053,0.103789
827.4690,0.106230
829.3327,0.107963
831.1963,0.102128
833.0600,0.088956
834.9237,0.077175
836.7873,0.070981
838.6510,0.068795
840.5147,0.068087
842.3784,0.067698
844.2420,0.067589
846.1057,0.067845
847.9694,0.068576
849.8330,0.069802
851.6967,0.071494
853.5604,0.073982
855.4240,0.076546
857.2877,0.077628
859.1514,0.075941
861.0150,0.072539
862.8787,0.069952
864.7424,0.068610
866.6060,0.067317
868.4697,0.065993
870.3334,0.065246
872.1971,0.064760
874.0607,0.064384
875.9244,0.064477
877.7881,0.064799
879.6517,0.065160
881.5154,0.065597
883.3791,0.066241
885.2427,0.066913
887.1064,0.067667
888.9701,0.068679
890.8337,0.069875
892.6974,0.071219
894.5611,0.072869
896.4247,0.074888
898.2884,0.077469
900.1521,0.080876
902.0158,0.085080
903.8794,0.089456
905.7431,0.093733
907.6068,0.098124
909.4704,0.103153
911.3341,0.109713
913.1978,0.117634
915.0614,0.121196
916.9251,0.111585
918.7888,0.092759
920.6524,0.078065
922.5161,0.071690
924.3798,0.070131
926.2435,0.070429
928.1071,0.071546
929.9708,0.073347
931.8345,0.075690
933.6981,0.078374
935.5618,0.080155
937.4255,0.079965
939.2891,0.078754
941.1528,0.078004
943.0165,0.078082
944.8801,0.078675
946.7438,0.079675
948.6075,0.081042
950.4711,0.082622
952.3348,0.084520
954.1985,0.086807
956.0622,0.089029
957.9258,0.090507
959.7895,0.091198
961.6532,0.092079
963.5168,0.093666
965.3805,0.095933
967.2442,0.099053
969.1078,0.102988
970.9715,0.107167
972.8352,0.111835
974.6988,0.119060
976.5625,0.131636
978.4262,0.152877
980.2899,0.181576
982.1535,0.193734
984.0172,0.164596
985.8809,0.124597
987.7445,0.105665
989.6082,0.102318
991.4719,0.103086
993.3355,0.105088
995.1992,0.108070
997.0629,0.111738
998.9265,0.115622
1000.7902,0.118815
1002.6539,0.121226
1004.5175,0.123960
1006.3812,0.127743
1008.2449,0.131667
1010.1086,0.134193
1011.9722,0.134849
1013.8359,0.133954
1015.6996,0.131897
1017.5632,0.129439
1019.4269,0.127449
1021.2906,0.126291
1023.1542,0.125813
1025.0179,0.125803
1026.8816,0.126108
1028.7452,0.126516
1030.6089,0.126313
1032.4726,0.125442
1034.3362,0.125177
1036.1999,0.126257
1038.0636,0.128338
1039.9273,0.131318
1041.7909,0.135324
1043.6546,0.140118
1045.5183,0.145158
1047.3819,0.149072
1049.2456,0.149157
1051.1093,0.142909
1052.9729,0.131838
1054.8366,0.121190
1056.7003,0.114139
1058.5639,0.110495
1060.4276,0.109207
1062.2913,0.108983
1064.1550,0.109183
1066.0186,0.110077
1067.8823,0.111635
1069.7460,0.113606
1071.6096,0.115902
1073.4733,0.118196
1075.3370,0.120238
1077.2006,0.122150
1079.0643,0.124186
1080.9280,0.126692
1082.7916,0.129755
1084.6553,0.133249
1086.5190,0.137173
1088.3826,0.141624
1090.2463,0.146821
1092.1100,0.152812
1093.9737,0.159515
1095.8373,0.167049
1097.7010,0.175517
1099.5647,0.184520
1101.4283,0.193331
1103.2920,0.200977
1105.1557,0.206229
1107.0193,0.207272
1108.8830,0.202296
1110.7467,0.191197
1112.6103,0.176206
1114.4740,0.160529
1116.3377,0.146409
1118.2014,0.134997
1120.0650,0.126770
1121.9287,0.121330
1123.7924,0.117721
1125.6560,0.114626
1127.5197,0.111165
1129.3834,0.107300
1131.2470,0.103495
1133.1107,0.100229
1134.9744,0.097649
1136.8380,0.095869
1138.7017,0.094782
1140.5654,0.094143
1142.4290,0.093823
1144.2927,0.093312
1146.1564,0.092073
1148.0201,0.090658
1149.8837,0.089944
1151.7474,0.090117
1153.6111,0.091013
1155.4747,0.092404
1157.3384,0.093665
1159.2021,0.093975
1161.0657,0.093659
1162.9294,0.094106
1164.7931,0.096024
1166.6567,0.099207
1168.5204,0.103386
1170.3841,0.107988
1172.2477,0.111339
1174.1114,0.111287
1175.9751,0.107161
1177.8388,0.101143
1179.7024,0.096306
1181.5661,0.093796
1183.4298,0.093213
1185.2934,0.093996
1187.1571,0.095412
1189.0208,0.096478
1190.8844,0.096175
1192.7481,0.094306
1194.6118,0.091952
1196.4754,0.090366
1198.3391,0.089735
1200.2028,0.089532
1202.0665,0.089307
1203.9301,0.088949
1205.7938,0.088580
1207.6575,0.088447
1209.5211,0.088594
1211.3848,0.088924
1213.2485,0.089339
1215.1121,0.089777
1216.9758,0.090343
1218.8395,0.091040
1220.7031,0.091797
1222.5668,0.092465
1224.4305,0.092847
1226.2941,0.092905
1228.1578,0.092897
1230.0215,0.093038
1231.8852,0.093326
1233.7488,0.093898
1235.6125,0.094801
1237.4762,0.095889
1239.3398,0.097025
1241.2035,0.097891
1243.0672,0.098149
1244.9308,0.097999
1246.7945,0.098113
1248.6582,0.098706
1250.5218,0.099522
1252.3855,0.100456
1254.2492,0.101534
1256.1129,0.102684
1257.9765,0.103785
1259.8402,0.105113
1261.7039,0.106754
1263.5675,0.108439
1265.4312,0.109751
1267.2949,0.110156
1269.1585,0.109974
1271.0222,0.109922
1272.8859,0.110151
1274.7495,0.110806
1276.6132,0.112174
1278.4769,0.114206
1280.3405,0.116939
1282.2042,0.120354
1284.0679,0.124019
1285.9316,0.127315
1287.7952,0.129739
1289.6589,0.131988
1291.5226,0.135073
1293.3862,0.138961
1295.2499,0.144142
1297.1136,0.151350
1298.9772,0.160685
1300.8409,0.172381
1302.7046,0.185113
1304.5682,0.194374
1306.4319,0.194103
1308.2956,0.179446
1310.1592,0.153126
1312.0229,0.126907
1313.8866,0.110058
1315.7503,0.103760
1317.6139,0.103822
1319.4776,0.106630
1321.3413,0.109578
1323.2049,0.112195
1325.0686,0.115235
1326.9323,0.118409
1328.7959,0.121452
1330.6596,0.124329
1332.5233,0.126358
1334.3869,0.127084
1336.2506,0.128041
1338.1143,0.131317
1339.9780,0.135075
1341.8416,0.134244
1343.7053,0.131354
1345.5690,0.130503
1347.4326,0.131892
1349.2963,0.134503
1351.1600,0.136778
1353.0236,0.138521
1354.8873,0.141048
1356.7510,0.144204
1358.6146,0.147281
1360.4783,0.150900
1362.3420,0.155814
1364.2056,0.158767
1366.0693,0.159618
1367.9330,0.163438
1369.7967,0.168711
1371.6603,0.172858
1373.5240,0.179888
1375.3877,0.188351
1377.2513,0.193276
1379.1150,0.199363
1380.9787,0.207056
1382.8423,0.214443
1384.7060,0.222854
1386.5697,0.235513
1388.4333,0.250067
1390.2970,0.256404
1392.1607,0.259153
1394.0244,0.261017
1395.8880,0.255635
1397.7517,0.244226
1399.6154,0.231691
1401.4790,0.219327
1403.3427,0.208951
1405.2064,0.194056
1407.0700,0.172243
1408.9337,0.150272
1410.7974,0.130432
1412.6610,0.116581
1414.5247,0.110404
1416.3884,0.110736
1418.2520,0.118516
1420.1157,0.130672
1421.9794,0.134457
1423.8431,0.130381
1425.7067,0.117262
1427.5704,0.103088
1429.4341,0.093827
1431.2977,0.089292
1433.1614,0.088228
1435.0251,0.090461
1436.8887,0.097138
1438.7524,0.100616
1440.6161,0.100691
1442.4797,0.102547
1444.3434,0.104936
1446.2071,0.107592
1448.0707,0.110294
1449.9344,0.109494
1451.7981,0.105542
1453.6618,0.101375
1455.5254,0.101377
1457.3891,0.110494
1459.2528,0.114444
1461.1164,0.112593
1462.9801,0.113456
1464.8438,0.115315
1466.7074,0.112912
1468.5711,0.108630
1470.4348,0.106995
1472.2984,0.109194
1474.1621,0.110973
1476.0258,0.109532
1477.8895,0.108568
1479.7531,0.108639
1481.6168,0.110597
1483.4805,0.112015
1485.3441,0.112817
1487.2078,0.115238
1489.0715,0.119690
1490.9351,0.122571
1492.7988,0.120659
1494.6625,0.120213
1496.5261,0.124714
1498.3898,0.128584
1500.2535,0.127410
1502.1171,0.124281
1503.9808,0.121832
1505.8445,0.124805
1507.7082,0.134639
1509.5718,0.130524
1511.4355,0.127300
1513.2992,0.126593
1515.1628,0.127249
1517.0265,0.130090
1518.8902,0.131843
1520.7538,0.135172
1522.6175,0.141560
1524.4812,0.141850
1526.3448,0.143713
1528.2085,0.144716
1530.0722,0.143009
1531.9359,0.143552
1533.7995,0.146858
1535.6632,0.145128
1537.5269,0.143213
1539.3905,0.150213
1541.2542,0.163621
1543.1179,0.163487
1544.9815,0.164036
1546.8452,0.163818
1548.7089,0.164234
1550.5725,0.167000
1552.4362,0.168155
1554.2999,0.169038
1556.1635,0.171555
1558.0272,0.181781
1559.8909,0.204977
1561.7546,0.195683
1563.6182,0.192080
1565.4819,0.195459
1567.3456,0.199862
1569.2092,0.207508
1571.0729,0.214814
1572.9366,0.214918
1574.8002,0.220511
1576.6639,0.234137
1578.5276,0.238313
1580.3912,0.237846
1582.2549,0.241265
1584.1186,0.244688
1585.9822,0.247438
1587.8459,0.249349
1589.7096,0.250531
1591.5733,0.250748
1593.4369,0.250407
1595.3006,0.249153
1597.1643,0.246326
1599.0279,0.242407
1600.8916,0.238424
1602.7553,0.234107
1604.6189,0.229584
1606.4826,0.225679
1608.3463,0.222941
1610.2099,0.220102
1612.0736,0.215956
1613.9373,0.211801
1615.8010,0.208745
1617.6646,0.202035
1619.5283,0.191846
1621.3920,0.184822
1623.2556,0.176844
1625.1193,0.165837
1626.9830,0.155397
1628.8466,0.142813
1630.7103,0.129621
1632.5740,0.119071
1634.4376,0.109394
1636.3013,0.098152
1638.1650,0.090675
1640.0286,0.088452
1641.8923,0.086621
1643.7560,0.085895
1645.6197,0.086493
1647.4833,0.088226
1649.3470,0.088210
1651.2107,0.089877
1653.0743,0.097596
1654.9380,0.103294
1656.8017,0.100662
1658.6653,0.101027
1660.5290,0.101973
1662.3927,0.102222
1664.2563,0.100311
1666.1200,0.097833
1667.9837,0.096596
1669.8474,0.095856
1671.7110,0.094211
1673.5747,0.094607
1675.4384,0.098042
1677.3020,0.101539
1679.1657,0.103772
1681.0294,0.108536
1682.8930,0.114938
1684.7567,0.124357
1686.6204,0.124770
1688.4840,0.122071
1690.3477,0.119645
1692.2114,0.115596
1694.0750,0.111795
1695.9387,0.107752
1697.8024,0.101648
1699.6661,0.097737
1701.5297,0.089031
1703.3934,0.080517
1705.2571,0.071509
1707.1207,0.059647
1708.9844,0.051525
1710.8481,0.045808
1712.7117,0.041082
1714.5754,0.038027
1716.4391,0.035511
1718.3027,0.033762
1720.1664,0.031912
1722.0301,0.030713
1723.8937,0.028830
1725.7574,0.026473
1727.6211,0.024217
1729.4848,0.022181
1731.3484,0.020347
1733.2121,0.019360
1735.0758,0.017730
1736.9394,0.016829
1738.8031,0.016554
1740.6668,0.016239
1742.5304,0.015873
1744.3941,0.015687
1746.2578,0.015240
1748.1214,0.015118
1749.9851,0.014671
1751.8488,0.014185
1753.7125,0.013905
1755.5761,0.014174
1757.4398,0.014102
1759.3035,0.013766
1761.1671,0.013506
1763.0308,0.013353
1764.8945,0.012975
1766.7581,0.012922
1768.6218,0.012674
1770.4855,0.012464
1772.3491,0.012346
1774.2128,0.012251
1776.0765,0.012084
1777.9401,0.012271
1779.8038,0.012434
1781.6675,0.012515
1783.5312,0.012376
1785.3948,0.012464
1787.2585,0.012320
1789.1222,0.012336
1790.9858,0.012365
1792.8495,0.012384
1794.7132,0.012084
1796.5768,0.012244
1798.4405,0.012265
1800.3042,0.012293
1802.1678,0.012264
1804.0315,0.012510
1805.8952,0.012624
1807.7589,0.012684
1809.6225,0.012511
1811.4862,0.012544
1813.3499,0.012549
1815.2135,0.012596
1817.0772,0.012314
1818.9409,0.012304
1820.8045,0.012412
1822.6682,0.012575
1824.5319,0.012550
1826.3955,0.012234
1828.2592,0.011853
1830.1229,0.012051
1831.9865,0.012012
1833.8502,0.011928
1835.7139,0.011671
1837.5776,0.011665
1839.4412,0.011733
1841.3049,0.011938
1843.1686,0.012195
1845.0322,0.012547
1846.8959,0.011911
1848.7596,0.011813
1850.6232,0.012093
1852.4869,0.012302
1854.3506,0.012160
1856.2142,0.012348
1858.0779,0.012605
1859.9416,0.012695
1861.8052,0.012347
1863.6689,0.012267
1865.5326,0.012228
1867.3963,0.012319
1869.2599,0.012170
1871.1236,0.011941
1872.9873,0.011779
1874.8509,0.012115
1876.7146,0.012182
1878.5783,0.012126
1880.4419,0.011984
1882.3056,0.012271
1884.1693,0.012258
1886.0329,0.012215
1887.8966,0.012090
1889.7603,0.012227
1891.6240,0.012129
1893.4876,0.012094
1895.3513,0.011968
1897.2150,0.011923
1899.0786,0.011848
1900.9423,0.012190
1902.8060,0.012219
1904.6696,0.012211
1906.5333,0.012049
1908.3970,0.012314
1910.2606,0.012424
1912.1243,0.012391
1913.9880,0.012204
1915.8516,0.012188
1917.7153,0.011736
1919.5790,0.012011
1921.4427,0.012353
1923.3063,0.012238
1925.1700,0.011687
1927.0337,0.011658
1928.8973,0.011325
1930.7610,0.011640
1932.6247,0.011732
1934.4883,0.012058
1936.3520,0.012040
1938.2157,0.012200
1940.0793,0.012113
1941.9430,0.011481
1943.8067,0.009904
1945.6704,0.010297
1947.5340,0.010431
1949.3977,0.010109
1951.2614,0.010136
1953.1250,0.010724
1954.9887,0.010428
1956.8524,0.010157
1958.7160,0.008857
1960.5797,0.008082
1962.4434,0.008189
1964.3070,0.007637
1966.1707,0.005422
1968.0344,0.004181
1969.8980,0.003277
1971.7617,0.003643
1973.6254,0.003878
1975.4891,0.004460
1977.3527,0.005060
1979.2164,0.007105
1981.0801,0.007143
1982.9437,0.006838
1984.8074,0.007551
1986.6711,0.008583
1988.5347,0.008548
1990.3984,0.008384
1992.2621,0.007620
1994.1257,0.008022
1995.9894,0.008550
1997.8531,0.008792
1999.7167,0.009042
2001.5804,0.008554
2003.4441,0.006485
2005.3078,0.006719
2007.1714,0.006476
2009.0351,0.006377
2010.8988,0.006057
2012.7624,0.006021
2014.6261,0.004859
2016.4898,0.005050
2018.3534,0.005153
2020.2171,0.005658
2022.0808,0.005206
2023.9444,0.005654
2025.8081,0.004901
2027.6718,0.005563
2029.5355,0.005858
2031.3991,0.006184
2033.2628,0.005362
2035.1265,0.005297
2036.9901,0.006013
2038.8538,0.007091
2040.7175,0.007075
2042.5811,0.007708
2044.4448,0.007962
2046.3085,0.009420
2048.1721,0.010343
2050.0358,0.011148
2051.8995,0.011338
2053.7631,0.010901
2055.6268,0.010698
2057.4905,0.012100
2059.3542,0.012514
2061.2178,0.013075
2063.0815,0.013120
2064.9452,0.013311
2066.8088,0.013552
2068.6725,0.014148
2070.5362,0.014092
2072.3998,0.014321
2074.2635,0.014393
2076.1272,0.014607
2077.9908,0.014999
2079.8545,0.015845
2081.7182,0.015506
2083.5819,0.015445
2085.4455,0.015684
2087.3092,0.015907
2089.1729,0.016130
2091.0365,0.016754
2092.9002,0.016632
2094.7639,0.016207
2096.6275,0.015972
2098.4912,0.016198
2100.3549,0.016268
2102.2185,0.016580
2104.0822,0.016720
2105.9459,0.016652
2107.8095,0.016223
2109.6732,0.016429
2111.5369,0.016839
2113.4006,0.017381
2115.2642,0.017192
2117.1279,0.016676
2118.9916,0.016400
2120.8552,0.016641
2122.7189,0.016903
2124.5826,0.017268
2126.4462,0.016943
2128.3099,0.017024
2130.1736,0.015842
2132.0372,0.014892
2133.9009,0.014293
2135.7646,0.014048
2137.6282,0.014184
2139.4919,0.013858
2141.3556,0.012688
2143.2193,0.012401
2145.0829,0.011671
2146.9466,0.011354
2148.8103,0.010710
2150.6739,0.009585
2152.5376,0.008966
2154.4013,0.008418
2156.2649,0.006480
2158.1286,0.005485
2159.9923,0.004974
2161.8559,0.006626
2163.7196,0.006704
2165.5833,0.007238
2167.4470,0.008244
2169.3106,0.008689
2171.1743,0.009110
2173.0380,0.010260
2174.9016,0.009804
2176.7653,0.010206
2178.6290,0.010724
2180.4926,0.010405
2182.3563,0.009786
2184.2200,0.010786
2186.0836,0.010796
2187.9473,0.011474
2189.8110,0.012217
2191.6746,0.012272
2193.5383,0.011637
2195.4020,0.012604
2197.2657,0.013104
2199.1293,0.013733
2200.9930,0.013639
2202.8567,0.014106
2204.7203,0.014097
2206.5840,0.014524
2208.4477,0.015204
2210.3113,0.016244
2212.1750,0.015491
2214.0387,0.014716
2215.9023,0.015306
2217.7660,0.015520
2219.6297,0.015544
2221.4934,0.016013
2223.3570,0.015974
2225.2207,0.016563
2227.0844,0.016411
2228.9480,0.016885
2230.8117,0.016741
2232.6754,0.016487
2234.5390,0.017147
2236.4027,0.018794
2238.2664,0.019025
2240.1300,0.018784
2241.9937,0.018561
2243.8574,0.018705
2245.7210,0.018595
2247.5847,0.018474
2249.4484,0.018724
2251.3121,0.019835
2253.1757,0.019943
2255.0394,0.019722
2256.9031,0.019810
2258.7667,0.020400
2260.6304,0.020946
2262.4941,0.020360
2264.3577,0.020234
2266.2214,0.021420
2268.0851,0.021985
2269.9487,0.021953
2271.8124,0.022267
2273.6761,0.023283
2275.5397,0.023704
2277.4034,0.023292
2279.2671,0.023428
2281.1308,0.024662
2282.9944,0.025231
2284.8581,0.025192
2286.7218,0.025009
2288.5854,0.024819
2290.4491,0.025164
2292.3128,0.025209
2294.1764,0.024985
2296.0401,0.025238
2297.9038,0.025508
2299.7674,0.025826
2301.6311,0.025957
2303.4948,0.025968
2305.3585,0.025793
2307.2221,0.026158
2309.0858,0.026451
2310.9495,0.026256
2312.8131,0.026043
2314.6768,0.026142
2316.5405,0.025975
2318.4041,0.025799
2320.2678,0.026151
2322.1315,0.026687
2323.9951,0.026555
2325.8588,0.026025
2327.7225,0.025307
2329.5861,0.025045
2331.4498,0.025150
2333.3135,0.025157
2335.1772,0.025032
2337.0408,0.024998
2338.9045,0.024988
2340.7682,0.025295
2342.6318,0.025536
2344.4955,0.025662
2346.3592,0.025328
2348.2228,0.024887
2350.0865,0.024546
2351.9502,0.024468
2353.8138,0.024648
2355.6775,0.024927
2357.5412,0.024754
2359.4049,0.024612
2361.2685,0.024699
2363.1322,0.024872
2364.9959,0.024850
2366.8595,0.025229
2368.7232,0.025584
2370.5869,0.025976
2372.4505,0.026229
2374.3142,0.026434
2376.1779,0.026578
2378.0415,0.026566
2379.9052,0.026658
2381.7689,0.026816
2383.6325,0.026607
2385.4962,0.026582
2387.3599,0.026684
2389.2236,0.026733
2391.0872,0.026770
2392.9509,0.026824
2394.8146,0.026893
2396.6782,0.027030
2398.5419,0.027146
2400.4056,0.027368
2402.2692,0.027601
2404.1329,0.027630
2405.9966,0.027892
2407.8602,0.027900
2409.7239,0.027774
2411.5876,0.027832
2413.4512,0.027958
2415.3149,0.028290
2417.1786,0.028278
2419.0423,0.028436
2420.9059,0.028686
2422.7696,0.028739
2424.6333,0.029034
2426.4969,0.029554
2428.3606,0.029479
2430.2243,0.029500
2432.0879,0.029619
2433.9516,0.029706
2435.8153,0.029777
2437.6789,0.029810
2439.5426,0.029810
2441.4063,0.029756
2443.2700,0.029594
2445.1336,0.029351
2446.9973,0.029256
2448.8610,0.029553
2450.7246,0.029623
2452.5883,0.029631
2454.4520,0.029985
2456.3156,0.030104
2458.1793,0.029799
2460.0430,0.029518
2461.9066,0.029589
2463.7703,0.029882
2465.6340,0.029731
2467.4976,0.029839
2469.3613,0.030155
2471.2250,0.030149
2473.0887,0.030075
2474.9523,0.030306
2476.8160,0.030551
2478.6797,0.030840
2480.5433,0.031080
2482.4070,0.031526
2484.2707,0.031893
2486.1343,0.032166
2487.9980,0.032043
2489.8617,0.031929
2491.7253,0.031993
2493.5890,0.032060
2495.4527,0.032335
2497.3164,0.032613
2499.1800,0.032628
2501.0437,0.032505
2502.9074,0.032284
2504.7710,0.032722
2506.6347,0.032717
2508.4984,0.032614
2510.3620,0.033132
2512.2257,0.033729
2514.0894,0.033532
2515.9530,0.033225
2517.8167,0.033795
2519.6804,0.034161
2521.5440,0.034251
2523.4077,0.034641
2525.2714,0.034741
2527.1351,0.034870
2528.9987,0.034905
2530.8624,0.035181
2532.7261,0.035088
2534.5897,0.034987
2536.4534,0.034956
2538.3171,0.035077
2540.1807,0.035309
2542.0444,0.035435
2543.9081,0.035203
2545.7717,0.035255
2547.6354,0.035353
2549.4991,0.035162
2551.3627,0.034952
2553.2264,0.035218
2555.0901,0.035466
2556.9538,0.035372
2558.8174,0.035826
2560.6811,0.036369
2562.5448,0.036441
2564.4084,0.036748
2566.2721,0.037228
2568.1358,0.037405
2569.9994,0.037254
2571.8631,0.037540
2573.7268,0.037903
2575.5904,0.038193
2577.4541,0.038352
2579.3178,0.038421
2581.1815,0.038923
2583.0451,0.039196
2584.9088,0.039822
2586.7725,0.040233
2588.6361,0.040145
2590.4998,0.040548
2592.3635,0.040868
2594.2271,0.040918
2596.0908,0.041218
2597.9545,0.041786
2599.8181,0.041920
2601.6818,0.041732
2603.5455,0.041609
2605.4091,0.041674
2607.2728,0.042211
2609.1365,0.042640
2611.0002,0.042610
2612.8638,0.042535
2614.7275,0.042661
2616.5912,0.042921
2618.4548,0.043145
2620.3185,0.043456
2622.1822,0.043923
2624.0458,0.044487
2625.9095,0.044961
2627.7732,0.045231
2629.6368,0.045549
2631.5005,0.045843
2633.3642,0.046036
2635.2279,0.046475
2637.0915,0.047039
2638.9552,0.047267
2640.8189,0.047378
2642.6825,0.047465
2644.5462,0.047771
2646.4099,0.048167
2648.2735,0.048405
2650.1372,0.048360
2652.0009,0.048362
2653.8645,0.048604
2655.7282,0.048720
2657.5919,0.048595
2659.4555,0.048898
2661.3192,0.049211
2663.1829,0.049226
2665.0466,0.049320
2666.9102,0.049618
2668.7739,0.049750
2670.6376,0.049897
2672.5012,0.050139
2674.3649,0.050564
2676.2286,0.051139
2678.0922,0.051554
2679.9559,0.051842
2681.8196,0.052511
2683.6832,0.052847
2685.5469,0.052893
2687.4106,0.053289
2689.2742,0.053780
2691.1379,0.054040
2693.0016,0.054276
2694.8653,0.054693
2696.7289,0.055123
2698.5926,0.055581
2700.4563,0.056264
2702.3199,0.056604
2704.1836,0.056912
2706.0473,0.057201
2707.9109,0.057650
2709.7746,0.058248
2711.6383,0.058772
2713.5019,0.059340
2715.3656,0.060023
2717.2293,0.060322
2719.0930,0.060553
2720.9566,0.061190
2722.8203,0.061834
2724.6840,0.062522
2726.5476,0.063291
2728.4113,0.064046
2730.2750,0.064584
2732.1386,0.064911
2734.0023,0.065420
2735.8660,0.065958
2737.7296,0.066810
2739.5933,0.067671
2741.4570,0.068287
2743.3206,0.068918
2745.1843,0.069448
2747.0480,0.070339
2748.9117,0.071654
2750.7753,0.072591
2752.6390,0.073180
2754.5027,0.073980
2756.3663,0.074919
2758.2300,0.075613
2760.0937,0.076491
2761.9573,0.077536
2763.8210,0.078355
2765.6847,0.078959
2767.5483,0.079735
2769.4120,0.080697
2771.2757,0.081723
2773.1394,0.082575
2775.0030,0.083687
2776.8667,0.084924
2778.7304,0.085755
2780.5940,0.086203
2782.4577,0.086603
2784.3214,0.086797
2786.1850,0.086735
2788.0487,0.086572
2789.9124,0.086573
2791.7760,0.086296
2793.6397,0.085586
2795.5034,0.084665
2797.3670,0.084027
2799.2307,0.083567
2801.0944,0.083230
2802.9581,0.082481
2804.8217,0.081872
2806.6854,0.081450
2808.5491,0.080831
2810.4127,0.080475
2812.2764,0.080474
2814.1401,0.080276
2816.0037,0.080041
2817.8674,0.080080
2819.7311,0.080496
2821.5947,0.080776
2823.4584,0.080912
2825.3221,0.081228
2827.1857,0.081207
2829.0494,0.080628
2830.9131,0.080073
2832.7768,0.079792
2834.6404,0.079862
2836.5041,0.080045
2838.3678,0.080471
2840.2314,0.081302
2842.0951,0.081977
2843.9588,0.082221
2845.8224,0.082782
2847.6861,0.083572
2849.5498,0.084789
2851.4134,0.086013
2853.2771,0.087123
2855.1408,0.088147
2857.0045,0.088994
2858.8681,0.089790
2860.7318,0.091033
2862.5955,0.091747
2864.4591,0.091869
2866.3228,0.092211
2868.1865,0.092712
2870.0501,0.092948
2871.9138,0.093479
2873.7775,0.094133
2875.6411,0.094714
2877.5048,0.095111
2879.3685,0.095745
2881.2321,0.096540
2883.0958,0.097323
2884.9595,0.097914
2886.8232,0.098551
2888.6868,0.099083
2890.5505,0.099771
2892.4142,0.100448
2894.2778,0.101038
2896.1415,0.101447
2898.0052,0.102145
2899.8688,0.102467
2901.7325,0.102468
2903.5962,0.102026
2905.4598,0.102087
2907.3235,0.102804
2909.1872,0.103399
2911.0509,0.103804
2912.9145,0.104574
2914.7782,0.105727
2916.6419,0.106777
2918.5055,0.107716
2920.3692,0.108755
2922.2329,0.109447
2924.0965,0.110155
2925.9602,0.110599
2927.8239,0.111275
2929.6875,0.112105
2931.5512,0.112951
2933.4149,0.113551
2935.2785,0.114461
2937.1422,0.115464
2939.0059,0.116076
2940.8696,0.116187
2942.7332,0.116471
2944.5969,0.116849
2946.4606,0.117266
2948.3242,0.117524
2950.1879,0.117756
2952.0516,0.118167
2953.9152,0.118818
2955.7789,0.119182
2957.6426,0.119942
2959.5062,0.120578
2961.3699,0.120961
2963.2336,0.121835
2965.0972,0.123234
2966.9609,0.123904
2968.8246,0.124531
2970.6883,0.125543
2972.5519,0.126645
2974.4156,0.127358
2976.2793,0.128198
2978.1429,0.128936
2980.0066,0.130126
2981.8703,0.130709
2983.7339,0.130780
2985.5976,0.130900
2987.4613,0.131339
2989.3249,0.131731
2991.1886,0.132351
2993.0523,0.133361
2994.9160,0.134812
2996.7796,0.135733
2998.6433,0.136515
3000.5070,0.137360
3002.3706,0.138572
3004.2343,0.139666
3006.0980,0.140515
3007.9616,0.141361
3009.8253,0.142894
3011.6890,0.144308
3013.5526,0.145239
3015.4163,0.145265
3017.2800,0.145713
3019.1436,0.146226
3021.0073,0.146616
3022.8710,0.146972
3024.7347,0.147428
3026.5983,0.147494
3028.4620,0.147739
3030.3257,0.148445
3032.1893,0.149609
3034.0530,0.149835
3035.9167,0.149761
3037.7803,0.149949
3039.6440,0.150028
3041.5077,0.150185
3043.3713,0.151053
3045.2350,0.151041
3047.0987,0.150954
3048.9624,0.150882
3050.8260,0.150989
3052.6897,0.151463
3054.5534,0.152008
3056.4170,0.151929
3058.2807,0.152043
3060.1444,0.151716
3062.0080,0.151738
3063.8717,0.152110
3065.7354,0.152182
3067.5990,0.151863
3069.4627,0.152051
3071.3264,0.151506
3073.1900,0.150871
3075.0537,0.150435
3076.9174,0.150133
3078.7811,0.149927
3080.6447,0.149669
3082.5084,0.148853
3084.3721,0.148494
3086.2357,0.147917
3088.0994,0.147133
3089.9631,0.145638
3091.8267,0.144774
3093.6904,0.143816
3095.5541,0.142655
3097.4177,0.141345
3099.2814,0.140300
3101.1451,0.139319
3103.0087,0.138107
3104.8724,0.136512
3106.7361,0.135095
3108.5998,0.134061
3110.4634,0.133101
3112.3271,0.131896
3114.1908,0.130843
3116.0544,0.129096
3117.9181,0.127872
3119.7818,0.127409
3121.6454,0.127118
3123.5091,0.126164
3125.3728,0.124241
3127.2364,0.122276
3129.1001,0.121205
3130.9638,0.120356
3132.8275,0.119632
3134.6911,0.118546
3136.5548,0.117204
3138.4185,0.116553
3140.2821,0.116693
3142.1458,0.116345
3144.0095,0.114998
3145.8731,0.113346
3147.7368,0.112104
3149.6005,0.111362
3151.4641,0.111313
3153.3278,0.111350
3155.1915,0.110952
3157.0551,0.109226
3158.9188,0.107618
3160.7825,0.106880
3162.6462,0.106238
3164.5098,0.105473
3166.3735,0.104898
3168.2372,0.104222
3170.1008,0.103389
3171.9645,0.102502
3173.8282,0.102061
3175.6918,0.101257
3177.5555,0.100414
3179.4192,0.100054
3181.2828,0.099669
3183.1465,0.098777
3185.0102,0.098346
3186.8739,0.097955
3188.7375,0.097602
3190.6012,0.097253
3192.4649,0.097286
3194.3285,0.097638
3196.1922,0.097465
3198.0559,0.097171
3199.9195,0.097076
3201.7832,0.096448
3203.6469,0.096289
3205.5105,0.096762
3207.3742,0.097694
3209.2379,0.097918
3211.1015,0.097389
3212.9652,0.096684
3214.8289,0.097002
3216.6926,0.097643
3218.5562,0.097846
3220.4199,0.097961
3222.2836,0.098094
3224.1472,0.098287
3226.0109,0.098618
3227.8746,0.098281
3229.7382,0.098401
3231.6019,0.098925
3233.4656,0.099327
3235.3292,0.099925
3237.1929,0.100498
3239.0566,0.100189
3240.9202,0.100112
3242.7839,0.100300
3244.6476,0.100905
3246.5113,0.101350
3248.3749,0.101618
3250.2386,0.101940
3252.1023,0.102302
3253.9659,0.102697
3255.8296,0.103485
3257.6933,0.104069
3259.5569,0.104260
3261.4206,0.104403
3263.2843,0.105021
3265.1479,0.105412
3267.0116,0.105631
3268.8753,0.105710
3270.7390,0.105875
3272.6026,0.105737
3274.4663,0.105842
3276.3300,0.105750
3278.1936,0.104831
3280.0573,0.103488
3281.9210,0.102760
3283.7846,0.102429
3285.6483,0.102513
3287.5120,0.101773
3289.3756,0.101033
3291.2393,0.100692
3293.1030,0.099840
3294.9666,0.098202
3296.8303,0.097101
3298.6940,0.095651
3300.5577,0.094985
3302.4213,0.094190
3304.2850,0.092855
3306.1487,0.092255
3308.0123,0.091568
3309.8760,0.091093
3311.7397,0.091513
3313.6033,0.090862
3315.4670,0.090348
3317.3307,0.090679
3319.1943,0.090962
3321.0580,0.091225
3322.9217,0.090639
3324.7854,0.089975
3326.6490,0.091197
3328.5127,0.091763
3330.3764,0.091741
3332.2400,0.091131
3334.1037,0.090248
3335.9674,0.089701
3337.8310,0.090132
3339.6947,0.089506
3341.5584,0.087565
3343.4220,0.085714
3345.2857,0.084678
3347.1494,0.083022
3349.0130,0.081037
3350.8767,0.079760
3352.7404,0.078760
3354.6041,0.077215
3356.4677,0.075388
3358.3314,0.074001
3360.1951,0.073145
3362.0587,0.072119
3363.9224,0.070800
3365.7861,0.069387
3367.6497,0.069293
3369.5134,0.069619
3371.3771,0.069039
3373.2407,0.068479
3375.1044,0.068667
3376.9681,0.068821
3378.8317,0.068989
3380.6954,0.068688
3382.5591,0.068678
3384.4228,0.069594
3386.2864,0.070396
3388.1501,0.070647
3390.0138,0.071390
3391.8774,0.071862
3393.7411,0.072567
3395.6048,0.073178
3397.4684,0.073074
3399.3321,0.072353
3401.1958,0.071684
3403.0594,0.071290
3404.9231,0.070785
3406.7868,0.068887
3408.6505,0.066722
3410.5141,0.065542
3412.3778,0.064086
3414.2415,0.062179
3416.1051,0.060134
3417.9688,0.057098
3419.8325,0.055369
3421.6961,0.054370
3423.5598,0.052359
3425.4235,0.049783
3427.2871,0.047609
3429.1508,0.045456
3431.0145,0.043747
3432.8781,0.043596
3434.7418,0.043384
3436.6055,0.041999
3438.4692,0.040954
3440.3328,0.040681
3442.1965,0.039933
3444.0602,0.037561
3445.9238,0.036035
3447.7875,0.035643
3449.6512,0.034978
3451.5148,0.034116
3453.3785,0.033507
3455.2422,0.033125
3457.1058,0.032203
3458.9695,0.031892
3460.8332,0.031979
3462.6969,0.030832
3464.5605,0.029475
3466.4242,0.029170
3468.2879,0.029226
3470.1515,0.028098
3472.0152,0.027560
3473.8789,0.027515
3475.7425,0.026774
3477.6062,0.026084
3479.4699,0.025930
3481.3335,0.025297
3483.1972,0.024517
3485.0609,0.024480
3486.9245,0.023864
3488.7882,0.022864
3490.6519,0.022901
3492.5156,0.022823
3494.3792,0.022924
3496.2429,0.022437
3498.1066,0.021140
3499.9702,0.020461
3501.8339,0.019960
3503.6976,0.019345
3505.5612,0.018873
3507.4249,0.018849
3509.2886,0.018096
3511.1522,0.016801
3513.0159,0.016832
3514.8796,0.017065
3516.7432,0.016371
3518.6069,0.015606
3520.4706,0.015557
3522.3343,0.015713
3524.1979,0.015618
3526.0616,0.014687
3527.9253,0.013564
3529.7889,0.013952
3531.6526,0.014633
3533.5163,0.015027
3535.3799,0.015474
3537.2436,0.014398
3539.1073,0.012671
3540.9709,0.012604
3542.8346,0.012484
3544.6983,0.012487
3546.5620,0.012883
3548.4256,0.012775
3550.2893,0.012924
3552.1530,0.012859
3554.0166,0.011860
3555.8803,0.011498
3557.7440,0.011046
3559.6076,0.009780
3561.4713,0.009856
3563.3350,0.011249
3565.1986,0.010998
3567.0623,0.009615
3568.9260,0.008374
3570.7896,0.008673
3572.6533,0.009605
3574.5170,0.009718
3576.3807,0.009432
3578.2443,0.009162
3580.1080,0.009323
3581.9717,0.009518
3583.8353,0.009537
3585.6990,0.009742
3587.5627,0.010052
3589.4263,0.009627
3591.2900,0.008805
3593.1537,0.008942
3595.0173,0.009092
3596.8810,0.009396
3598.7447,0.010056
3600.6084,0.010279
3602.4720,0.010221
3604.3357,0.010370
3606.1994,0.010442
3608.0630,0.009866
3609.9267,0.009167
3611.7904,0.009005
3613.6540,0.009270
3615.5177,0.008794
3617.3814,0.007897
3619.2450,0.007481
3621.1087,0.007852
3622.9724,0.009595
3624.8360,0.010414
3626.6997,0.009922
3628.5634,0.009164
3630.4271,0.007812
3632.2907,0.007926
3634.1544,0.009631
3636.0181,0.011064
3637.8817,0.010819
3639.7454,0.010187
3641.6091,0.010315
3643.4727,0.010162
3645.3364,0.009208
3647.2001,0.008003
3649.0637,0.006998
3650.9274,0.007369
3652.7911,0.009242
3654.6547,0.009905
3656.5184,0.009804
3658.3821,0.010156
3660.2458,0.010640
3662.1094,0.010745
3663.9731,0.011031
3665.8368,0.011226
3667.7004,0.010939
3669.5641,0.010763
3671.4278,0.011174
3673.2914,0.012160
3675.1551,0.012537
3677.0188,0.011254
3678.8824,0.009680
3680.7461,0.009707
3682.6098,0.009854
3684.4735,0.009966
3686.3371,0.010139
3688.2008,0.010125
3690.0645,0.009463
3691.9281,0.008628
3693.7918,0.009041
3695.6555,0.009476
3697.5191,0.009668
3699.3828,0.010176
3701.2465,0.010707
3703.1101,0.010721
3704.9738,0.010695
3706.8375,0.011183
3708.7011,0.010913
3710.5648,0.010118
3712.4285,0.009684
3714.2922,0.009257
3716.1558,0.009754
3718.0195,0.010752
3719.8832,0.010901
3721.7468,0.010535
3723.6105,0.010490
3725.4742,0.010400
3727.3378,0.010344
3729.2015,0.010205
3731.0652,0.009836
3732.9288,0.009308
3734.7925,0.008444
3736.6562,0.007928
3738.5199,0.008030
3740.3835,0.009179
3742.2472,0.010012
3744.1109,0.009026
3745.9745,0.006620
3747.8382,0.006878
3749.7019,0.008784
3751.5655,0.009635
3753.4292,0.009968
3755.2929,0.010105
3757.1565,0.010509
3759.0202,0.011096
3760.8839,0.011197
3762.7475,0.011231
3764.6112,0.011420
3766.4749,0.011735
3768.3386,0.012200
3770.2022,0.011964
3772.0659,0.011235
3773.9296,0.011369
3775.7932,0.012163
3777.6569,0.012570
3779.5206,0.012246
3781.3842,0.011791
3783.2479,0.012005
3785.1116,0.012258
3786.9752,0.012347
3788.8389,0.012519
3790.7026,0.012515
3792.5662,0.012695
3794.4299,0.012635
3796.2936,0.011851
3798.1573,0.011321
3800.0209,0.011524
3801.8846,0.012018
3803.7483,0.012423
3805.6119,0.012278
3807.4756,0.011958
3809.3393,0.011737
3811.2029,0.011965
3813.0666,0.012276
3814.9303,0.012545
3816.7939,0.012435
3818.6576,0.011680
3820.5213,0.011475
3822.3850,0.011584
3824.2486,0.011834
3826.1123,0.011816
3827.9760,0.011941
3829.8396,0.012442
3831.7033,0.012277
3833.5670,0.011844
3835.4306,0.011814
3837.2943,0.011781
3839.1580,0.011605
3841.0216,0.011295
3842.8853,0.011674
3844.7490,0.012550
3846.6126,0.012669
3848.4763,0.012445
3850.3400,0.012371
3852.2037,0.012143
3854.0673,0.011711
3855.9310,0.011349
3857.7947,0.011688
3859.6583,0.012288
3861.5220,0.012927
3863.3857,0.013388
3865.2493,0.013363
3867.1130,0.012541
3868.9767,0.011661
3870.8403,0.011810
3872.7040,0.012666
3874.5677,0.013083
3876.4314,0.013345
3878.2950,0.013200
3880.1587,0.012727
3882.0224,0.012718
3883.8860,0.013392
3885.7497,0.013856
3887.6134,0.013490
3889.4770,0.012688
3891.3407,0.012763
3893.2044,0.013175
3895.0680,0.013187
3896.9317,0.012984
3898.7954,0.012645
3900.6590,0.012629
3902.5227,0.013628
3904.3864,0.013977
3906.2501,0.013594
3908.1137,0.013454
3909.9774,0.013789
3911.8411,0.014600
3913.7047,0.014718
3915.5684,0.014276
3917.4321,0.014134
3919.2957,0.014059
3921.1594,0.013962
3923.0231,0.014088
3924.8867,0.014473
3926.7504,0.014850
3928.6141,0.014992
3930.4777,0.014637
3932.3414,0.014121
3934.2051,0.014264
3936.0688,0.014772
3937.9324,0.014836
3939.7961,0.014940
3941.6598,0.014908
3943.5234,0.014493
3945.3871,0.014933
3947.2508,0.015436
3949.1144,0.015161
3950.9781,0.014998
3952.8418,0.014682
3954.7054,0.014524
3956.5691,0.015191
3958.4328,0.015290
3960.2965,0.014959
3962.1601,0.015017
3964.0238,0.015281
3965.8875,0.016069
3967.7511,0.015838
3969.6148,0.014972
3971.4785,0.015245
3973.3421,0.015546
3975.2058,0.015256
3977.0695,0.015387
3978.9331,0.015926
3980.7968,0.015952
3982.6605,0.015425
3984.5241,0.015264
3986.3878,0.015337
3988.2515,0.015509
3990.1152,0.015708
3991.9788,0.015842
3993.8425,0.015624
3995.7062,0.015409
3997.5698,0.015045
3999.4335,0.015047
