Wavenumber,Intensity
650.4205,0.207715
652.2841,0.207262
654.1478,0.205981
656.0115,0.200748
657.8751,0.197598
659.7388,0.197797
661.6025,0.200276
663.4661,0.200520
665.3298,0.200795
667.1935,0.202856
669.0571,0.202491
670.9208,0.197028
672.7845,0.195515
674.6481,0.193239
676.5118,0.191440
678.3755,0.189852
680.2392,0.188365
682.1028,0.186270
683.9665,0.183319
685.8302,0.182040
687.6938,0.182061
689.5575,0.180933
691.4212,0.180160
693.2848,0.178691
695.1485,0.178385
697.0122,0.180602
698.8758,0.182148
700.7395,0.180464
702.6032,0.179409
704.4669,0.177452
706.3305,0.173018
708.1942,0.165894
710.0579,0.157479
711.9215,0.148887
713.7852,0.141274
715.6489,0.134566
717.5125,0.128471
719.3762,0.122563
721.2399,0.117118
723.1035,0.112791
724.9672,0.108885
726.8309,0.104946
728.6945,0.101873
730.5582,0.098896
732.4219,0.095297
734.2856,0.091277
736.1492,0.088096
738.0129,0.086782
739.8766,0.087476
741.7402,0.090122
743.6039,0.093031
745.4676,0.093781
747.3312,0.092976
749.1949,0.092198
751.0586,0.091057
752.9222,0.089828
754.7859,0.089409
756.6496,0.089058
758.5132,0.088300
760.3769,0.087601
762.2406,0.087173
764.1043,0.086916
765.9679,0.086522
767.8316,0.085919
769.6953,0.085834
771.5589,0.086624
773.4226,0.087215
775.2863,0.087469
777.1499,0.088393
779.0136,0.089433
780.8773,0.090466
782.7409,0.091770
784.6046,0.093578
786.4683,0.095789
788.3320,0.097507
790.1956,0.098794
792.0593,0.100714
793.9230,0.102954
795.7866,0.104985
797.6503,0.106880
799.5140,0.108484
801.3776,0.109781
803.2413,0.110626
805.1050,0.110149
806.9686,0.108923
808.8323,0.106991
810.6960,0.104702
812.5596,0.102150
814.4233,0.099083
816.2870,0.095815
818.1507,0.092990
820.0143,0.090633
821.8780,0.088924
823.7417,0.088210
825.6053,0.088789
827.4690,0.090644
829.3327,0.091702
831.1963,0.086389
833.0600,0.074935
834.9237,0.064969
836.7873,0.060041
838.6510,0.058375
840.5147,0.057732
842.3784,0.057470
844.2420,0.057462
846.1057,0.057348
847.9694,0.057246
849.8330,0.057334
851.6967,0.057656
853.5604,0.058210
855.4240,0.058860
857.2877,0.059245
859.1514,0.058968
861.0150,0.058456
862.8787,0.058261
864.7424,0.058148
866.6060,0.058088
868.4697,0.058158
870.3334,0.058231
872.1971,0.058597
874.0607,0.059028
875.9244,0.059348
877.7881,0.059806
879.6517,0.060335
881.5154,0.060740
883.3791,0.061395
885.2427,0.062091
887.1064,0.062542
888.9701,0.063282
890.8337,0.064333
892.6974,0.065370
894.5611,0.066355
896.4247,0.067520
898.2884,0.069019
900.1521,0.071044
902.0158,0.073733
903.8794,0.076974
905.7431,0.080913
907.6068,0.085574
909.4704,0.090837
911.3341,0.096986
913.1978,0.104177
915.0614,0.107800
916.9251,0.100480
918.7888,0.085360
920.6524,0.073194
922.5161,0.067725
924.3798,0.066403
926.2435,0.066637
928.1071,0.067355
929.9708,0.068458
931.8345,0.069800
933.6981,0.071183
935.5618,0.072430
937.4255,0.073411
939.2891,0.074265
941.1528,0.075115
943.0165,0.076052
944.8801,0.077247
946.7438,0.078600
948.6075,0.079940
950.4711,0.081256
952.3348,0.082813
954.1985,0.084576
956.0622,0.086257
957.9258,0.087822
959.7895,0.089400
961.6532,0.091064
963.5168,0.092955
965.3805,0.095241
967.2442,0.097971
969.1078,0.101153
970.9715,0.104526
972.8352,0.108576
974.6988,0.114832
976.5625,0.124928
978.4262,0.141525
980.2899,0.163611
982.1535,0.171833
984.0172,0.147749
985.8809,0.116150
987.7445,0.101965
989.6082,0.100122
991.4719,0.101558
993.3355,0.103749
995.1992,0.106070
997.0629,0.108600
998.9265,0.111219
1000.7902,0.113679
1002.6539,0.115999
1004.5175,0.118180
1006.3812,0.120305
1008.2449,0.122349
1010.1086,0.123770
1011.9722,0.124135
1013.8359,0.123666
1015.6996,0.122864
1017.5632,0.121773
1019.4269,0.120551
1021.2906,0.119411
1023.1542,0.118250
1025.0179,0.117249
1026.8816,0.116543
1028.7452,0.116195
1030.6089,0.115978
1032.4726,0.115622
1034.3362,0.115557
1036.1999,0.115961
1038.0636,0.116648
1039.9273,0.117787
1041.7909,0.119417
1043.6546,0.121221
1045.5183,0.123020
1047.3819,0.123970
1049.2456,0.122133
1051.1093,0.115948
1052.9729,0.106644
1054.8366,0.097874
1056.7003,0.092211
1058.5639,0.089481
1060.4276,0.088501
1062.2913,0.088323
1064.1550,0.088398
1066.0186,0.088915
1067.8823,0.089901
1069.7460,0.091126
1071.6096,0.092560
1073.4733,0.094127
1075.3370,0.095672
1077.2006,0.097265
1079.0643,0.099092
1080.9280,0.101126
1082.7916,0.103347
1084.6553,0.105855
1086.5190,0.108637
1088.3826,0.111749
1090.2463,0.115303
1092.1100,0.119381
1093.9737,0.123945
1095.8373,0.128907
1097.7010,0.134356
1099.5647,0.140313
1101.4283,0.146363
1103.2920,0.151735
1105.1557,0.155555
1107.0193,0.156138
1108.8830,0.151893
1110.7467,0.143104
1112.6103,0.131566
1114.4740,0.119366
1116.3377,0.108124
1118.2014,0.098722
1120.0650,0.091611
1121.9287,0.086742
1123.7924,0.083537
1125.6560,0.081104
1127.5197,0.078800
1129.3834,0.076458
1131.2470,0.074065
1133.1107,0.071889
1134.9744,0.070183
1136.8380,0.068937
1138.7017,0.068156
1140.5654,0.067731
1142.4290,0.067536
1144.2927,0.067478
1146.1564,0.067362
1148.0201,0.067264
1149.8837,0.067350
1151.7474,0.067644
1153.6111,0.068188
1155.4747,0.068951
1157.3384,0.069796
1159.2021,0.070669
1161.0657,0.071666
1162.9294,0.073036
1164.7931,0.075079
1166.6567,0.077925
1168.5204,0.081516
1170.3841,0.085354
1172.2477,0.088118
1174.1114,0.088038
1175.9751,0.084540
1177.8388,0.079429
1179.7024,0.075048
1181.5661,0.072471
1183.4298,0.071451
1185.2934,0.071283
1187.1571,0.071466
1189.0208,0.071626
1190.8844,0.071529
1192.7481,0.071139
1194.6118,0.070597
1196.4754,0.070243
1198.3391,0.070226
1200.2028,0.070409
1202.0665,0.070614
1203.9301,0.070756
1205.7938,0.070959
1207.6575,0.071275
1209.5211,0.071588
1211.3848,0.071895
1213.2485,0.072291
1215.1121,0.072736
1216.9758,0.073117
1218.8395,0.073477
1220.7031,0.073921
1222.5668,0.074445
1224.4305,0.074894
1226.2941,0.075261
1228.1578,0.075619
1230.0215,0.075973
1231.8852,0.076407
1233.7488,0.076907
1235.6125,0.077353
1237.4762,0.077826
1239.3398,0.078467
1241.2035,0.079097
1243.0672,0.079567
1244.9308,0.080061
1246.7945,0.080626
1248.6582,0.081188
1250.5218,0.081854
1252.3855,0.082681
1254.2492,0.083487
1256.1129,0.084241
1257.9765,0.085140
1259.8402,0.086220
1261.7039,0.087354
1263.5675,0.088477
1265.4312,0.089470
1267.2949,0.089991
1269.1585,0.090029
1271.0222,0.090000
1272.8859,0.090151
1274.7495,0.090565
1276.6132,0.091344
1278.4769,0.092488
1280.3405,0.093940
1282.2042,0.095683
1284.0679,0.097703
1285.9316,0.099953
1287.7952,0.102396
1289.6589,0.104979
1291.5226,0.107914
1293.3862,0.111461
1295.2499,0.115659
1297.1136,0.120672
1298.9772,0.126838
1300.8409,0.134398
1302.7046,0.142460
1304.5682,0.148234
1306.4319,0.147766
1308.2956,0.137337
1310.1592,0.117828
1312.0229,0.097215
1313.8866,0.082959
1315.7503,0.076932
1317.6139,0.076234
1319.4776,0.077955
1321.3413,0.080380
1323.2049,0.082891
1325.0686,0.085670
1326.9323,0.088621
1328.7959,0.091439
1330.6596,0.094015
1332.5233,0.096150
1334.3869,0.097479
1336.2506,0.098380
1338.1143,0.100088
1339.9780,0.102436
1341.8416,0.103167
1343.7053,0.102903
1345.5690,0.103247
1347.4326,0.104228
1349.2963,0.105730
1351.1600,0.107339
1353.0236,0.109003
1354.8873,0.111238
1356.7510,0.113646
1358.6146,0.115750
1360.4783,0.118531
1362.3420,0.123038
1364.2056,0.126962
1366.0693,0.129009
1367.9330,0.132244
1369.7967,0.136125
1371.6603,0.139178
1373.5240,0.143673
1375.3877,0.148963
1377.2513,0.152507
1379.1150,0.156981
1380.9787,0.162613
1382.8423,0.168160
1384.7060,0.174195
1386.5697,0.182029
1388.4333,0.190325
1390.2970,0.194713
1392.1607,0.197357
1394.0244,0.198158
1395.8880,0.193235
1397.7517,0.185045
1399.6154,0.175459
1401.4790,0.166114
1403.3427,0.158420
1405.2064,0.146079
1407.0700,0.128552
1408.9337,0.111557
1410.7974,0.095749
1412.6610,0.084046
1414.5247,0.078262
1416.3884,0.077480
1418.2520,0.082104
1420.1157,0.091052
1421.9794,0.095732
1423.8431,0.094518
1425.7067,0.086223
1427.5704,0.076688
1429.4341,0.070380
1431.2977,0.067385
1433.1614,0.066847
1435.0251,0.068093
1436.8887,0.071660
1438.7524,0.074118
1440.6161,0.075044
1442.4797,0.076620
1444.3434,0.078127
1446.2071,0.079407
1448.0707,0.080131
1449.9344,0.078804
1451.7981,0.075978
1453.6618,0.072915
1455.5254,0.072210
1457.3891,0.076389
1459.2528,0.078617
1461.1164,0.078061
1462.9801,0.078792
1464.8438,0.080062
1466.7074,0.079049
1468.5711,0.076774
1470.4348,0.075735
1472.2984,0.076682
1474.1621,0.077835
1476.0258,0.077589
1477.8895,0.077470
1479.7531,0.077429
1481.6168,0.078058
1483.4805,0.078326
1485.3441,0.078427
1487.2078,0.079625
1489.0715,0.082169
1490.9351,0.084140
1492.7988,0.083741
1494.6625,0.083822
1496.5261,0.086292
1498.3898,0.088642
1500.2535,0.088854
1502.1171,0.088015
1503.9808,0.087451
1505.8445,0.089769
1507.7082,0.096075
1509.5718,0.095121
1511.4355,0.094514
1513.2992,0.095060
1515.1628,0.095941
1517.0265,0.097486
1518.8902,0.098696
1520.7538,0.100815
1522.6175,0.103959
1524.4812,0.104441
1526.3448,0.106001
1528.2085,0.107164
1530.0722,0.107266
1531.9359,0.108408
1533.7995,0.110688
1535.6632,0.110558
1537.5269,0.110468
1539.3905,0.114214
1541.2542,0.120404
1543.1179,0.121574
1544.9815,0.123247
1546.8452,0.124325
1548.7089,0.125593
1550.5725,0.128029
1552.4362,0.129528
1554.2999,0.130618
1556.1635,0.132910
1558.0272,0.138932
1559.8909,0.149887
1561.7546,0.146432
1563.6182,0.145894
1565.4819,0.148329
1567.3456,0.151353
1569.2092,0.155708
1571.0729,0.159317
1572.9366,0.160185
1574.8002,0.164087
1576.6639,0.170968
1578.5276,0.173110
1580.3912,0.174029
1582.2549,0.176798
1584.1186,0.179144
1585.9822,0.180881
1587.8459,0.181925
1589.7096,0.182357
1591.5733,0.182214
1593.4369,0.181773
1595.3006,0.180465
1597.1643,0.178272
1599.0279,0.175770
1600.8916,0.173265
1602.7553,0.170589
1604.6189,0.167881
1606.4826,0.165490
1608.3463,0.163172
1610.2099,0.160515
1612.0736,0.157444
1613.9373,0.154579
1615.8010,0.151593
1617.6646,0.144313
1619.5283,0.136717
1621.3920,0.132645
1623.2556,0.126807
1625.1193,0.118132
1626.9830,0.110730
1628.8466,0.101883
1630.7103,0.092370
1632.5740,0.085056
1634.4376,0.078449
1636.3013,0.069630
1638.1650,0.063080
1640.0286,0.061376
1641.8923,0.060164
1643.7560,0.060094
1645.6197,0.061176
1647.4833,0.063324
1649.3470,0.064891
1651.2107,0.067258
1653.0743,0.072066
1654.9380,0.075259
1656.8017,0.075278
1658.6653,0.076626
1660.5290,0.077432
1662.3927,0.077236
1664.2563,0.075721
1666.1200,0.074244
1667.9837,0.073049
1669.8474,0.071425
1671.7110,0.070203
1673.5747,0.071103
1675.4384,0.073435
1677.3020,0.076124
1679.1657,0.078806
1681.0294,0.083032
1682.8930,0.087686
1684.7567,0.092635
1686.6204,0.093526
1688.4840,0.093151
1690.3477,0.091708
1692.2114,0.089247
1694.0750,0.087249
1695.9387,0.084505
1697.8024,0.079683
1699.6661,0.076998
1701.5297,0.069737
1703.3934,0.063309
1705.2571,0.056832
1707.1207,0.047542
1708.9844,0.040994
1710.8481,0.036233
1712.7117,0.032326
1714.5754,0.029634
1716.4391,0.026930
1718.3027,0.025193
1720.1664,0.024331
1722.0301,0.023899
1723.8937,0.022473
1725.7574,0.020458
1727.6211,0.018588
1729.4848,0.016800
1731.3484,0.014977
1733.2121,0.013932
1735.0758,0.012417
1736.9394,0.011935
1738.8031,0.012020
1740.6668,0.011677
1742.5304,0.011232
1744.3941,0.011013
1746.2578,0.010544
1748.1214,0.010118
1749.9851,0.009554
1751.8488,0.009520
1753.7125,0.009553
1755.5761,0.009733
1757.4398,0.009636
1759.3035,0.009595
1761.1671,0.009444
1763.0308,0.009256
1764.8945,0.009298
1766.7581,0.009408
1768.6218,0.008990
1770.4855,0.008673
1772.3491,0.008551
1774.2128,0.008655
1776.0765,0.008739
1777.9401,0.008996
1779.8038,0.009168
1781.6675,0.009262
1783.5312,0.009293
1785.3948,0.009330
1787.2585,0.009196
1789.1222,0.009333
1790.9858,0.009210
1792.8495,0.008938
1794.7132,0.008820
1796.5768,0.009045
1798.4405,0.009208
1800.3042,0.009377
1802.1678,0.009307
1804.0315,0.009410
1805.8952,0.009668
1807.7589,0.009871
1809.6225,0.009855
1811.4862,0.009985
1813.3499,0.009876
1815.2135,0.009740
1817.0772,0.009569
1818.9409,0.009722
1820.8045,0.009870
1822.6682,0.009948
1824.5319,0.009684
1826.3955,0.009404
1828.2592,0.009119
1830.1229,0.009086
1831.9865,0.008949
1833.8502,0.009318
1835.7139,0.009608
1837.5776,0.009572
1839.4412,0.009341
1841.3049,0.009351
1843.1686,0.009357
1845.0322,0.009241
1846.8959,0.008866
1848.7596,0.009130
1850.6232,0.009277
1852.4869,0.009451
1854.3506,0.009454
1856.2142,0.009508
1858.0779,0.009542
1859.9416,0.009713
1861.8052,0.009647
1863.6689,0.009897
1865.5326,0.009762
1867.3963,0.009145
1869.2599,0.008641
1871.1236,0.009251
1872.9873,0.009816
1874.8509,0.009886
1876.7146,0.009743
1878.5783,0.009733
1880.4419,0.009572
1882.3056,0.009816
1884.1693,0.009852
1886.0329,0.009841
1887.8966,0.009620
1889.7603,0.009403
1891.6240,0.009193
1893.4876,0.009320
1895.3513,0.009307
1897.2150,0.009454
1899.0786,0.009683
1900.9423,0.009977
1902.8060,0.010025
1904.6696,0.010047
1906.5333,0.009923
1908.3970,0.010028
1910.2606,0.009704
1912.1243,0.009498
1913.9880,0.009353
1915.8516,0.009770
1917.7153,0.009813
1919.5790,0.009346
1921.4427,0.009170
1923.3063,0.009396
1925.1700,0.009296
1927.0337,0.009399
1928.8973,0.009477
1930.7610,0.009980
1932.6247,0.009657
1934.4883,0.009235
1936.3520,0.008914
1938.2157,0.008928
1940.0793,0.009178
1941.9430,0.009687
1943.8067,0.009093
1945.6704,0.008196
1947.5340,0.007322
1949.3977,0.007395
1951.2614,0.008224
1953.1250,0.008632
1954.9887,0.007719
1956.8524,0.007500
1958.7160,0.006577
1960.5797,0.005488
1962.4434,0.004746
1964.3070,0.004676
1966.1707,0.003863
1968.0344,0.003137
1969.8980,0.002578
1971.7617,0.003923
1973.6254,0.004732
1975.4891,0.004349
1977.3527,0.003157
1979.2164,0.004638
1981.0801,0.005640
1982.9437,0.005504
1984.8074,0.004874
1986.6711,0.005121
1988.5347,0.005533
1990.3984,0.005969
1992.2621,0.006016
1994.1257,0.006241
1995.9894,0.005538
1997.8531,0.006634
1999.7167,0.007520
2001.5804,0.007351
2003.4441,0.006300
2005.3078,0.005691
2007.1714,0.004854
2009.0351,0.004118
2010.8988,0.003868
2012.7624,0.004631
2014.6261,0.004039
2016.4898,0.003669
2018.3534,0.003658
2020.2171,0.003845
2022.0808,0.003150
2023.9444,0.003030
2025.8081,0.002036
2027.6718,0.003269
2029.5355,0.005235
2031.3991,0.005836
2033.2628,0.004825
2035.1265,0.004915
2036.9901,0.004581
2038.8538,0.004856
2040.7175,0.005914
2042.5811,0.007197
2044.4448,0.006573
2046.3085,0.006396
2048.1721,0.007102
2050.0358,0.008590
2051.8995,0.009916
2053.7631,0.010078
2055.6268,0.009666
2057.4905,0.009513
2059.3542,0.009807
2061.2178,0.010300
2063.0815,0.010919
2064.9452,0.011477
2066.8088,0.010480
2068.6725,0.010027
2070.5362,0.010581
2072.3998,0.011464
2074.2635,0.011636
2076.1272,0.011829
2077.9908,0.011285
2079.8545,0.012145
2081.7182,0.012845
2083.5819,0.012448
2085.4455,0.011694
2087.3092,0.011994
2089.1729,0.012946
2091.0365,0.013488
2092.9002,0.012869
2094.7639,0.012531
2096.6275,0.013017
2098.4912,0.013053
2100.3549,0.012651
2102.2185,0.012293
2104.0822,0.012485
2105.9459,0.012828
2107.8095,0.012440
2109.6732,0.012683
2111.5369,0.013612
2113.4006,0.013766
2115.2642,0.013252
2117.1279,0.013610
2118.9916,0.013635
2120.8552,0.013542
2122.7189,0.013128
2124.5826,0.013199
2126.4462,0.012692
2128.3099,0.012329
2130.1736,0.012580
2132.0372,0.012165
2133.9009,0.011800
2135.7646,0.012062
2137.6282,0.011124
2139.4919,0.010377
2141.3556,0.010540
2143.2193,0.010448
2145.0829,0.009440
2146.9466,0.009382
2148.8103,0.009439
2150.6739,0.008195
2152.5376,0.005926
2154.4013,0.005474
2156.2649,0.004775
2158.1286,0.004225
2159.9923,0.003578
2161.8559,0.004540
2163.7196,0.005968
2165.5833,0.007057
2167.4470,0.008054
2169.3106,0.009500
2171.1743,0.008780
2173.0380,0.008044
2174.9016,0.007534
2176.7653,0.008282
2178.6290,0.008700
2180.4926,0.009132
2182.3563,0.008713
2184.2200,0.008779
2186.0836,0.009154
2187.9473,0.009662
2189.8110,0.008956
2191.6746,0.008896
2193.5383,0.008889
2195.4020,0.009919
2197.2657,0.011652
2199.1293,0.012518
2200.9930,0.011558
2202.8567,0.011392
2204.7203,0.011794
2206.5840,0.012448
2208.4477,0.011839
2210.3113,0.012333
2212.1750,0.013007
2214.0387,0.013088
2215.9023,0.012945
2217.7660,0.013309
2219.6297,0.013030
2221.4934,0.012788
2223.3570,0.013692
2225.2207,0.014182
2227.0844,0.013643
2228.9480,0.013472
2230.8117,0.014211
2232.6754,0.015206
2234.5390,0.015244
2236.4027,0.014759
2238.2664,0.015076
2240.1300,0.015609
2241.9937,0.016037
2243.8574,0.016342
2245.7210,0.016429
2247.5847,0.016675
2249.4484,0.016142
2251.3121,0.016202
2253.1757,0.016309
2255.0394,0.016065
2256.9031,0.016373
2258.7667,0.016886
2260.6304,0.017098
2262.4941,0.017191
2264.3577,0.017281
2266.2214,0.017928
2268.0851,0.018092
2269.9487,0.017757
2271.8124,0.017839
2273.6761,0.018699
2275.5397,0.019322
2277.4034,0.019541
2279.2671,0.019565
2281.1308,0.020310
2282.9944,0.020949
2284.8581,0.021151
2286.7218,0.021133
2288.5854,0.021148
2290.4491,0.021167
2292.3128,0.020933
2294.1764,0.020819
2296.0401,0.021069
2297.9038,0.020898
2299.7674,0.021037
2301.6311,0.021381
2303.4948,0.021529
2305.3585,0.021511
2307.2221,0.021407
2309.0858,0.021479
2310.9495,0.021395
2312.8131,0.021118
2314.6768,0.021420
2316.5405,0.021923
2318.4041,0.021960
2320.2678,0.022125
2322.1315,0.022129
2323.9951,0.022421
2325.8588,0.022404
2327.7225,0.021465
2329.5861,0.021116
2331.4498,0.021296
2333.3135,0.020983
2335.1772,0.020697
2337.0408,0.020827
2338.9045,0.020898
2340.7682,0.021304
2342.6318,0.021444
2344.4955,0.021518
2346.3592,0.021339
2348.2228,0.021022
2350.0865,0.020676
2351.9502,0.020657
2353.8138,0.020750
2355.6775,0.020807
2357.5412,0.020947
2359.4049,0.021103
2361.2685,0.021163
2363.1322,0.021145
2364.9959,0.020985
2366.8595,0.021366
2368.7232,0.021924
2370.5869,0.022191
2372.4505,0.022285
2374.3142,0.021744
2376.1779,0.021571
2378.0415,0.021579
2379.9052,0.021259
2381.7689,0.021310
2383.6325,0.021383
2385.4962,0.021200
2387.3599,0.021109
2389.2236,0.021450
2391.0872,0.021642
2392.9509,0.021298
2394.8146,0.021328
2396.6782,0.021651
2398.5419,0.021707
2400.4056,0.021724
2402.2692,0.021873
2404.1329,0.021899
2405.9966,0.021936
2407.8602,0.021983
2409.7239,0.021959
2411.5876,0.021999
2413.4512,0.022043
2415.3149,0.022461
2417.1786,0.022486
2419.0423,0.022664
2420.9059,0.023002
2422.7696,0.022484
2424.6333,0.022342
2426.4969,0.022890
2428.3606,0.023124
2430.2243,0.023088
2432.0879,0.022943
2433.9516,0.023235
2435.8153,0.023280
2437.6789,0.023064
2439.5426,0.022940
2441.4063,0.022922
2443.2700,0.022904
2445.1336,0.022987
2446.9973,0.023180
2448.8610,0.023508
2450.7246,0.023492
2452.5883,0.023327
2454.4520,0.023034
2456.3156,0.022688
2458.1793,0.022696
2460.0430,0.022764
2461.9066,0.022913
2463.7703,0.022726
2465.6340,0.022801
2467.4976,0.022860
2469.3613,0.022881
2471.2250,0.022967
2473.0887,0.022886
2474.9523,0.022961
2476.8160,0.023218
2478.6797,0.023135
2480.5433,0.023197
2482.4070,0.023321
2484.2707,0.023425
2486.1343,0.023472
2487.9980,0.023756
2489.8617,0.024363
2491.7253,0.024152
2493.5890,0.023888
2495.4527,0.024150
2497.3164,0.024078
2499.1800,0.024287
2501.0437,0.024313
2502.9074,0.024326
2504.7710,0.024621
2506.6347,0.024826
2508.4984,0.024907
2510.3620,0.024936
2512.2257,0.025134
2514.0894,0.025001
2515.9530,0.025006
2517.8167,0.025170
2519.6804,0.024933
2521.5440,0.025358
2523.4077,0.025670
2525.2714,0.025357
2527.1351,0.025599
2528.9987,0.026058
2530.8624,0.026234
2532.7261,0.026114
2534.5897,0.026078
2536.4534,0.025896
2538.3171,0.025933
2540.1807,0.026057
2542.0444,0.026185
2543.9081,0.025922
2545.7717,0.025968
2547.6354,0.026218
2549.4991,0.026252
2551.3627,0.026423
2553.2264,0.026057
2555.0901,0.025836
2556.9538,0.025878
2558.8174,0.026209
2560.6811,0.026610
2562.5448,0.026703
2564.4084,0.026572
2566.2721,0.026262
2568.1358,0.026784
2569.9994,0.027144
2571.8631,0.027071
2573.7268,0.027350
2575.5904,0.027567
2577.4541,0.027519
2579.3178,0.027897
2581.1815,0.028265
2583.0451,0.028507
2584.9088,0.028482
2586.7725,0.028334
2588.6361,0.028616
2590.4998,0.028619
2592.3635,0.028780
2594.2271,0.029329
2596.0908,0.029396
2597.9545,0.029480
2599.8181,0.029724
2601.6818,0.030122
2603.5455,0.030292
2605.4091,0.030166
2607.2728,0.029964
2609.1365,0.030242
2611.0002,0.030430
2612.8638,0.030517
2614.7275,0.030846
2616.5912,0.030893
2618.4548,0.030891
2620.3185,0.031136
2622.1822,0.031595
2624.0458,0.031828
2625.9095,0.032114
2627.7732,0.032616
2629.6368,0.032964
2631.5005,0.033147
2633.3642,0.033000
2635.2279,0.033059
2637.0915,0.033510
2638.9552,0.033902
2640.8189,0.034059
2642.6825,0.034234
2644.5462,0.034492
2646.4099,0.034592
2648.2735,0.034767
2650.1372,0.034961
2652.0009,0.034982
2653.8645,0.034969
2655.7282,0.035111
2657.5919,0.035358
2659.4555,0.035355
2661.3192,0.035402
2663.1829,0.035729
2665.0466,0.035896
2666.9102,0.035977
2668.7739,0.036140
2670.6376,0.036133
2672.5012,0.036220
2674.3649,0.036407
2676.2286,0.036469
2678.0922,0.036656
2679.9559,0.036996
2681.8196,0.037322
2683.6832,0.037483
2685.5469,0.037661
2687.4106,0.037892
2689.2742,0.038099
2691.1379,0.038380
2693.0016,0.038743
2694.8653,0.038935
2696.7289,0.039332
2698.5926,0.039756
2700.4563,0.039899
2702.3199,0.040176
2704.1836,0.040482
2706.0473,0.040846
2707.9109,0.041109
2709.7746,0.041458
2711.6383,0.042023
2713.5019,0.042310
2715.3656,0.042581
2717.2293,0.042861
2719.0930,0.043200
2720.9566,0.043524
2722.8203,0.043985
2724.6840,0.044590
2726.5476,0.045040
2728.4113,0.045512
2730.2750,0.045887
2732.1386,0.046084
2734.0023,0.046607
2735.8660,0.047115
2737.7296,0.047569
2739.5933,0.048260
2741.4570,0.048860
2743.3206,0.049408
2745.1843,0.049964
2747.0480,0.050337
2748.9117,0.050977
2750.7753,0.051828
2752.6390,0.052197
2754.5027,0.052279
2756.3663,0.053074
2758.2300,0.053938
2760.0937,0.054458
2761.9573,0.054800
2763.8210,0.055451
2765.6847,0.056216
2767.5483,0.056659
2769.4120,0.057126
2771.2757,0.057756
2773.1394,0.058286
2775.0030,0.059230
2776.8667,0.060298
2778.7304,0.060736
2780.5940,0.060986
2782.4577,0.061471
2784.3214,0.061656
2786.1850,0.061493
2788.0487,0.061236
2789.9124,0.061146
2791.7760,0.060827
2793.6397,0.060388
2795.5034,0.059697
2797.3670,0.059084
2799.2307,0.058759
2801.0944,0.058262
2802.9581,0.057627
2804.8217,0.057339
2806.6854,0.056925
2808.5491,0.056434
2810.4127,0.056143
2812.2764,0.056008
2814.1401,0.055798
2816.0037,0.055583
2817.8674,0.055375
2819.7311,0.055596
2821.5947,0.055920
2823.4584,0.056170
2825.3221,0.056301
2827.1857,0.056324
2829.0494,0.055837
2830.9131,0.055214
2832.7768,0.054926
2834.6404,0.054994
2836.5041,0.055080
2838.3678,0.055112
2840.2314,0.055427
2842.0951,0.055841
2843.9588,0.056134
2845.8224,0.056487
2847.6861,0.057108
2849.5498,0.057811
2851.4134,0.058509
2853.2771,0.059157
2855.1408,0.059695
2857.0045,0.060351
2858.8681,0.061234
2860.7318,0.061842
2862.5955,0.062155
2864.4591,0.062411
2866.3228,0.062598
2868.1865,0.062936
2870.0501,0.063210
2871.9138,0.063734
2873.7775,0.064251
2875.6411,0.064748
2877.5048,0.065179
2879.3685,0.065493
2881.2321,0.066022
2883.0958,0.066680
2884.9595,0.067160
2886.8232,0.067471
2888.6868,0.067780
2890.5505,0.068640
2892.4142,0.069266
2894.2778,0.069501
2896.1415,0.069870
2898.0052,0.070450
2899.8688,0.070772
2901.7325,0.070759
2903.5962,0.070857
2905.4598,0.071050
2907.3235,0.070883
2909.1872,0.071025
2911.0509,0.071479
2912.9145,0.072254
2914.7782,0.073195
2916.6419,0.074014
2918.5055,0.074533
2920.3692,0.075087
2922.2329,0.075544
2924.0965,0.076089
2925.9602,0.076456
2927.8239,0.077456
2929.6875,0.078083
2931.5512,0.078671
2933.4149,0.079218
2935.2785,0.079755
2937.1422,0.080306
2939.0059,0.080594
2940.8696,0.080755
2942.7332,0.081491
2944.5969,0.082268
2946.4606,0.082572
2948.3242,0.082408
2950.1879,0.082561
2952.0516,0.082855
2953.9152,0.083491
2955.7789,0.083917
2957.6426,0.083971
2959.5062,0.084357
2961.3699,0.085030
2963.2336,0.085913
2965.0972,0.086933
2966.9609,0.087774
2968.8246,0.088489
2970.6883,0.088824
2972.5519,0.089634
2974.4156,0.090705
2976.2793,0.091501
2978.1429,0.092064
2980.0066,0.092729
2981.8703,0.092744
2983.7339,0.092817
2985.5976,0.093271
2987.4613,0.093662
2989.3249,0.093702
2991.1886,0.094289
2993.0523,0.095387
2994.9160,0.096693
2996.7796,0.097492
2998.6433,0.098205
3000.5070,0.098863
3002.3706,0.099514
3004.2343,0.100351
3006.0980,0.101045
3007.9616,0.101549
3009.8253,0.102389
3011.6890,0.102934
3013.5526,0.103841
3015.4163,0.104656
3017.2800,0.105217
3019.1436,0.105680
3021.0073,0.106160
3022.8710,0.106340
3024.7347,0.106898
3026.5983,0.107251
3028.4620,0.107085
3030.3257,0.107132
3032.1893,0.107622
3034.0530,0.107964
3035.9167,0.108444
3037.7803,0.108201
3039.6440,0.108203
3041.5077,0.108978
3043.3713,0.109906
3045.2350,0.110062
3047.0987,0.110083
3048.9624,0.110175
3050.8260,0.110639
3052.6897,0.110979
3054.5534,0.111282
3056.4170,0.111255
3058.2807,0.110988
3060.1444,0.110659
3062.0080,0.110715
3063.8717,0.111067
3065.7354,0.111517
3067.5990,0.111510
3069.4627,0.111302
3071.3264,0.110916
3073.1900,0.111204
3075.0537,0.110800
3076.9174,0.110440
3078.7811,0.110406
3080.6447,0.110314
3082.5084,0.109825
3084.3721,0.109395
3086.2357,0.109031
3088.0994,0.108472
3089.9631,0.107491
3091.8267,0.106790
3093.6904,0.105939
3095.5541,0.105222
3097.4177,0.104367
3099.2814,0.103741
3101.1451,0.103128
3103.0087,0.102545
3104.8724,0.101552
3106.7361,0.100453
3108.5998,0.099696
3110.4634,0.098928
3112.3271,0.097148
3114.1908,0.096257
3116.0544,0.095929
3117.9181,0.095074
3119.7818,0.094148
3121.6454,0.093853
3123.5091,0.093300
3125.3728,0.091866
3127.2364,0.090304
3129.1001,0.089325
3130.9638,0.088831
3132.8275,0.088763
3134.6911,0.087956
3136.5548,0.086865
3138.4185,0.086048
3140.2821,0.085997
3142.1458,0.086202
3144.0095,0.085825
3145.8731,0.084782
3147.7368,0.083841
3149.6005,0.083126
3151.4641,0.082541
3153.3278,0.082251
3155.1915,0.082528
3157.0551,0.081881
3158.9188,0.080555
3160.7825,0.079770
3162.6462,0.079694
3164.5098,0.079448
3166.3735,0.079136
3168.2372,0.078438
3170.1008,0.077425
3171.9645,0.076874
3173.8282,0.076967
3175.6918,0.076825
3177.5555,0.076707
3179.4192,0.075719
3181.2828,0.074529
3183.1465,0.074645
3185.0102,0.075042
3186.8739,0.074615
3188.7375,0.074213
3190.6012,0.073717
3192.4649,0.073648
3194.3285,0.074125
3196.1922,0.074812
3198.0559,0.074646
3199.9195,0.074261
3201.7832,0.073993
3203.6469,0.073767
3205.5105,0.073862
3207.3742,0.074214
3209.2379,0.074602
3211.1015,0.074416
3212.9652,0.073683
3214.8289,0.073971
3216.6926,0.074274
3218.5562,0.074385
3220.4199,0.074874
3222.2836,0.075403
3224.1472,0.074914
3226.0109,0.075121
3227.8746,0.075566
3229.7382,0.075394
3231.6019,0.075485
3233.4656,0.076138
3235.3292,0.076334
3237.1929,0.076762
3239.0566,0.076945
3240.9202,0.076432
3242.7839,0.076681
3244.6476,0.077308
3246.5113,0.077418
3248.3749,0.077936
3250.2386,0.078542
3252.1023,0.079152
3253.9659,0.079313
3255.8296,0.079224
3257.6933,0.079196
3259.5569,0.079310
3261.4206,0.079672
3263.2843,0.080106
3265.1479,0.080411
3267.0116,0.081405
3268.8753,0.081527
3270.7390,0.081398
3272.6026,0.081546
3274.4663,0.081053
3276.3300,0.080509
3278.1936,0.080490
3280.0573,0.080113
3281.9210,0.079762
3283.7846,0.079473
3285.6483,0.079220
3287.5120,0.078220
3289.3756,0.078044
3291.2393,0.077851
3293.1030,0.076577
3294.9666,0.075604
3296.8303,0.074703
3298.6940,0.074270
3300.5577,0.073463
3302.4213,0.071633
3304.2850,0.071071
3306.1487,0.070953
3308.0123,0.070643
3309.8760,0.069821
3311.7397,0.069424
3313.6033,0.069283
3315.4670,0.068900
3317.3307,0.068377
3319.1943,0.068844
3321.0580,0.069275
3322.9217,0.069090
3324.7854,0.068902
3326.6490,0.069213
3328.5127,0.069565
3330.3764,0.069631
3332.2400,0.069626
3334.1037,0.069874
3335.9674,0.069756
3337.8310,0.069036
3339.6947,0.067995
3341.5584,0.067154
3343.4220,0.066283
3345.2857,0.065897
3347.1494,0.064901
3349.0130,0.063594
3350.8767,0.061895
3352.7404,0.060497
3354.6041,0.059114
3356.4677,0.057318
3358.3314,0.056415
3360.1951,0.055754
3362.0587,0.054545
3363.9224,0.053906
3365.7861,0.053521
3367.6497,0.052636
3369.5134,0.052462
3371.3771,0.052864
3373.2407,0.052476
3375.1044,0.052640
3376.9681,0.053056
3378.8317,0.052583
3380.6954,0.052163
3382.5591,0.053188
3384.4228,0.053547
3386.2864,0.053351
3388.1501,0.053360
3390.0138,0.053878
3391.8774,0.055093
3393.7411,0.055802
3395.6048,0.055156
3397.4684,0.055312
3399.3321,0.055612
3401.1958,0.054757
3403.0594,0.054474
3404.9231,0.054620
3406.7868,0.053300
3408.6505,0.052209
3410.5141,0.051375
3412.3778,0.050272
3414.2415,0.048192
3416.1051,0.046567
3417.9688,0.045726
3419.8325,0.043315
3421.6961,0.040911
3423.5598,0.039758
3425.4235,0.038025
3427.2871,0.036157
3429.1508,0.034624
3431.0145,0.034111
3432.8781,0.034024
3434.7418,0.033402
3436.6055,0.032342
3438.4692,0.031237
3440.3328,0.029917
3442.1965,0.029087
3444.0602,0.028071
3445.9238,0.026802
3447.7875,0.026418
3449.6512,0.026659
3451.5148,0.026114
3453.3785,0.025313
3455.2422,0.024788
3457.1058,0.024337
3458.9695,0.025018
3460.8332,0.025429
3462.6969,0.023991
3464.5605,0.022320
3466.4242,0.021535
3468.2879,0.021186
3470.1515,0.020844
3472.0152,0.020609
3473.8789,0.020612
3475.7425,0.020433
3477.6062,0.019433
3479.4699,0.018433
3481.3335,0.018347
3483.1972,0.017651
3485.0609,0.017513
3486.9245,0.017430
3488.7882,0.016948
3490.6519,0.017272
3492.5156,0.017135
3494.3792,0.016402
3496.2429,0.015391
3498.1066,0.014545
3499.9702,0.014420
3501.8339,0.014667
3503.6976,0.014573
3505.5612,0.013935
3507.4249,0.013310
3509.2886,0.012821
3511.1522,0.012351
3513.0159,0.011753
3514.8796,0.011780
3516.7432,0.011873
3518.6069,0.011501
3520.4706,0.011117
3522.3343,0.010934
3524.1979,0.010474
3526.0616,0.009490
3527.9253,0.009657
3529.7889,0.009472
3531.6526,0.008630
3533.5163,0.008752
3535.3799,0.008736
3537.2436,0.008734
3539.1073,0.009280
3540.9709,0.008922
3542.8346,0.008269
3544.6983,0.008711
3546.5620,0.007836
3548.4256,0.005465
3550.2893,0.006102
3552.1530,0.008215
3554.0166,0.008910
3555.8803,0.007978
3557.7440,0.007342
3559.6076,0.006707
3561.4713,0.005626
3563.3350,0.005857
3565.1986,0.006882
3567.0623,0.006868
3568.9260,0.005945
3570.7896,0.005742
3572.6533,0.006165
3574.5170,0.006236
3576.3807,0.005748
3578.2443,0.005662
3580.1080,0.006331
3581.9717,0.006776
3583.8353,0.007008
3585.6990,0.006850
3587.5627,0.006134
3589.4263,0.005655
3591.2900,0.005082
3593.1537,0.004680
3595.0173,0.004692
3596.8810,0.005366
3598.7447,0.006116
3600.6084,0.006398
3602.4720,0.005720
3604.3357,0.005298
3606.1994,0.006000
3608.0630,0.005720
3609.9267,0.004423
3611.7904,0.004708
3613.6540,0.005477
3615.5177,0.004824
3617.3814,0.004797
3619.2450,0.005860
3621.1087,0.006021
3622.9724,0.005156
3624.8360,0.005491
3626.6997,0.006388
3628.5634,0.005491
3630.4271,0.003868
3632.2907,0.004574
3634.1544,0.005942
3636.0181,0.007089
3637.8817,0.007587
3639.7454,0.006663
3641.6091,0.005836
3643.4727,0.006322
3645.3364,0.006509
3647.2001,0.005518
3649.0637,0.003899
3650.9274,0.003182
3652.7911,0.004519
3654.6547,0.006395
3656.5184,0.007018
3658.3821,0.006575
3660.2458,0.007204
3662.1094,0.008033
3663.9731,0.007644
3665.8368,0.007320
3667.7004,0.007515
3669.5641,0.007162
3671.4278,0.006784
3673.2914,0.008572
3675.1551,0.010501
3677.0188,0.009951
3678.8824,0.008058
3680.7461,0.007004
3682.6098,0.006266
3684.4735,0.006539
3686.3371,0.007235
3688.2008,0.007144
3690.0645,0.005191
3691.9281,0.004020
3693.7918,0.005664
3695.6555,0.006908
3697.5191,0.007147
3699.3828,0.006904
3701.2465,0.006925
3703.1101,0.006993
3704.9738,0.007243
3706.8375,0.007549
3708.7011,0.006783
3710.5648,0.005529
3712.4285,0.004862
3714.2922,0.005240
3716.1558,0.006550
3718.0195,0.006930
3719.8832,0.006701
3721.7468,0.007169
3723.6105,0.007151
3725.4742,0.006728
3727.3378,0.006787
3729.2015,0.007143
3731.0652,0.007419
3732.9288,0.007237
3734.7925,0.006055
3736.6562,0.003731
3738.5199,0.003025
3740.3835,0.004935
3742.2472,0.006426
3744.1109,0.006321
3745.9745,0.004220
3747.8382,0.003427
3749.7019,0.004721
3751.5655,0.004980
3753.4292,0.004831
3755.2929,0.005410
3757.1565,0.006524
3759.0202,0.007425
3760.8839,0.007447
3762.7475,0.007477
3764.6112,0.008378
3766.4749,0.009103
3768.3386,0.008746
3770.2022,0.008230
3772.0659,0.008376
3773.9296,0.008642
3775.7932,0.008347
3777.6569,0.008056
3779.5206,0.008484
3781.3842,0.008970
3783.2479,0.008645
3785.1116,0.008368
3786.9752,0.008621
3788.8389,0.009103
3790.7026,0.009284
3792.5662,0.008999
3794.4299,0.008891
3796.2936,0.008730
3798.1573,0.007528
3800.0209,0.006743
3801.8846,0.007347
3803.7483,0.007512
3805.6119,0.007829
3807.4756,0.008058
3809.3393,0.007897
3811.2029,0.008490
3813.0666,0.008885
3814.9303,0.008872
3816.7939,0.008344
3818.6576,0.007372
3820.5213,0.007867
3822.3850,0.008235
3824.2486,0.007948
3826.1123,0.008246
3827.9760,0.008120
3829.8396,0.008175
3831.7033,0.008763
3833.5670,0.008483
3835.4306,0.007665
3837.2943,0.007569
3839.1580,0.007952
3841.0216,0.007892
3842.8853,0.007614
3844.7490,0.007886
3846.6126,0.008453
3848.4763,0.008556
3850.3400,0.008160
3852.2037,0.007882
3854.0673,0.007192
3855.9310,0.007064
3857.7947,0.008389
3859.6583,0.008830
3861.5220,0.008777
3863.3857,0.008500
3865.2493,0.008284
3867.1130,0.008608
3868.9767,0.008789
3870.8403,0.008484
3872.7040,0.008175
3874.5677,0.008534
3876.4314,0.009155
3878.2950,0.009571
3880.1587,0.009837
3882.0224,0.009560
3883.8860,0.009026
3885.7497,0.009286
3887.6134,0.009127
3889.4770,0.008928
3891.3407,0.009825
3893.2044,0.010228
3895.0680,0.009553
3896.9317,0.009390
3898.7954,0.009482
3900.6590,0.009063
3902.5227,0.008615
3904.3864,0.008737
3906.2501,0.009137
3908.1137,0.009668
3909.9774,0.010373
3911.8411,0.010887
3913.7047,0.010761
3915.5684,0.010368
3917.4321,0.009995
3919.2957,0.009966
3921.1594,0.010190
3923.0231,0.010355
3924.8867,0.010220
3926.7504,0.010212
3928.6141,0.010707
3930.4777,0.010757
3932.3414,0.010298
3934.2051,0.010315
3936.0688,0.010986
3937.9324,0.010833
3939.7961,0.010497
3941.6598,0.010944
3943.5234,0.010957
3945.3871,0.010510
3947.2508,0.010679
3949.1144,0.011069
3950.9781,0.010978
3952.8418,0.011082
3954.7054,0.011608
3956.5691,0.011954
3958.4328,0.012075
3960.2965,0.011444
3962.1601,0.010567
3964.0238,0.010446
3965.8875,0.011068
3967.7511,0.011449
3969.6148,0.010894
3971.4785,0.010841
3973.3421,0.011723
3975.2058,0.012129
3977.0695,0.011839
3978.9331,0.011370
3980.7968,0.011148
3982.6605,0.011249
3984.5241,0.011131
3986.3878,0.011097
3988.2515,0.011584
3990.1152,0.011839
3991.9788,0.011621
3993.8425,0.011336
3995.7062,0.011264
3997.5698,0.011303
3999.4335,0.011090
