Wavenumber,Intensity
650.4205,0.182310
652.2841,0.179796
654.1478,0.176206
656.0115,0.174735
657.8751,0.175163
659.7388,0.173071
661.6025,0.172470
663.4661,0.174219
665.3298,0.176550
667.1935,0.177790
669.0571,0.178037
670.9208,0.175096
672.7845,0.171693
674.6481,0.167398
676.5118,0.164999
678.3755,0.162240
680.2392,0.160638
682.1028,0.159432
683.9665,0.157693
685.8302,0.155038
687.6938,0.154213
689.5575,0.153652
691.4212,0.153096
693.2848,0.152588
695.1485,0.152094
697.0122,0.152137
698.8758,0.153109
700.7395,0.153680
702.6032,0.153614
704.4669,0.151603
706.3305,0.146776
708.1942,0.140083
710.0579,0.133986
711.9215,0.127590
713.7852,0.120418
715.6489,0.114253
717.5125,0.109016
719.3762,0.103890
721.2399,0.099690
723.1035,0.096208
724.9672,0.093082
726.8309,0.090391
728.6945,0.087930
730.5582,0.084641
732.4219,0.081657
734.2856,0.078699
736.1492,0.075373
738.0129,0.073498
739.8766,0.073890
741.7402,0.075422
743.6039,0.077290
745.4676,0.078596
747.3312,0.078599
749.1949,0.077871
751.0586,0.077429
752.9222,0.076808
754.7859,0.076145
756.6496,0.075853
758.5132,0.075336
760.3769,0.074509
762.2406,0.074544
764.1043,0.074662
765.9679,0.074380
767.8316,0.074168
769.6953,0.073935
771.5589,0.073963
773.4226,0.074572
775.2863,0.075279
777.1499,0.076146
779.0136,0.077054
780.8773,0.078035
782.7409,0.079067
784.6046,0.080496
786.4683,0.082229
788.3320,0.083437
790.1956,0.084278
792.0593,0.086033
793.9230,0.088311
795.7866,0.090125
797.6503,0.091585
799.5140,0.093043
801.3776,0.094310
803.2413,0.094969
805.1050,0.094559
806.9686,0.093209
808.8323,0.091538
810.6960,0.090005
812.5596,0.088052
814.4233,0.085601
816.2870,0.083055
818.1507,0.080719
820.0143,0.078684
821.8780,0.077285
823.7417,0.076671
825.6053,0.077091
827.4690,0.078633
829.3327,0.079360
831.1963,0.075204
833.0600,0.066365
834.9237,0.058762
836.7873,0.055470
838.6510,0.054555
840.5147,0.054191
842.3784,0.054213
844.2420,0.054444
846.1057,0.054624
847.9694,0.054720
849.8330,0.055042
851.6967,0.055719
853.5604,0.056397
855.4240,0.057064
857.2877,0.057617
859.1514,0.057431
861.0150,0.056721
862.8787,0.056338
864.7424,0.056296
866.6060,0.056325
868.4697,0.056383
870.3334,0.056504
872.1971,0.056824
874.0607,0.057322
875.9244,0.057834
877.7881,0.058158
879.6517,0.058597
881.5154,0.059082
883.3791,0.059530
885.2427,0.060045
887.1064,0.060823
888.9701,0.061709
890.8337,0.062438
892.6974,0.063339
894.5611,0.064515
896.4247,0.065727
898.2884,0.066999
900.1521,0.068811
902.0158,0.071036
903.8794,0.073423
905.7431,0.076544
907.6068,0.080135
909.4704,0.084133
911.3341,0.089278
913.1978,0.095244
915.0614,0.097708
916.9251,0.090943
918.7888,0.078646
920.6524,0.069691
922.5161,0.066039
924.3798,0.065155
926.2435,0.065465
928.1071,0.066306
929.9708,0.067307
931.8345,0.068601
933.6981,0.070076
935.5618,0.071263
937.4255,0.071888
939.2891,0.072210
941.1528,0.072836
943.0165,0.073813
944.8801,0.074833
946.7438,0.075866
948.6075,0.076959
950.4711,0.078212
952.3348,0.079582
954.1985,0.080970
956.0622,0.082421
957.9258,0.083771
959.7895,0.084957
961.6532,0.086217
963.5168,0.087713
965.3805,0.089547
967.2442,0.091669
969.1078,0.094132
970.9715,0.096864
972.8352,0.100023
974.6988,0.104683
976.5625,0.112342
978.4262,0.125139
980.2899,0.142722
982.1535,0.150376
984.0172,0.132120
985.8809,0.106676
987.7445,0.095324
989.6082,0.094047
991.4719,0.095088
993.3355,0.096784
995.1992,0.098696
997.0629,0.100716
998.9265,0.102671
1000.7902,0.104524
1002.6539,0.106295
1004.5175,0.108121
1006.3812,0.110076
1008.2449,0.111770
1010.1086,0.112739
1011.9722,0.113051
1013.8359,0.112723
1015.6996,0.111642
1017.5632,0.110152
1019.4269,0.108510
1021.2906,0.106727
1023.1542,0.105104
1025.0179,0.103627
1026.8816,0.102367
1028.7452,0.101481
1030.6089,0.100544
1032.4726,0.099561
1034.3362,0.099022
1036.1999,0.098909
1038.0636,0.099055
1039.9273,0.099632
1041.7909,0.100752
1043.6546,0.102195
1045.5183,0.103810
1047.3819,0.104824
1049.2456,0.103595
1051.1093,0.098697
1052.9729,0.091089
1054.8366,0.084022
1056.7003,0.079491
1058.5639,0.077161
1060.4276,0.076191
1062.2913,0.075943
1064.1550,0.076013
1066.0186,0.076456
1067.8823,0.077297
1069.7460,0.078342
1071.6096,0.079396
1073.4733,0.080433
1075.3370,0.081573
1077.2006,0.082758
1079.0643,0.084037
1080.9280,0.085419
1082.7916,0.086975
1084.6553,0.088734
1086.5190,0.090697
1088.3826,0.092962
1090.2463,0.095643
1092.1100,0.098741
1093.9737,0.102218
1095.8373,0.106233
1097.7010,0.110803
1099.5647,0.115633
1101.4283,0.120490
1103.2920,0.125122
1105.1557,0.128496
1107.0193,0.129137
1108.8830,0.126010
1110.7467,0.119009
1112.6103,0.109484
1114.4740,0.099378
1116.3377,0.090081
1118.2014,0.082275
1120.0650,0.076420
1121.9287,0.072465
1123.7924,0.069873
1125.6560,0.067934
1127.5197,0.065995
1129.3834,0.063920
1131.2470,0.062003
1133.1107,0.060424
1134.9744,0.059241
1136.8380,0.058456
1138.7017,0.057971
1140.5654,0.057721
1142.4290,0.057621
1144.2927,0.057557
1146.1564,0.057463
1148.0201,0.057388
1149.8837,0.057380
1151.7474,0.057613
1153.6111,0.058116
1155.4747,0.058680
1157.3384,0.059270
1159.2021,0.059806
1161.0657,0.060305
1162.9294,0.061139
1164.7931,0.062580
1166.6567,0.064656
1168.5204,0.067322
1170.3841,0.070146
1172.2477,0.072170
1174.1114,0.072163
1175.9751,0.069513
1177.8388,0.065514
1179.7024,0.062133
1181.5661,0.060193
1183.4298,0.059462
1185.2934,0.059441
1187.1571,0.059798
1189.0208,0.060118
1190.8844,0.060112
1192.7481,0.059887
1194.6118,0.059689
1196.4754,0.059780
1198.3391,0.060152
1200.2028,0.060583
1202.0665,0.060952
1203.9301,0.061240
1205.7938,0.061493
1207.6575,0.061673
1209.5211,0.061717
1211.3848,0.061667
1213.2485,0.061548
1215.1121,0.061399
1216.9758,0.061304
1218.8395,0.061330
1220.7031,0.061474
1222.5668,0.061594
1224.4305,0.061735
1226.2941,0.061929
1228.1578,0.062109
1230.0215,0.062395
1231.8852,0.062782
1233.7488,0.063150
1235.6125,0.063522
1237.4762,0.063984
1239.3398,0.064509
1241.2035,0.064944
1243.0672,0.065267
1244.9308,0.065625
1246.7945,0.066076
1248.6582,0.066550
1250.5218,0.067110
1252.3855,0.067797
1254.2492,0.068370
1256.1129,0.068898
1257.9765,0.069603
1259.8402,0.070424
1261.7039,0.071288
1263.5675,0.072181
1265.4312,0.072986
1267.2949,0.073334
1269.1585,0.073304
1271.0222,0.073292
1272.8859,0.073381
1274.7495,0.073669
1276.6132,0.074337
1278.4769,0.075367
1280.3405,0.076640
1282.2042,0.078137
1284.0679,0.079808
1285.9316,0.081506
1287.7952,0.083285
1289.6589,0.085297
1291.5226,0.087528
1293.3862,0.090104
1295.2499,0.093311
1297.1136,0.097347
1298.9772,0.102348
1300.8409,0.108440
1302.7046,0.115107
1304.5682,0.120198
1306.4319,0.120176
1308.2956,0.111718
1310.1592,0.095674
1312.0229,0.078966
1313.8866,0.067823
1315.7503,0.063336
1317.6139,0.062964
1319.4776,0.064441
1321.3413,0.066332
1323.2049,0.068212
1325.0686,0.070266
1326.9323,0.072448
1328.7959,0.074574
1330.6596,0.076520
1332.5233,0.078081
1334.3869,0.078996
1336.2506,0.079779
1338.1143,0.081343
1339.9780,0.083212
1341.8416,0.083477
1343.7053,0.082987
1345.5690,0.083256
1347.4326,0.084192
1349.2963,0.085432
1351.1600,0.086589
1353.0236,0.087954
1354.8873,0.089905
1356.7510,0.091827
1358.6146,0.093509
1360.4783,0.095821
1362.3420,0.099574
1364.2056,0.102673
1366.0693,0.104015
1367.9330,0.106363
1369.7967,0.109338
1371.6603,0.111742
1373.5240,0.115491
1375.3877,0.119863
1377.2513,0.122443
1379.1150,0.125720
1380.9787,0.129956
1382.8423,0.134306
1384.7060,0.139421
1386.5697,0.146350
1388.4333,0.153778
1390.2970,0.157697
1392.1607,0.160353
1394.0244,0.162102
1395.8880,0.158875
1397.7517,0.152064
1399.6154,0.144146
1401.4790,0.136133
1403.3427,0.129892
1405.2064,0.120527
1407.0700,0.106197
1408.9337,0.091912
1410.7974,0.078842
1412.6610,0.069072
1414.5247,0.064136
1416.3884,0.063463
1418.2520,0.067442
1420.1157,0.074728
1421.9794,0.078056
1423.8431,0.076788
1425.7067,0.069902
1427.5704,0.062015
1429.4341,0.057029
1431.2977,0.054703
1433.1614,0.054138
1435.0251,0.055273
1436.8887,0.058764
1438.7524,0.060605
1440.6161,0.060756
1442.4797,0.061860
1444.3434,0.063175
1446.2071,0.064516
1448.0707,0.065620
1449.9344,0.064724
1451.7981,0.062290
1453.6618,0.059839
1455.5254,0.059512
1457.3891,0.063881
1459.2528,0.065736
1461.1164,0.064460
1462.9801,0.064672
1464.8438,0.065679
1466.7074,0.064702
1468.5711,0.062525
1470.4348,0.061616
1472.2984,0.062741
1474.1621,0.063745
1476.0258,0.063174
1477.8895,0.062760
1479.7531,0.062559
1481.6168,0.063168
1483.4805,0.063451
1485.3441,0.063544
1487.2078,0.064640
1489.0715,0.066947
1490.9351,0.068512
1492.7988,0.067553
1494.6625,0.067318
1496.5261,0.069710
1498.3898,0.071745
1500.2535,0.071377
1502.1171,0.070212
1503.9808,0.069529
1505.8445,0.071874
1507.7082,0.078015
1509.5718,0.076459
1511.4355,0.075204
1513.2992,0.075274
1515.1628,0.076007
1517.0265,0.077722
1518.8902,0.078730
1520.7538,0.080407
1522.6175,0.083430
1524.4812,0.083400
1526.3448,0.084382
1528.2085,0.085245
1530.0722,0.084880
1531.9359,0.085618
1533.7995,0.087891
1535.6632,0.087515
1537.5269,0.086845
1539.3905,0.090650
1541.2542,0.097170
1543.1179,0.097110
1544.9815,0.097577
1546.8452,0.097816
1548.7089,0.098476
1550.5725,0.100478
1552.4362,0.101700
1554.2999,0.102633
1556.1635,0.104403
1558.0272,0.109921
1559.8909,0.120628
1561.7546,0.116129
1563.6182,0.114765
1565.4819,0.116696
1567.3456,0.119082
1569.2092,0.122779
1571.0729,0.126025
1572.9366,0.126359
1574.8002,0.129593
1576.6639,0.136086
1578.5276,0.137997
1580.3912,0.138488
1582.2549,0.140848
1584.1186,0.142950
1585.9822,0.144783
1587.8459,0.146284
1589.7096,0.147301
1591.5733,0.147601
1593.4369,0.147534
1595.3006,0.147094
1597.1643,0.145953
1599.0279,0.144191
1600.8916,0.142302
1602.7553,0.140185
1604.6189,0.138035
1606.4826,0.136251
1608.3463,0.134759
1610.2099,0.132810
1612.0736,0.130185
1613.9373,0.127785
1615.8010,0.125840
1617.6646,0.120454
1619.5283,0.113402
1621.3920,0.109601
1623.2556,0.105203
1625.1193,0.097984
1626.9830,0.091468
1628.8466,0.084135
1630.7103,0.075933
1632.5740,0.069536
1634.4376,0.064296
1636.3013,0.058204
1638.1650,0.052555
1640.0286,0.050265
1641.8923,0.048850
1643.7560,0.048479
1645.6197,0.049238
1647.4833,0.050999
1649.3470,0.051692
1651.2107,0.053179
1653.0743,0.058055
1654.9380,0.061320
1656.8017,0.060241
1658.6653,0.060877
1660.5290,0.061827
1662.3927,0.062275
1664.2563,0.060999
1666.1200,0.059442
1667.9837,0.058749
1669.8474,0.058011
1671.7110,0.056684
1673.5747,0.056823
1675.4384,0.058585
1677.3020,0.060459
1679.1657,0.061989
1681.0294,0.065253
1682.8930,0.069591
1684.7567,0.075190
1686.6204,0.075998
1688.4840,0.075507
1690.3477,0.075011
1692.2114,0.073394
1694.0750,0.072101
1695.9387,0.070588
1697.8024,0.066959
1699.6661,0.065107
1701.5297,0.059616
1703.3934,0.053535
1705.2571,0.048135
1707.1207,0.040287
1708.9844,0.034435
1710.8481,0.030526
1712.7117,0.027263
1714.5754,0.025194
1716.4391,0.023785
1718.3027,0.022652
1720.1664,0.021331
1722.0301,0.020487
1723.8937,0.019243
1725.7574,0.017514
1727.6211,0.015901
1729.4848,0.014624
1731.3484,0.013494
1733.2121,0.012929
1735.0758,0.012084
1736.9394,0.011564
1738.8031,0.011262
1740.6668,0.010954
1742.5304,0.010693
1744.3941,0.010701
1746.2578,0.010638
1748.1214,0.010849
1749.9851,0.010870
1751.8488,0.010874
1753.7125,0.010715
1755.5761,0.010842
1757.4398,0.010928
1759.3035,0.010808
1761.1671,0.010663
1763.0308,0.010443
1764.8945,0.010134
1766.7581,0.010183
1768.6218,0.009859
1770.4855,0.009420
1772.3491,0.009264
1774.2128,0.009341
1776.0765,0.009313
1777.9401,0.009395
1779.8038,0.009306
1781.6675,0.009384
1783.5312,0.009472
1785.3948,0.009490
1787.2585,0.009427
1789.1222,0.009614
1790.9858,0.009795
1792.8495,0.009945
1794.7132,0.009644
1796.5768,0.009567
1798.4405,0.009688
1800.3042,0.009895
1802.1678,0.009852
1804.0315,0.009786
1805.8952,0.009963
1807.7589,0.010284
1809.6225,0.010222
1811.4862,0.010183
1813.3499,0.010140
1815.2135,0.010132
1817.0772,0.010157
1818.9409,0.010249
1820.8045,0.010171
1822.6682,0.010102
1824.5319,0.010066
1826.3955,0.010037
1828.2592,0.010048
1830.1229,0.010073
1831.9865,0.009752
1833.8502,0.009845
1835.7139,0.010023
1837.5776,0.010150
1839.4412,0.009761
1841.3049,0.009541
1843.1686,0.009821
1845.0322,0.010304
1846.8959,0.010178
1848.7596,0.010044
1850.6232,0.010075
1852.4869,0.010209
1854.3506,0.010283
1856.2142,0.010481
1858.0779,0.010521
1859.9416,0.010450
1861.8052,0.010457
1863.6689,0.010543
1865.5326,0.010248
1867.3963,0.010430
1869.2599,0.010721
1871.1236,0.010580
1872.9873,0.010466
1874.8509,0.010576
1876.7146,0.010374
1878.5783,0.010236
1880.4419,0.010187
1882.3056,0.010232
1884.1693,0.010409
1886.0329,0.010590
1887.8966,0.010378
1889.7603,0.010477
1891.6240,0.010384
1893.4876,0.010328
1895.3513,0.010464
1897.2150,0.010860
1899.0786,0.010887
1900.9423,0.010696
1902.8060,0.010421
1904.6696,0.010625
1906.5333,0.010795
1908.3970,0.010927
1910.2606,0.010742
1912.1243,0.010715
1913.9880,0.010546
1915.8516,0.010592
1917.7153,0.010807
1919.5790,0.010799
1921.4427,0.010329
1923.3063,0.010495
1925.1700,0.010744
1927.0337,0.010722
1928.8973,0.010235
1930.7610,0.010357
1932.6247,0.010193
1934.4883,0.010019
1936.3520,0.010082
1938.2157,0.010598
1940.0793,0.010687
1941.9430,0.009988
1943.8067,0.009093
1945.6704,0.008868
1947.5340,0.008849
1949.3977,0.009748
1951.2614,0.009657
1953.1250,0.009208
1954.9887,0.009084
1956.8524,0.009530
1958.7160,0.009289
1960.5797,0.007889
1962.4434,0.006511
1964.3070,0.006504
1966.1707,0.006326
1968.0344,0.005527
1969.8980,0.004518
1971.7617,0.004077
1973.6254,0.003629
1975.4891,0.004927
1977.3527,0.005545
1979.2164,0.005606
1981.0801,0.006445
1982.9437,0.007629
1984.8074,0.007571
1986.6711,0.007450
1988.5347,0.006517
1990.3984,0.006897
1992.2621,0.007282
1994.1257,0.007765
1995.9894,0.007810
1997.8531,0.007973
1999.7167,0.008029
2001.5804,0.008437
2003.4441,0.008279
2005.3078,0.007715
2007.1714,0.006309
2009.0351,0.005006
2010.8988,0.004836
2012.7624,0.006369
2014.6261,0.006982
2016.4898,0.006770
2018.3534,0.006437
2020.2171,0.006312
2022.0808,0.005557
2023.9444,0.005108
2025.8081,0.004096
2027.6718,0.004988
2029.5355,0.006020
2031.3991,0.005163
2033.2628,0.004172
2035.1265,0.005528
2036.9901,0.006451
2038.8538,0.006605
2040.7175,0.006575
2042.5811,0.007233
2044.4448,0.006889
2046.3085,0.007617
2048.1721,0.008469
2050.0358,0.009345
2051.8995,0.009470
2053.7631,0.010058
2055.6268,0.011157
2057.4905,0.011113
2059.3542,0.011026
2061.2178,0.012190
2063.0815,0.012428
2064.9452,0.011626
2066.8088,0.011729
2068.6725,0.012304
2070.5362,0.012133
2072.3998,0.012496
2074.2635,0.012979
2076.1272,0.013598
2077.9908,0.013064
2079.8545,0.012885
2081.7182,0.013393
2083.5819,0.013689
2085.4455,0.012972
2087.3092,0.012836
2089.1729,0.013289
2091.0365,0.013546
2092.9002,0.013390
2094.7639,0.013416
2096.6275,0.013944
2098.4912,0.014323
2100.3549,0.013710
2102.2185,0.013558
2104.0822,0.013397
2105.9459,0.013482
2107.8095,0.013707
2109.6732,0.013769
2111.5369,0.014480
2113.4006,0.014893
2115.2642,0.013956
2117.1279,0.014030
2118.9916,0.014449
2120.8552,0.014528
2122.7189,0.014454
2124.5826,0.014277
2126.4462,0.013674
2128.3099,0.013616
2130.1736,0.013599
2132.0372,0.013176
2133.9009,0.012568
2135.7646,0.012973
2137.6282,0.012605
2139.4919,0.011752
2141.3556,0.011474
2143.2193,0.011824
2145.0829,0.011335
2146.9466,0.010751
2148.8103,0.010405
2150.6739,0.009221
2152.5376,0.008450
2154.4013,0.009288
2156.2649,0.007982
2158.1286,0.006303
2159.9923,0.006300
2161.8559,0.007622
2163.7196,0.008443
2165.5833,0.008239
2167.4470,0.007977
2169.3106,0.009596
2171.1743,0.009945
2173.0380,0.008873
2174.9016,0.009003
2176.7653,0.011037
2178.6290,0.011228
2180.4926,0.011030
2182.3563,0.010205
2184.2200,0.009980
2186.0836,0.010504
2187.9473,0.010416
2189.8110,0.011399
2191.6746,0.013079
2193.5383,0.012503
2195.4020,0.012733
2197.2657,0.013151
2199.1293,0.012818
2200.9930,0.011572
2202.8567,0.011835
2204.7203,0.012495
2206.5840,0.012259
2208.4477,0.011873
2210.3113,0.012257
2212.1750,0.012917
2214.0387,0.013360
2215.9023,0.013502
2217.7660,0.013669
2219.6297,0.013435
2221.4934,0.013809
2223.3570,0.014002
2225.2207,0.014149
2227.0844,0.014061
2228.9480,0.014780
2230.8117,0.014848
2232.6754,0.014687
2234.5390,0.015411
2236.4027,0.016108
2238.2664,0.016212
2240.1300,0.016574
2241.9937,0.016290
2243.8574,0.016106
2245.7210,0.015600
2247.5847,0.015426
2249.4484,0.015423
2251.3121,0.015805
2253.1757,0.016641
2255.0394,0.016933
2256.9031,0.017080
2258.7667,0.017705
2260.6304,0.017780
2262.4941,0.017698
2264.3577,0.018025
2266.2214,0.017921
2268.0851,0.017395
2269.9487,0.017413
2271.8124,0.018285
2273.6761,0.018517
2275.5397,0.018536
2277.4034,0.019453
2279.2671,0.019875
2281.1308,0.019735
2282.9944,0.019951
2284.8581,0.020132
2286.7218,0.020404
2288.5854,0.020425
2290.4491,0.020308
2292.3128,0.020213
2294.1764,0.020002
2296.0401,0.020096
2297.9038,0.020148
2299.7674,0.020252
2301.6311,0.020316
2303.4948,0.020637
2305.3585,0.020843
2307.2221,0.021196
2309.0858,0.020966
2310.9495,0.020346
2312.8131,0.020637
2314.6768,0.021147
2316.5405,0.020835
2318.4041,0.020910
2320.2678,0.021112
2322.1315,0.020913
2323.9951,0.020957
2325.8588,0.021006
2327.7225,0.020493
2329.5861,0.019894
2331.4498,0.019834
2333.3135,0.019922
2335.1772,0.019851
2337.0408,0.019929
2338.9045,0.020022
2340.7682,0.020292
2342.6318,0.020670
2344.4955,0.020757
2346.3592,0.020215
2348.2228,0.019877
2350.0865,0.019716
2351.9502,0.019727
2353.8138,0.019799
2355.6775,0.019867
2357.5412,0.019670
2359.4049,0.019786
2361.2685,0.019814
2363.1322,0.020279
2364.9959,0.020760
2366.8595,0.020344
2368.7232,0.019995
2370.5869,0.020170
2372.4505,0.020493
2374.3142,0.020817
2376.1779,0.020757
2378.0415,0.020574
2379.9052,0.020618
2381.7689,0.020825
2383.6325,0.020803
2385.4962,0.020677
2387.3599,0.020663
2389.2236,0.020583
2391.0872,0.020462
2392.9509,0.020713
2394.8146,0.021077
2396.6782,0.021253
2398.5419,0.021152
2400.4056,0.021081
2402.2692,0.021136
2404.1329,0.021036
2405.9966,0.020981
2407.8602,0.021213
2409.7239,0.021500
2411.5876,0.021665
2413.4512,0.021568
2415.3149,0.021516
2417.1786,0.021167
2419.0423,0.021236
2420.9059,0.021609
2422.7696,0.021550
2424.6333,0.021639
2426.4969,0.021837
2428.3606,0.021822
2430.2243,0.021910
2432.0879,0.022143
2433.9516,0.022036
2435.8153,0.022049
2437.6789,0.022205
2439.5426,0.022101
2441.4063,0.022118
2443.2700,0.021887
2445.1336,0.021887
2446.9973,0.022279
2448.8610,0.022303
2450.7246,0.022284
2452.5883,0.022007
2454.4520,0.021906
2456.3156,0.021762
2458.1793,0.021582
2460.0430,0.021762
2461.9066,0.022036
2463.7703,0.022078
2465.6340,0.022049
2467.4976,0.021978
2469.3613,0.022112
2471.2250,0.022197
2473.0887,0.022446
2474.9523,0.022419
2476.8160,0.022194
2478.6797,0.022025
2480.5433,0.022038
2482.4070,0.022176
2484.2707,0.022121
2486.1343,0.022403
2487.9980,0.022648
2489.8617,0.022792
2491.7253,0.023256
2493.5890,0.023411
2495.4527,0.022929
2497.3164,0.022762
2499.1800,0.022833
2501.0437,0.023161
2502.9074,0.023596
2504.7710,0.023789
2506.6347,0.023321
2508.4984,0.023131
2510.3620,0.023563
2512.2257,0.023582
2514.0894,0.023453
2515.9530,0.023691
2517.8167,0.023688
2519.6804,0.023865
2521.5440,0.024193
2523.4077,0.024061
2525.2714,0.023480
2527.1351,0.023879
2528.9987,0.024320
2530.8624,0.024126
2532.7261,0.023983
2534.5897,0.024256
2536.4534,0.024182
2538.3171,0.023972
2540.1807,0.024286
2542.0444,0.024211
2543.9081,0.024354
2545.7717,0.024802
2547.6354,0.024810
2549.4991,0.024412
2551.3627,0.023966
2553.2264,0.024025
2555.0901,0.024416
2556.9538,0.024774
2558.8174,0.025010
2560.6811,0.025095
2562.5448,0.024713
2564.4084,0.024668
2566.2721,0.025209
2568.1358,0.025496
2569.9994,0.025392
2571.8631,0.024964
2573.7268,0.025318
2575.5904,0.025689
2577.4541,0.025936
2579.3178,0.026182
2581.1815,0.026407
2583.0451,0.026545
2584.9088,0.026402
2586.7725,0.026544
2588.6361,0.026745
2590.4998,0.026698
2592.3635,0.026989
2594.2271,0.027359
2596.0908,0.027604
2597.9545,0.027530
2599.8181,0.027736
2601.6818,0.027862
2603.5455,0.027633
2605.4091,0.027246
2607.2728,0.027516
2609.1365,0.027662
2611.0002,0.027751
2612.8638,0.027797
2614.7275,0.027799
2616.5912,0.028056
2618.4548,0.028360
2620.3185,0.028659
2622.1822,0.028715
2624.0458,0.028786
2625.9095,0.028992
2627.7732,0.029144
2629.6368,0.029482
2631.5005,0.029652
2633.3642,0.029843
2635.2279,0.030149
2637.0915,0.030308
2638.9552,0.030441
2640.8189,0.030663
2642.6825,0.030708
2644.5462,0.030900
2646.4099,0.031068
2648.2735,0.031065
2650.1372,0.030995
2652.0009,0.031225
2653.8645,0.031373
2655.7282,0.031306
2657.5919,0.031237
2659.4555,0.031447
2661.3192,0.031647
2663.1829,0.031650
2665.0466,0.031528
2666.9102,0.031549
2668.7739,0.031834
2670.6376,0.031983
2672.5012,0.031959
2674.3649,0.031937
2676.2286,0.032013
2678.0922,0.032344
2679.9559,0.032648
2681.8196,0.032787
2683.6832,0.032866
2685.5469,0.033036
2687.4106,0.033295
2689.2742,0.033600
2691.1379,0.033814
2693.0016,0.034078
2694.8653,0.034081
2696.7289,0.034163
2698.5926,0.034506
2700.4563,0.034708
2702.3199,0.034752
2704.1836,0.035016
2706.0473,0.035148
2707.9109,0.035402
2709.7746,0.035803
2711.6383,0.036045
2713.5019,0.036270
2715.3656,0.036478
2717.2293,0.036840
2719.0930,0.037278
2720.9566,0.037302
2722.8203,0.037285
2724.6840,0.037673
2726.5476,0.038290
2728.4113,0.038701
2730.2750,0.038858
2732.1386,0.039287
2734.0023,0.039698
2735.8660,0.039645
2737.7296,0.040053
2739.5933,0.040524
2741.4570,0.040612
2743.3206,0.040888
2745.1843,0.041453
2747.0480,0.041903
2748.9117,0.042656
2750.7753,0.043108
2752.6390,0.043343
2754.5027,0.043614
2756.3663,0.043821
2758.2300,0.044265
2760.0937,0.044831
2761.9573,0.045367
2763.8210,0.045713
2765.6847,0.045863
2767.5483,0.046219
2769.4120,0.046628
2771.2757,0.047097
2773.1394,0.047657
2775.0030,0.048266
2776.8667,0.048919
2778.7304,0.049249
2780.5940,0.049280
2782.4577,0.049425
2784.3214,0.049713
2786.1850,0.049644
2788.0487,0.049290
2789.9124,0.049315
2791.7760,0.049214
2793.6397,0.048765
2795.5034,0.047972
2797.3670,0.047467
2799.2307,0.047449
2801.0944,0.047364
2802.9581,0.046844
2804.8217,0.046562
2806.6854,0.046248
2808.5491,0.045832
2810.4127,0.045865
2812.2764,0.045803
2814.1401,0.045547
2816.0037,0.045493
2817.8674,0.045552
2819.7311,0.045876
2821.5947,0.046006
2823.4584,0.046026
2825.3221,0.045959
2827.1857,0.045480
2829.0494,0.045124
2830.9131,0.045142
2832.7768,0.045098
2834.6404,0.045178
2836.5041,0.045710
2838.3678,0.046131
2840.2314,0.046309
2842.0951,0.046613
2843.9588,0.046815
2845.8224,0.047028
2847.6861,0.047376
2849.5498,0.047942
2851.4134,0.048468
2853.2771,0.048717
2855.1408,0.048946
2857.0045,0.049612
2858.8681,0.050401
2860.7318,0.051040
2862.5955,0.051562
2864.4591,0.051803
2866.3228,0.051663
2868.1865,0.051669
2870.0501,0.051842
2871.9138,0.052122
2873.7775,0.052496
2875.6411,0.052508
2877.5048,0.052658
2879.3685,0.053271
2881.2321,0.053503
2883.0958,0.053758
2884.9595,0.054217
2886.8232,0.054489
2888.6868,0.054847
2890.5505,0.055337
2892.4142,0.055756
2894.2778,0.056362
2896.1415,0.056725
2898.0052,0.056974
2899.8688,0.057054
2901.7325,0.056908
2903.5962,0.056873
2905.4598,0.056993
2907.3235,0.057040
2909.1872,0.057550
2911.0509,0.058100
2912.9145,0.058435
2914.7782,0.058966
2916.6419,0.059785
2918.5055,0.060189
2920.3692,0.060533
2922.2329,0.061124
2924.0965,0.061650
2925.9602,0.062018
2927.8239,0.062418
2929.6875,0.062582
2931.5512,0.062817
2933.4149,0.063205
2935.2785,0.063486
2937.1422,0.063513
2939.0059,0.063851
2940.8696,0.064234
2942.7332,0.064406
2944.5969,0.064364
2946.4606,0.064567
2948.3242,0.064792
2950.1879,0.065196
2952.0516,0.065489
2953.9152,0.065875
2955.7789,0.066269
2957.6426,0.066213
2959.5062,0.065903
2961.3699,0.066244
2963.2336,0.067065
2965.0972,0.067731
2966.9609,0.068066
2968.8246,0.068500
2970.6883,0.068738
2972.5519,0.068949
2974.4156,0.069022
2976.2793,0.069560
2978.1429,0.070300
2980.0066,0.070838
2981.8703,0.071261
2983.7339,0.071451
2985.5976,0.071223
2987.4613,0.071204
2989.3249,0.071468
2991.1886,0.072076
2993.0523,0.072722
2994.9160,0.073205
2996.7796,0.073505
2998.6433,0.074180
3000.5070,0.074712
3002.3706,0.075391
3004.2343,0.076018
3006.0980,0.076366
3007.9616,0.076651
3009.8253,0.077330
3011.6890,0.077992
3013.5526,0.078647
3015.4163,0.079028
3017.2800,0.079323
3019.1436,0.079475
3021.0073,0.079893
3022.8710,0.079981
3024.7347,0.080227
3026.5983,0.080536
3028.4620,0.080845
3030.3257,0.081235
3032.1893,0.081474
3034.0530,0.081389
3035.9167,0.081620
3037.7803,0.081917
3039.6440,0.081925
3041.5077,0.081983
3043.3713,0.082408
3045.2350,0.082453
3047.0987,0.082769
3048.9624,0.083070
3050.8260,0.083139
3052.6897,0.083203
3054.5534,0.083297
3056.4170,0.083484
3058.2807,0.083581
3060.1444,0.083341
3062.0080,0.083508
3063.8717,0.083504
3065.7354,0.083533
3067.5990,0.083753
3069.4627,0.084238
3071.3264,0.084365
3073.1900,0.084020
3075.0537,0.083688
3076.9174,0.083544
3078.7811,0.083177
3080.6447,0.082736
3082.5084,0.082345
3084.3721,0.082401
3086.2357,0.082289
3088.0994,0.081964
3089.9631,0.081528
3091.8267,0.080979
3093.6904,0.080386
3095.5541,0.079783
3097.4177,0.078772
3099.2814,0.077880
3101.1451,0.077444
3103.0087,0.076979
3104.8724,0.076304
3106.7361,0.075671
3108.5998,0.074769
3110.4634,0.074215
3112.3271,0.073599
3114.1908,0.072748
3116.0544,0.072079
3117.9181,0.072179
3119.7818,0.071488
3121.6454,0.070715
3123.5091,0.070480
3125.3728,0.070022
3127.2364,0.068769
3129.1001,0.067791
3130.9638,0.067181
3132.8275,0.066519
3134.6911,0.065994
3136.5548,0.065337
3138.4185,0.064885
3140.2821,0.064879
3142.1458,0.064507
3144.0095,0.064047
3145.8731,0.063624
3147.7368,0.063413
3149.6005,0.062703
3151.4641,0.062156
3153.3278,0.062438
3155.1915,0.062377
3157.0551,0.061944
3158.9188,0.061596
3160.7825,0.060628
3162.6462,0.059702
3164.5098,0.059586
3166.3735,0.059710
3168.2372,0.059268
3170.1008,0.059117
3171.9645,0.058886
3173.8282,0.058037
3175.6918,0.057491
3177.5555,0.057280
3179.4192,0.056865
3181.2828,0.056664
3183.1465,0.056864
3185.0102,0.057215
3186.8739,0.057016
3188.7375,0.056359
3190.6012,0.055731
3192.4649,0.055435
3194.3285,0.055676
3196.1922,0.056386
3198.0559,0.056576
3199.9195,0.056016
3201.7832,0.056072
3203.6469,0.055931
3205.5105,0.055119
3207.3742,0.055511
3209.2379,0.056150
3211.1015,0.056609
3212.9652,0.056251
3214.8289,0.056264
3216.6926,0.056750
3218.5562,0.057078
3220.4199,0.056671
3222.2836,0.056433
3224.1472,0.056799
3226.0109,0.057293
3227.8746,0.057249
3229.7382,0.056858
3231.6019,0.057176
3233.4656,0.057624
3235.3292,0.057986
3237.1929,0.058167
3239.0566,0.057883
3240.9202,0.057660
3242.7839,0.058126
3244.6476,0.059253
3246.5113,0.059468
3248.3749,0.059395
3250.2386,0.059666
3252.1023,0.059883
3253.9659,0.059516
3255.8296,0.059700
3257.6933,0.060325
3259.5569,0.060642
3261.4206,0.060621
3263.2843,0.061015
3265.1479,0.061281
3267.0116,0.061033
3268.8753,0.060607
3270.7390,0.060330
3272.6026,0.060653
3274.4663,0.061629
3276.3300,0.061974
3278.1936,0.062065
3280.0573,0.061508
3281.9210,0.060835
3283.7846,0.060699
3285.6483,0.060306
3287.5120,0.059889
3289.3756,0.059374
3291.2393,0.058838
3293.1030,0.059188
3294.9666,0.058918
3296.8303,0.058102
3298.6940,0.057268
3300.5577,0.056538
3302.4213,0.055872
3304.2850,0.055239
3306.1487,0.055054
3308.0123,0.054985
3309.8760,0.053984
3311.7397,0.052621
3313.6033,0.051715
3315.4670,0.052216
3317.3307,0.052984
3319.1943,0.053677
3321.0580,0.053588
3322.9217,0.053122
3324.7854,0.053315
3326.6490,0.053696
3328.5127,0.053197
3330.3764,0.053224
3332.2400,0.053808
3334.1037,0.053795
3335.9674,0.053176
3337.8310,0.052890
3339.6947,0.052383
3341.5584,0.051879
3343.4220,0.051186
3345.2857,0.050166
3347.1494,0.048722
3349.0130,0.047751
3350.8767,0.047078
3352.7404,0.046612
3354.6041,0.046175
3356.4677,0.045182
3358.3314,0.044129
3360.1951,0.043494
3362.0587,0.043223
3363.9224,0.042270
3365.7861,0.040659
3367.6497,0.040782
3369.5134,0.042056
3371.3771,0.041907
3373.2407,0.041004
3375.1044,0.040910
3376.9681,0.040853
3378.8317,0.040647
3380.6954,0.040340
3382.5591,0.040393
3384.4228,0.041181
3386.2864,0.041765
3388.1501,0.041760
3390.0138,0.042154
3391.8774,0.042183
3393.7411,0.042432
3395.6048,0.043722
3397.4684,0.044287
3399.3321,0.043752
3401.1958,0.043957
3403.0594,0.043381
3404.9231,0.041983
3406.7868,0.041109
3408.6505,0.040349
3410.5141,0.039974
3412.3778,0.039594
3414.2415,0.037867
3416.1051,0.036447
3417.9688,0.036225
3419.8325,0.035314
3421.6961,0.033229
3423.5598,0.032275
3425.4235,0.031111
3427.2871,0.029003
3429.1508,0.028608
3431.0145,0.028683
3432.8781,0.026750
3434.7418,0.025587
3436.6055,0.025437
3438.4692,0.025165
3440.3328,0.024772
3442.1965,0.023938
3444.0602,0.022344
3445.9238,0.021270
3447.7875,0.021470
3449.6512,0.022066
3451.5148,0.022371
3453.3785,0.021693
3455.2422,0.020952
3457.1058,0.020429
3458.9695,0.019725
3460.8332,0.019685
3462.6969,0.019806
3464.5605,0.019846
3466.4242,0.019292
3468.2879,0.018573
3470.1515,0.018539
3472.0152,0.017839
3473.8789,0.017466
3475.7425,0.018035
3477.6062,0.017750
3479.4699,0.016803
3481.3335,0.016568
3483.1972,0.015850
3485.0609,0.014776
3486.9245,0.015179
3488.7882,0.015664
3490.6519,0.015206
3492.5156,0.014165
3494.3792,0.014348
3496.2429,0.015183
3498.1066,0.014898
3499.9702,0.013797
3501.8339,0.013033
3503.6976,0.012776
3505.5612,0.012844
3507.4249,0.011896
3509.2886,0.011165
3511.1522,0.011425
3513.0159,0.011714
3514.8796,0.011497
3516.7432,0.010865
3518.6069,0.011097
3520.4706,0.012262
3522.3343,0.012515
3524.1979,0.011576
3526.0616,0.010817
3527.9253,0.010491
3529.7889,0.009587
3531.6526,0.008831
3533.5163,0.009362
3535.3799,0.009678
3537.2436,0.009418
3539.1073,0.009071
3540.9709,0.008979
3542.8346,0.010087
3544.6983,0.009974
3546.5620,0.008246
3548.4256,0.007639
3550.2893,0.008229
3552.1530,0.008827
3554.0166,0.008742
3555.8803,0.008572
3557.7440,0.008325
3559.6076,0.007758
3561.4713,0.007962
3563.3350,0.008708
3565.1986,0.008255
3567.0623,0.007603
3568.9260,0.007844
3570.7896,0.007645
3572.6533,0.007685
3574.5170,0.008089
3576.3807,0.007822
3578.2443,0.007256
3580.1080,0.007393
3581.9717,0.007867
3583.8353,0.008201
3585.6990,0.008176
3587.5627,0.007475
3589.4263,0.006853
3591.2900,0.006428
3593.1537,0.006551
3595.0173,0.007060
3596.8810,0.007241
3598.7447,0.007128
3600.6084,0.007613
3602.4720,0.008049
3604.3357,0.007815
3606.1994,0.007436
3608.0630,0.007378
3609.9267,0.007989
3611.7904,0.008100
3613.6540,0.007103
3615.5177,0.006199
3617.3814,0.006941
3619.2450,0.008006
3621.1087,0.007842
3622.9724,0.007792
3624.8360,0.008386
3626.6997,0.008366
3628.5634,0.008154
3630.4271,0.008620
3632.2907,0.007886
3634.1544,0.007708
3636.0181,0.008401
3637.8817,0.008786
3639.7454,0.008726
3641.6091,0.008358
3643.4727,0.008171
3645.3364,0.008453
3647.2001,0.008618
3649.0637,0.008028
3650.9274,0.006464
3652.7911,0.006623
3654.6547,0.008344
3656.5184,0.009106
3658.3821,0.009060
3660.2458,0.008953
3662.1094,0.009302
3663.9731,0.010024
3665.8368,0.010158
3667.7004,0.010112
3669.5641,0.010624
3671.4278,0.011294
3673.2914,0.012145
3675.1551,0.013534
3677.0188,0.013581
3678.8824,0.011189
3680.7461,0.009308
3682.6098,0.008344
3684.4735,0.008307
3686.3371,0.008091
3688.2008,0.007754
3690.0645,0.007153
3691.9281,0.007326
3693.7918,0.008592
3695.6555,0.009048
3697.5191,0.008933
3699.3828,0.008795
3701.2465,0.008675
3703.1101,0.008338
3704.9738,0.008206
3706.8375,0.008431
3708.7011,0.008408
3710.5648,0.008426
3712.4285,0.008963
3714.2922,0.008619
3716.1558,0.008180
3718.0195,0.008934
3719.8832,0.009552
3721.7468,0.009356
3723.6105,0.008891
3725.4742,0.008580
3727.3378,0.008573
3729.2015,0.008575
3731.0652,0.008558
3732.9288,0.008421
3734.7925,0.007619
3736.6562,0.007308
3738.5199,0.008347
3740.3835,0.008650
3742.2472,0.008465
3744.1109,0.007998
3745.9745,0.006852
3747.8382,0.006901
3749.7019,0.007845
3751.5655,0.007980
3753.4292,0.008104
3755.2929,0.008980
3757.1565,0.009536
3759.0202,0.009832
3760.8839,0.010199
3762.7475,0.010238
3764.6112,0.009839
3766.4749,0.009892
3768.3386,0.010208
3770.2022,0.010214
3772.0659,0.010439
3773.9296,0.010874
3775.7932,0.010983
3777.6569,0.010601
3779.5206,0.010418
3781.3842,0.010308
3783.2479,0.009781
3785.1116,0.009847
3786.9752,0.010180
3788.8389,0.010429
3790.7026,0.010640
3792.5662,0.010670
3794.4299,0.010542
3796.2936,0.010176
3798.1573,0.010070
3800.0209,0.010327
3801.8846,0.010505
3803.7483,0.010234
3805.6119,0.009653
3807.4756,0.009736
3809.3393,0.010169
3811.2029,0.010195
3813.0666,0.009953
3814.9303,0.009559
3816.7939,0.009592
3818.6576,0.009904
3820.5213,0.009924
3822.3850,0.010101
3824.2486,0.010114
3826.1123,0.009768
3827.9760,0.009606
3829.8396,0.009845
3831.7033,0.010355
3833.5670,0.010730
3835.4306,0.010593
3837.2943,0.010236
3839.1580,0.010525
3841.0216,0.010548
3842.8853,0.009770
3844.7490,0.009532
3846.6126,0.009568
3848.4763,0.010245
3850.3400,0.011157
3852.2037,0.011496
3854.0673,0.011288
3855.9310,0.010503
3857.7947,0.010325
3859.6583,0.010231
3861.5220,0.010039
3863.3857,0.010401
3865.2493,0.010757
3867.1130,0.010345
3868.9767,0.010015
3870.8403,0.010551
3872.7040,0.010633
3874.5677,0.010158
3876.4314,0.010682
3878.2950,0.011259
3880.1587,0.011178
3882.0224,0.010984
3883.8860,0.010805
3885.7497,0.010505
3887.6134,0.010305
3889.4770,0.010897
3891.3407,0.011362
3893.2044,0.010887
3895.0680,0.010429
3896.9317,0.011241
3898.7954,0.011978
3900.6590,0.011470
3902.5227,0.011363
3904.3864,0.012161
3906.2501,0.011760
3908.1137,0.011165
3909.9774,0.011492
3911.8411,0.011733
3913.7047,0.011747
3915.5684,0.011492
3917.4321,0.011142
3919.2957,0.011634
3921.1594,0.011993
3923.0231,0.011906
3924.8867,0.012229
3926.7504,0.012070
3928.6141,0.011557
3930.4777,0.011771
3932.3414,0.012228
3934.2051,0.012503
3936.0688,0.012298
3937.9324,0.011798
3939.7961,0.011685
3941.6598,0.011726
3943.5234,0.011823
3945.3871,0.012114
3947.2508,0.012344
3949.1144,0.012447
3950.9781,0.012331
3952.8418,0.011932
3954.7054,0.011692
3956.5691,0.011956
3958.4328,0.011788
3960.2965,0.011500
3962.1601,0.012210
3964.0238,0.013088
3965.8875,0.013074
3967.7511,0.012660
3969.6148,0.012304
3971.4785,0.012015
3973.3421,0.012296
3975.2058,0.012782
3977.0695,0.012728
3978.9331,0.012251
3980.7968,0.012159
3982.6605,0.012523
3984.5241,0.012625
3986.3878,0.012536
3988.2515,0.012469
3990.1152,0.012380
3991.9788,0.012529
3993.8425,0.012916
3995.7062,0.012795
3997.5698,0.012281
3999.4335,0.012671
