Wavenumber,Intensity
650.4205,0.260717
652.2841,0.251236
654.1478,0.246606
656.0115,0.243401
657.8751,0.239306
659.7388,0.234880
661.6025,0.234076
663.4661,0.231374
665.3298,0.226294
667.1935,0.225300
669.0571,0.227034
670.9208,0.225203
672.7845,0.224537
674.6481,0.224268
676.5118,0.225057
678.3755,0.224862
680.2392,0.226451
682.1028,0.227707
683.9665,0.227979
685.8302,0.225925
687.6938,0.225806
689.5575,0.227019
691.4212,0.227999
693.2848,0.228679
695.1485,0.230096
697.0122,0.231196
698.8758,0.232918
700.7395,0.233764
702.6032,0.233565
704.4669,0.230049
706.3305,0.224653
708.1942,0.216023
710.0579,0.206002
711.9215,0.195968
713.7852,0.187084
715.6489,0.177512
717.5125,0.169057
719.3762,0.162307
721.2399,0.155816
723.1035,0.149409
724.9672,0.143969
726.8309,0.139263
728.6945,0.134649
730.5582,0.130012
732.4219,0.125379
734.2856,0.121157
736.1492,0.117435
738.0129,0.115063
739.8766,0.115439
741.7402,0.117755
743.6039,0.120622
745.4676,0.122507
747.3312,0.123300
749.1949,0.123056
751.0586,0.122437
752.9222,0.121464
754.7859,0.120019
756.6496,0.119291
758.5132,0.119038
760.3769,0.117957
762.2406,0.116892
764.1043,0.116040
765.9679,0.114835
767.8316,0.113791
769.6953,0.113625
771.5589,0.113550
773.4226,0.113176
775.2863,0.112869
777.1499,0.113380
779.0136,0.114256
780.8773,0.115151
782.7409,0.116275
784.6046,0.117941
786.4683,0.119697
788.3320,0.121561
790.1956,0.123568
792.0593,0.125789
793.9230,0.128155
795.7866,0.130579
797.6503,0.132843
799.5140,0.134443
801.3776,0.135399
803.2413,0.136128
805.1050,0.135474
806.9686,0.133826
808.8323,0.131605
810.6960,0.128975
812.5596,0.125591
814.4233,0.121757
816.2870,0.118041
818.1507,0.114650
820.0143,0.111612
821.8780,0.109391
823.7417,0.108485
825.6053,0.109255
827.4690,0.111623
829.3327,0.113081
831.1963,0.106953
833.0600,0.093269
834.9237,0.081689
836.7873,0.076578
838.6510,0.074772
840.5147,0.074102
842.3784,0.073695
844.2420,0.073270
846.1057,0.072923
847.9694,0.072359
849.8330,0.071921
851.6967,0.071842
853.5604,0.071713
855.4240,0.071463
857.2877,0.071368
859.1514,0.071069
861.0150,0.070471
862.8787,0.069848
864.7424,0.069462
866.6060,0.069158
868.4697,0.068674
870.3334,0.068323
872.1971,0.068239
874.0607,0.068384
875.9244,0.068569
877.7881,0.068785
879.6517,0.069306
881.5154,0.069907
883.3791,0.070534
885.2427,0.071325
887.1064,0.072290
888.9701,0.073370
890.8337,0.074405
892.6974,0.075379
894.5611,0.076624
896.4247,0.078191
898.2884,0.079881
900.1521,0.081826
902.0158,0.084650
903.8794,0.088572
905.7431,0.093391
907.6068,0.099073
909.4704,0.105635
911.3341,0.113631
913.1978,0.122951
915.0614,0.127338
916.9251,0.117403
918.7888,0.098233
920.6524,0.083696
922.5161,0.077415
924.3798,0.075548
926.2435,0.075157
928.1071,0.075428
929.9708,0.076026
931.8345,0.076523
933.6981,0.076906
935.5618,0.077403
937.4255,0.077853
939.2891,0.078129
941.1528,0.078355
943.0165,0.078676
944.8801,0.079291
946.7438,0.080171
948.6075,0.081280
950.4711,0.082602
952.3348,0.084163
954.1985,0.085963
956.0622,0.087983
957.9258,0.090187
959.7895,0.092376
961.6532,0.094676
963.5168,0.097399
965.3805,0.100532
967.2442,0.104223
969.1078,0.108668
970.9715,0.113539
972.8352,0.119180
974.6988,0.127424
976.5625,0.140735
978.4262,0.162244
980.2899,0.191377
982.1535,0.203934
984.0172,0.173395
985.8809,0.131911
987.7445,0.112881
989.6082,0.109801
991.4719,0.110395
993.3355,0.111566
995.1992,0.112808
997.0629,0.113900
998.9265,0.114680
1000.7902,0.115262
1002.6539,0.116000
1004.5175,0.116902
1006.3812,0.117948
1008.2449,0.119031
1010.1086,0.120127
1011.9722,0.121270
1013.8359,0.122336
1015.6996,0.123161
1017.5632,0.123743
1019.4269,0.124359
1021.2906,0.124963
1023.1542,0.125376
1025.0179,0.125833
1026.8816,0.126432
1028.7452,0.127173
1030.6089,0.128040
1032.4726,0.129050
1034.3362,0.130408
1036.1999,0.132359
1038.0636,0.134717
1039.9273,0.137451
1041.7909,0.140901
1043.6546,0.145033
1045.5183,0.149385
1047.3819,0.152686
1049.2456,0.152188
1051.1093,0.145183
1052.9729,0.133171
1054.8366,0.121382
1056.7003,0.113414
1058.5639,0.109314
1060.4276,0.107627
1062.2913,0.107039
1064.1550,0.107179
1066.0186,0.108358
1067.8823,0.110558
1069.7460,0.113574
1071.6096,0.117199
1073.4733,0.120829
1075.3370,0.123867
1077.2006,0.126350
1079.0643,0.128532
1080.9280,0.130415
1082.7916,0.132241
1084.6553,0.134332
1086.5190,0.136854
1088.3826,0.140011
1090.2463,0.144115
1092.1100,0.149190
1093.9737,0.155155
1095.8373,0.162212
1097.7010,0.170237
1099.5647,0.178714
1101.4283,0.187149
1103.2920,0.194692
1105.1557,0.199828
1107.0193,0.200365
1108.8830,0.194344
1110.7467,0.182136
1112.6103,0.166491
1114.4740,0.150308
1116.3377,0.135666
1118.2014,0.123824
1120.0650,0.115112
1121.9287,0.109135
1123.7924,0.105178
1125.6560,0.102226
1127.5197,0.099443
1129.3834,0.096673
1131.2470,0.094175
1133.1107,0.092183
1134.9744,0.090734
1136.8380,0.089964
1138.7017,0.089959
1140.5654,0.090427
1142.4290,0.091108
1144.2927,0.091757
1146.1564,0.092102
1148.0201,0.092192
1149.8837,0.092230
1151.7474,0.092252
1153.6111,0.092165
1155.4747,0.092025
1157.3384,0.091962
1159.2021,0.091925
1161.0657,0.092016
1162.9294,0.092616
1164.7931,0.093933
1166.6567,0.096150
1168.5204,0.099356
1170.3841,0.102947
1172.2477,0.105185
1174.1114,0.104111
1175.9751,0.099247
1177.8388,0.092599
1179.7024,0.086930
1181.5661,0.083517
1183.4298,0.082088
1185.2934,0.081862
1187.1571,0.082102
1189.0208,0.082347
1190.8844,0.082543
1192.7481,0.082603
1194.6118,0.082649
1196.4754,0.083005
1198.3391,0.083497
1200.2028,0.083976
1202.0665,0.084450
1203.9301,0.084837
1205.7938,0.085186
1207.6575,0.085574
1209.5211,0.085952
1211.3848,0.086435
1213.2485,0.087131
1215.1121,0.087768
1216.9758,0.088322
1218.8395,0.089018
1220.7031,0.089820
1222.5668,0.090571
1224.4305,0.091297
1226.2941,0.092053
1228.1578,0.092735
1230.0215,0.093421
1231.8852,0.094227
1233.7488,0.094996
1235.6125,0.095715
1237.4762,0.096491
1239.3398,0.097287
1241.2035,0.098037
1243.0672,0.098774
1244.9308,0.099520
1246.7945,0.100305
1248.6582,0.101197
1250.5218,0.102102
1252.3855,0.103108
1254.2492,0.104165
1256.1129,0.105076
1257.9765,0.106150
1259.8402,0.107617
1261.7039,0.109161
1263.5675,0.110623
1265.4312,0.111892
1267.2949,0.112540
1269.1585,0.112662
1271.0222,0.112640
1272.8859,0.112743
1274.7495,0.113209
1276.6132,0.114120
1278.4769,0.115494
1280.3405,0.117300
1282.2042,0.119433
1284.0679,0.121919
1285.9316,0.124900
1287.7952,0.128390
1289.6589,0.132276
1291.5226,0.136650
1293.3862,0.141755
1295.2499,0.147896
1297.1136,0.155237
1298.9772,0.163740
1300.8409,0.173786
1302.7046,0.184267
1304.5682,0.191095
1306.4319,0.188956
1308.2956,0.173218
1310.1592,0.146064
1312.0229,0.119149
1313.8866,0.101905
1315.7503,0.095443
1317.6139,0.095486
1319.4776,0.098352
1321.3413,0.101694
1323.2049,0.105037
1325.0686,0.108682
1326.9323,0.112348
1328.7959,0.115869
1330.6596,0.119083
1332.5233,0.121601
1334.3869,0.123193
1336.2506,0.124415
1338.1143,0.126710
1339.9780,0.129828
1341.8416,0.130613
1343.7053,0.130302
1345.5690,0.131096
1347.4326,0.132520
1349.2963,0.134341
1351.1600,0.136361
1353.0236,0.138730
1354.8873,0.141836
1356.7510,0.144836
1358.6146,0.147294
1360.4783,0.150973
1362.3420,0.157607
1364.2056,0.163139
1366.0693,0.165441
1367.9330,0.169574
1369.7967,0.174544
1371.6603,0.178269
1373.5240,0.184474
1375.3877,0.191681
1377.2513,0.195767
1379.1150,0.201179
1380.9787,0.208526
1382.8423,0.216040
1384.7060,0.224280
1386.5697,0.235440
1388.4333,0.247562
1390.2970,0.252860
1392.1607,0.254880
1394.0244,0.255022
1395.8880,0.247830
1397.7517,0.235746
1399.6154,0.222529
1401.4790,0.209806
1403.3427,0.198779
1405.2064,0.182353
1407.0700,0.160124
1408.9337,0.138568
1410.7974,0.118783
1412.6610,0.104706
1414.5247,0.098206
1416.3884,0.098155
1418.2520,0.105324
1420.1157,0.117115
1421.9794,0.121725
1423.8431,0.118904
1425.7067,0.107539
1427.5704,0.095310
1429.4341,0.087745
1431.2977,0.084305
1433.1614,0.083652
1435.0251,0.085590
1436.8887,0.090824
1438.7524,0.093485
1440.6161,0.093903
1442.4797,0.095603
1444.3434,0.097163
1446.2071,0.098547
1448.0707,0.099475
1449.9344,0.097430
1451.7981,0.093423
1453.6618,0.089511
1455.5254,0.088872
1457.3891,0.095044
1459.2528,0.097234
1461.1164,0.094917
1462.9801,0.094727
1464.8438,0.096013
1466.7074,0.094776
1468.5711,0.091526
1470.4348,0.089918
1472.2984,0.091385
1474.1621,0.092706
1476.0258,0.091664
1477.8895,0.090997
1479.7531,0.090626
1481.6168,0.091163
1483.4805,0.091171
1485.3441,0.091028
1487.2078,0.092461
1489.0715,0.095847
1490.9351,0.098221
1492.7988,0.096808
1494.6625,0.096362
1496.5261,0.099882
1498.3898,0.103312
1500.2535,0.103275
1502.1171,0.101837
1503.9808,0.101149
1505.8445,0.105483
1507.7082,0.116660
1509.5718,0.114377
1511.4355,0.112484
1513.2992,0.112843
1515.1628,0.114075
1517.0265,0.116799
1518.8902,0.118362
1520.7538,0.120931
1522.6175,0.125504
1524.4812,0.125266
1526.3448,0.126962
1528.2085,0.128283
1530.0722,0.127630
1531.9359,0.129197
1533.7995,0.133566
1535.6632,0.133373
1537.5269,0.132312
1539.3905,0.138383
1541.2542,0.149111
1543.1179,0.149380
1544.9815,0.150650
1546.8452,0.151205
1548.7089,0.152550
1550.5725,0.156230
1552.4362,0.158325
1554.2999,0.159876
1556.1635,0.162807
1558.0272,0.171692
1559.8909,0.190766
1561.7546,0.183375
1563.6182,0.180735
1565.4819,0.183654
1567.3456,0.187382
1569.2092,0.193463
1571.0729,0.199101
1572.9366,0.199328
1574.8002,0.204027
1576.6639,0.214717
1578.5276,0.218180
1580.3912,0.218595
1582.2549,0.222093
1584.1186,0.225352
1585.9822,0.227697
1587.8459,0.229009
1589.7096,0.229600
1591.5733,0.229313
1593.4369,0.228475
1595.3006,0.226780
1597.1643,0.224182
1599.0279,0.220977
1600.8916,0.217853
1602.7553,0.214744
1604.6189,0.211644
1606.4826,0.208918
1608.3463,0.206572
1610.2099,0.203561
1612.0736,0.198937
1613.9373,0.193923
1615.8010,0.189397
1617.6646,0.180339
1619.5283,0.170004
1621.3920,0.163275
1623.2556,0.155175
1625.1193,0.144883
1626.9830,0.135617
1628.8466,0.124516
1630.7103,0.113042
1632.5740,0.104002
1634.4376,0.095670
1636.3013,0.085767
1638.1650,0.079090
1640.0286,0.077469
1641.8923,0.076270
1643.7560,0.076418
1645.6197,0.078921
1647.4833,0.083363
1649.3470,0.084431
1651.2107,0.086371
1653.0743,0.094753
1654.9380,0.101178
1656.8017,0.098751
1658.6653,0.099026
1660.5290,0.099746
1662.3927,0.099912
1664.2563,0.098140
1666.1200,0.095807
1667.9837,0.094460
1669.8474,0.093474
1671.7110,0.091937
1673.5747,0.092524
1675.4384,0.095850
1677.3020,0.099066
1679.1657,0.101430
1681.0294,0.106309
1682.8930,0.112578
1684.7567,0.121337
1686.6204,0.122389
1688.4840,0.120428
1690.3477,0.118391
1692.2114,0.114706
1694.0750,0.111162
1695.9387,0.107610
1697.8024,0.102527
1699.6661,0.098705
1701.5297,0.089717
1703.3934,0.081541
1705.2571,0.072866
1707.1207,0.061368
1708.9844,0.053392
1710.8481,0.047557
1712.7117,0.042718
1714.5754,0.039761
1716.4391,0.037571
1718.3027,0.036069
1720.1664,0.034258
1722.0301,0.033021
1723.8937,0.031126
1725.7574,0.028621
1727.6211,0.026178
1729.4848,0.024134
1731.3484,0.022268
1733.2121,0.021393
1735.0758,0.020122
1736.9394,0.019116
1738.8031,0.018765
1740.6668,0.018533
1742.5304,0.018040
1744.3941,0.017723
1746.2578,0.017205
1748.1214,0.016904
1749.9851,0.016388
1751.8488,0.016123
1753.7125,0.015892
1755.5761,0.015895
1757.4398,0.015798
1759.3035,0.015859
1761.1671,0.015930
1763.0308,0.015986
1764.8945,0.015640
1766.7581,0.015601
1768.6218,0.015566
1770.4855,0.015424
1772.3491,0.015369
1774.2128,0.015480
1776.0765,0.015142
1777.9401,0.015243
1779.8038,0.015542
1781.6675,0.015722
1783.5312,0.015422
1785.3948,0.015434
1787.2585,0.015388
1789.1222,0.015455
1790.9858,0.015482
1792.8495,0.015517
1794.7132,0.015313
1796.5768,0.015413
1798.4405,0.015548
1800.3042,0.015687
1802.1678,0.015570
1804.0315,0.015746
1805.8952,0.015892
1807.7589,0.015988
1809.6225,0.016062
1811.4862,0.016085
1813.3499,0.015809
1815.2135,0.015813
1817.0772,0.015743
1818.9409,0.015758
1820.8045,0.015693
1822.6682,0.015806
1824.5319,0.015814
1826.3955,0.015779
1828.2592,0.015472
1830.1229,0.015594
1831.9865,0.015430
1833.8502,0.015403
1835.7139,0.015326
1837.5776,0.015271
1839.4412,0.015060
1841.3049,0.015270
1843.1686,0.015598
1845.0322,0.015750
1846.8959,0.015585
1848.7596,0.015699
1850.6232,0.015612
1852.4869,0.015616
1854.3506,0.015535
1856.2142,0.015798
1858.0779,0.015829
1859.9416,0.015839
1861.8052,0.015890
1863.6689,0.015934
1865.5326,0.015795
1867.3963,0.015838
1869.2599,0.015610
1871.1236,0.015673
1872.9873,0.015728
1874.8509,0.015713
1876.7146,0.015480
1878.5783,0.015741
1880.4419,0.015970
1882.3056,0.016170
1884.1693,0.015881
1886.0329,0.015939
1887.8966,0.015865
1889.7603,0.015600
1891.6240,0.015323
1893.4876,0.015783
1895.3513,0.016190
1897.2150,0.016105
1899.0786,0.015825
1900.9423,0.015939
1902.8060,0.015945
1904.6696,0.015853
1906.5333,0.015705
1908.3970,0.016181
1910.2606,0.016150
1912.1243,0.015596
1913.9880,0.015201
1915.8516,0.015742
1917.7153,0.015590
1919.5790,0.015221
1921.4427,0.015049
1923.3063,0.015509
1925.1700,0.015463
1927.0337,0.015766
1928.8973,0.015403
1930.7610,0.015054
1932.6247,0.015327
1934.4883,0.015976
1936.3520,0.015601
1938.2157,0.015267
1940.0793,0.014835
1941.9430,0.015037
1943.8067,0.014493
1945.6704,0.013955
1947.5340,0.013285
1949.3977,0.013219
1951.2614,0.013567
1953.1250,0.013880
1954.9887,0.013457
1956.8524,0.012777
1958.7160,0.011378
1960.5797,0.011307
1962.4434,0.010943
1964.3070,0.009725
1966.1707,0.008609
1968.0344,0.007429
1969.8980,0.006690
1971.7617,0.007224
1973.6254,0.006945
1975.4891,0.007359
1977.3527,0.006940
1979.2164,0.008016
1981.0801,0.008783
1982.9437,0.009544
1984.8074,0.010250
1986.6711,0.010736
1988.5347,0.010268
1990.3984,0.011544
1992.2621,0.012149
1994.1257,0.012030
1995.9894,0.011481
1997.8531,0.011280
1999.7167,0.010831
2001.5804,0.010230
2003.4441,0.010353
2005.3078,0.011685
2007.1714,0.010364
2009.0351,0.009998
2010.8988,0.010097
2012.7624,0.009144
2014.6261,0.007684
2016.4898,0.007772
2018.3534,0.007896
2020.2171,0.008743
2022.0808,0.008148
2023.9444,0.007736
2025.8081,0.007724
2027.6718,0.007603
2029.5355,0.006720
2031.3991,0.008421
2033.2628,0.009411
2035.1265,0.009912
2036.9901,0.009732
2038.8538,0.011067
2040.7175,0.010718
2042.5811,0.011298
2044.4448,0.012320
2046.3085,0.012463
2048.1721,0.012381
2050.0358,0.014187
2051.8995,0.015225
2053.7631,0.014968
2055.6268,0.015419
2057.4905,0.016015
2059.3542,0.015280
2061.2178,0.015599
2063.0815,0.016714
2064.9452,0.017101
2066.8088,0.017056
2068.6725,0.017235
2070.5362,0.017520
2072.3998,0.017506
2074.2635,0.017036
2076.1272,0.018201
2077.9908,0.019050
2079.8545,0.019333
2081.7182,0.019136
2083.5819,0.019370
2085.4455,0.018978
2087.3092,0.018483
2089.1729,0.019256
2091.0365,0.019653
2092.9002,0.019217
2094.7639,0.019705
2096.6275,0.019831
2098.4912,0.019452
2100.3549,0.019170
2102.2185,0.019743
2104.0822,0.019833
2105.9459,0.020068
2107.8095,0.020469
2109.6732,0.020512
2111.5369,0.020432
2113.4006,0.020289
2115.2642,0.020449
2117.1279,0.020851
2118.9916,0.020734
2120.8552,0.020723
2122.7189,0.020836
2124.5826,0.021043
2126.4462,0.020572
2128.3099,0.019527
2130.1736,0.018639
2132.0372,0.018811
2133.9009,0.018615
2135.7646,0.018298
2137.6282,0.017659
2139.4919,0.017470
2141.3556,0.017539
2143.2193,0.017045
2145.0829,0.016459
2146.9466,0.015975
2148.8103,0.014752
2150.6739,0.014213
2152.5376,0.012976
2154.4013,0.011830
2156.2649,0.010956
2158.1286,0.010168
2159.9923,0.008345
2161.8559,0.009830
2163.7196,0.011514
2165.5833,0.013317
2167.4470,0.012952
2169.3106,0.011490
2171.1743,0.011638
2173.0380,0.013585
2174.9016,0.013946
2176.7653,0.014450
2178.6290,0.014270
2180.4926,0.014756
2182.3563,0.014775
2184.2200,0.015709
2186.0836,0.016316
2187.9473,0.016300
2189.8110,0.015810
2191.6746,0.016019
2193.5383,0.015377
2195.4020,0.015667
2197.2657,0.017066
2199.1293,0.018488
2200.9930,0.018087
2202.8567,0.017697
2204.7203,0.017539
2206.5840,0.018298
2208.4477,0.019535
2210.3113,0.019426
2212.1750,0.018789
2214.0387,0.019432
2215.9023,0.019935
2217.7660,0.020336
2219.6297,0.020007
2221.4934,0.020101
2223.3570,0.020346
2225.2207,0.021007
2227.0844,0.021964
2228.9480,0.022307
2230.8117,0.021575
2232.6754,0.021474
2234.5390,0.021531
2236.4027,0.022069
2238.2664,0.022092
2240.1300,0.022780
2241.9937,0.023635
2243.8574,0.023613
2245.7210,0.023646
2247.5847,0.024158
2249.4484,0.023831
2251.3121,0.023616
2253.1757,0.023883
2255.0394,0.024285
2256.9031,0.024599
2258.7667,0.024752
2260.6304,0.025559
2262.4941,0.025818
2264.3577,0.025334
2266.2214,0.025297
2268.0851,0.025338
2269.9487,0.026334
2271.8124,0.027072
2273.6761,0.027382
2275.5397,0.027918
2277.4034,0.028568
2279.2671,0.028682
2281.1308,0.028919
2282.9944,0.028971
2284.8581,0.029255
2286.7218,0.029725
2288.5854,0.029625
2290.4491,0.029703
2292.3128,0.029778
2294.1764,0.029712
2296.0401,0.029821
2297.9038,0.029927
2299.7674,0.030133
2301.6311,0.030343
2303.4948,0.030459
2305.3585,0.030636
2307.2221,0.030426
2309.0858,0.030241
2310.9495,0.030127
2312.8131,0.030019
2314.6768,0.030131
2316.5405,0.030335
2318.4041,0.030695
2320.2678,0.030624
2322.1315,0.030540
2323.9951,0.030640
2325.8588,0.030323
2327.7225,0.029492
2329.5861,0.029118
2331.4498,0.029053
2333.3135,0.028812
2335.1772,0.028909
2337.0408,0.029357
2338.9045,0.029745
2340.7682,0.029822
2342.6318,0.029850
2344.4955,0.030174
2346.3592,0.030143
2348.2228,0.029425
2350.0865,0.028902
2351.9502,0.028732
2353.8138,0.028653
2355.6775,0.028868
2357.5412,0.028968
2359.4049,0.029296
2361.2685,0.029649
2363.1322,0.029597
2364.9959,0.029377
2366.8595,0.029677
2368.7232,0.029845
2370.5869,0.030241
2372.4505,0.030517
2374.3142,0.030412
2376.1779,0.030413
2378.0415,0.030478
2379.9052,0.030648
2381.7689,0.030974
2383.6325,0.030788
2385.4962,0.030445
2387.3599,0.030364
2389.2236,0.030495
2391.0872,0.030588
2392.9509,0.030743
2394.8146,0.030782
2396.6782,0.030835
2398.5419,0.031019
2400.4056,0.031288
2402.2692,0.031303
2404.1329,0.031131
2405.9966,0.031248
2407.8602,0.031303
2409.7239,0.031080
2411.5876,0.031262
2413.4512,0.031553
2415.3149,0.031647
2417.1786,0.031626
2419.0423,0.031803
2420.9059,0.031898
2422.7696,0.031995
2424.6333,0.032123
2426.4969,0.032317
2428.3606,0.032618
2430.2243,0.032529
2432.0879,0.032329
2433.9516,0.032462
2435.8153,0.032499
2437.6789,0.032398
2439.5426,0.032437
2441.4063,0.032713
2443.2700,0.032467
2445.1336,0.032393
2446.9973,0.032538
2448.8610,0.032665
2450.7246,0.032933
2452.5883,0.032848
2454.4520,0.032798
2456.3156,0.032613
2458.1793,0.032204
2460.0430,0.032287
2461.9066,0.032486
2463.7703,0.032309
2465.6340,0.032285
2467.4976,0.032333
2469.3613,0.032423
2471.2250,0.032410
2473.0887,0.032348
2474.9523,0.032627
2476.8160,0.032779
2478.6797,0.032259
2480.5433,0.032109
2482.4070,0.032409
2484.2707,0.032951
2486.1343,0.033275
2487.9980,0.033224
2489.8617,0.033294
2491.7253,0.033699
2493.5890,0.033773
2495.4527,0.033723
2497.3164,0.034050
2499.1800,0.034185
2501.0437,0.033913
2502.9074,0.034188
2504.7710,0.034438
2506.6347,0.034452
2508.4984,0.034854
2510.3620,0.034725
2512.2257,0.034508
2514.0894,0.034287
2515.9530,0.034275
2517.8167,0.034502
2519.6804,0.034967
2521.5440,0.035345
2523.4077,0.035478
2525.2714,0.035421
2527.1351,0.035872
2528.9987,0.036433
2530.8624,0.035826
2532.7261,0.035549
2534.5897,0.035828
2536.4534,0.035772
2538.3171,0.035845
2540.1807,0.035944
2542.0444,0.035889
2543.9081,0.035507
2545.7717,0.035636
2547.6354,0.036030
2549.4991,0.036134
2551.3627,0.036095
2553.2264,0.035685
2555.0901,0.035731
2556.9538,0.036112
2558.8174,0.036416
2560.6811,0.036613
2562.5448,0.036476
2564.4084,0.036835
2566.2721,0.036927
2568.1358,0.036927
2569.9994,0.037547
2571.8631,0.037493
2573.7268,0.037372
2575.5904,0.037809
2577.4541,0.038322
2579.3178,0.038479
2581.1815,0.038441
2583.0451,0.038766
2584.9088,0.038902
2586.7725,0.038745
2588.6361,0.038893
2590.4998,0.039205
2592.3635,0.039873
2594.2271,0.040336
2596.0908,0.040320
2597.9545,0.040415
2599.8181,0.040751
2601.6818,0.040874
2603.5455,0.040866
2605.4091,0.040918
2607.2728,0.041096
2609.1365,0.041244
2611.0002,0.041332
2612.8638,0.041394
2614.7275,0.041558
2616.5912,0.042066
2618.4548,0.042035
2620.3185,0.041859
2622.1822,0.042349
2624.0458,0.042857
2625.9095,0.043411
2627.7732,0.043880
2629.6368,0.044205
2631.5005,0.044530
2633.3642,0.044975
2635.2279,0.045472
2637.0915,0.045631
2638.9552,0.045747
2640.8189,0.046068
2642.6825,0.046246
2644.5462,0.046335
2646.4099,0.046549
2648.2735,0.046941
2650.1372,0.047214
2652.0009,0.047416
2653.8645,0.047520
2655.7282,0.047679
2657.5919,0.047782
2659.4555,0.048002
2661.3192,0.048069
2663.1829,0.047937
2665.0466,0.048033
2666.9102,0.048390
2668.7739,0.048700
2670.6376,0.048737
2672.5012,0.048851
2674.3649,0.049233
2676.2286,0.049526
2678.0922,0.049729
2679.9559,0.050048
2681.8196,0.050546
2683.6832,0.050888
2685.5469,0.051118
2687.4106,0.051322
2689.2742,0.051452
2691.1379,0.051616
2693.0016,0.051941
2694.8653,0.052272
2696.7289,0.052704
2698.5926,0.053305
2700.4563,0.053877
2702.3199,0.054217
2704.1836,0.054453
2706.0473,0.054746
2707.9109,0.055201
2709.7746,0.055819
2711.6383,0.056343
2713.5019,0.056601
2715.3656,0.057041
2717.2293,0.057439
2719.0930,0.057907
2720.9566,0.058400
2722.8203,0.058992
2724.6840,0.059430
2726.5476,0.060033
2728.4113,0.060703
2730.2750,0.061051
2732.1386,0.061408
2734.0023,0.062156
2735.8660,0.062789
2737.7296,0.063507
2739.5933,0.064477
2741.4570,0.065043
2743.3206,0.065445
2745.1843,0.066175
2747.0480,0.066933
2748.9117,0.067760
2750.7753,0.068552
2752.6390,0.069437
2754.5027,0.070093
2756.3663,0.070577
2758.2300,0.071197
2760.0937,0.071975
2761.9573,0.072649
2763.8210,0.073397
2765.6847,0.074355
2767.5483,0.075363
2769.4120,0.075993
2771.2757,0.076765
2773.1394,0.077825
2775.0030,0.078973
2776.8667,0.079754
2778.7304,0.080317
2780.5940,0.080767
2782.4577,0.080961
2784.3214,0.081074
2786.1850,0.080977
2788.0487,0.080632
2789.9124,0.080520
2791.7760,0.080142
2793.6397,0.079264
2795.5034,0.078087
2797.3670,0.077523
2799.2307,0.077355
2801.0944,0.076688
2802.9581,0.075661
2804.8217,0.075370
2806.6854,0.074975
2808.5491,0.074277
2810.4127,0.073802
2812.2764,0.073735
2814.1401,0.073578
2816.0037,0.073520
2817.8674,0.073710
2819.7311,0.074034
2821.5947,0.074514
2823.4584,0.074755
2825.3221,0.074467
2827.1857,0.074107
2829.0494,0.073873
2830.9131,0.073403
2832.7768,0.072991
2834.6404,0.073064
2836.5041,0.073187
2838.3678,0.073589
2840.2314,0.074197
2842.0951,0.074815
2843.9588,0.075031
2845.8224,0.075467
2847.6861,0.076269
2849.5498,0.077216
2851.4134,0.077985
2853.2771,0.078967
2855.1408,0.080126
2857.0045,0.081040
2858.8681,0.081554
2860.7318,0.082453
2862.5955,0.083299
2864.4591,0.083807
2866.3228,0.084230
2868.1865,0.084765
2870.0501,0.085199
2871.9138,0.085718
2873.7775,0.086316
2875.6411,0.087092
2877.5048,0.087449
2879.3685,0.087925
2881.2321,0.088662
2883.0958,0.089529
2884.9595,0.090018
2886.8232,0.090812
2888.6868,0.091642
2890.5505,0.092046
2892.4142,0.092869
2894.2778,0.093808
2896.1415,0.094221
2898.0052,0.094497
2899.8688,0.094876
2901.7325,0.095006
2903.5962,0.094914
2905.4598,0.095054
2907.3235,0.095274
2909.1872,0.095994
2911.0509,0.096688
2912.9145,0.097332
2914.7782,0.097909
2916.6419,0.099024
2918.5055,0.100096
2920.3692,0.101040
2922.2329,0.102062
2924.0965,0.102875
2925.9602,0.103596
2927.8239,0.104066
2929.6875,0.104447
2931.5512,0.105200
2933.4149,0.105841
2935.2785,0.106411
2937.1422,0.106753
2939.0059,0.107176
2940.8696,0.107603
2942.7332,0.107746
2944.5969,0.107809
2946.4606,0.108465
2948.3242,0.108823
2950.1879,0.108855
2952.0516,0.109171
2953.9152,0.109526
2955.7789,0.109754
2957.6426,0.110281
2959.5062,0.110818
2961.3699,0.111591
2963.2336,0.112633
2965.0972,0.114008
2966.9609,0.114994
2968.8246,0.115978
2970.6883,0.117104
2972.5519,0.118110
2974.4156,0.118694
2976.2793,0.119634
2978.1429,0.120525
2980.0066,0.121045
2981.8703,0.121345
2983.7339,0.121536
2985.5976,0.121518
2987.4613,0.121918
2989.3249,0.123075
2991.1886,0.124346
2993.0523,0.125747
2994.9160,0.126847
2996.7796,0.127276
2998.6433,0.128259
3000.5070,0.129490
3002.3706,0.130621
3004.2343,0.131689
3006.0980,0.132769
3007.9616,0.133850
3009.8253,0.135003
3011.6890,0.135985
3013.5526,0.137039
3015.4163,0.137979
3017.2800,0.139139
3019.1436,0.139622
3021.0073,0.140113
3022.8710,0.140749
3024.7347,0.141148
3026.5983,0.141014
3028.4620,0.141615
3030.3257,0.142642
3032.1893,0.143435
3034.0530,0.143687
3035.9167,0.144289
3037.7803,0.144660
3039.6440,0.145114
3041.5077,0.145461
3043.3713,0.145731
3045.2350,0.146075
3047.0987,0.146957
3048.9624,0.147580
3050.8260,0.148462
3052.6897,0.148796
3054.5534,0.148947
3056.4170,0.149080
3058.2807,0.149210
3060.1444,0.149448
3062.0080,0.149926
3063.8717,0.150200
3065.7354,0.150670
3067.5990,0.150621
3069.4627,0.150679
3071.3264,0.150322
3073.1900,0.149774
3075.0537,0.149318
3076.9174,0.149382
3078.7811,0.149537
3080.6447,0.149594
3082.5084,0.149100
3084.3721,0.148757
3086.2357,0.147856
3088.0994,0.147241
3089.9631,0.146534
3091.8267,0.145768
3093.6904,0.144958
3095.5541,0.143989
3097.4177,0.142507
3099.2814,0.141252
3101.1451,0.140612
3103.0087,0.139868
3104.8724,0.138498
3106.7361,0.137074
3108.5998,0.135773
3110.4634,0.135096
3112.3271,0.134229
3114.1908,0.133066
3116.0544,0.131815
3117.9181,0.131102
3119.7818,0.130128
3121.6454,0.129055
3123.5091,0.128002
3125.3728,0.126918
3127.2364,0.126074
3129.1001,0.125129
3130.9638,0.124156
3132.8275,0.123576
3134.6911,0.122390
3136.5548,0.121394
3138.4185,0.120616
3140.2821,0.120524
3142.1458,0.120507
3144.0095,0.119880
3145.8731,0.118837
3147.7368,0.117962
3149.6005,0.117317
3151.4641,0.117001
3153.3278,0.116826
3155.1915,0.116805
3157.0551,0.115935
3158.9188,0.114999
3160.7825,0.114352
3162.6462,0.113572
3164.5098,0.112940
3166.3735,0.112899
3168.2372,0.112384
3170.1008,0.111631
3171.9645,0.110420
3173.8282,0.110185
3175.6918,0.110044
3177.5555,0.109596
3179.4192,0.109216
3181.2828,0.109148
3183.1465,0.108781
3185.0102,0.108590
3186.8739,0.108207
3188.7375,0.107946
3190.6012,0.107818
3192.4649,0.108134
3194.3285,0.108176
3196.1922,0.107972
3198.0559,0.108135
3199.9195,0.108708
3201.7832,0.108524
3203.6469,0.108592
3205.5105,0.109192
3207.3742,0.109607
3209.2379,0.109299
3211.1015,0.108995
3212.9652,0.109230
3214.8289,0.110105
3216.6926,0.110511
3218.5562,0.110294
3220.4199,0.110604
3222.2836,0.110715
3224.1472,0.110503
3226.0109,0.111463
3227.8746,0.112004
3229.7382,0.111766
3231.6019,0.111801
3233.4656,0.112170
3235.3292,0.112605
3237.1929,0.113695
3239.0566,0.114186
3240.9202,0.113525
3242.7839,0.113318
3244.6476,0.113976
3246.5113,0.114170
3248.3749,0.115354
3250.2386,0.116586
3252.1023,0.116417
3253.9659,0.115921
3255.8296,0.116754
3257.6933,0.118549
3259.5569,0.119333
3261.4206,0.118788
3263.2843,0.118665
3265.1479,0.118964
3267.0116,0.119288
3268.8753,0.119356
3270.7390,0.119815
3272.6026,0.120088
3274.4663,0.119998
3276.3300,0.119220
3278.1936,0.119066
3280.0573,0.118822
3281.9210,0.118005
3283.7846,0.117478
3285.6483,0.117229
3287.5120,0.116452
3289.3756,0.115872
3291.2393,0.115101
3293.1030,0.114285
3294.9666,0.112708
3296.8303,0.110834
3298.6940,0.109527
3300.5577,0.109040
3302.4213,0.109044
3304.2850,0.108359
3306.1487,0.106559
3308.0123,0.105261
3309.8760,0.104861
3311.7397,0.105230
3313.6033,0.105020
3315.4670,0.104387
3317.3307,0.104271
3319.1943,0.104452
3321.0580,0.104737
3322.9217,0.105155
3324.7854,0.105715
3326.6490,0.106182
3328.5127,0.106845
3330.3764,0.106965
3332.2400,0.105661
3334.1037,0.104496
3335.9674,0.104241
3337.8310,0.104023
3339.6947,0.103065
3341.5584,0.101859
3343.4220,0.099910
3345.2857,0.098103
3347.1494,0.096161
3349.0130,0.094702
3350.8767,0.094086
3352.7404,0.093070
3354.6041,0.091169
3356.4677,0.089464
3358.3314,0.087191
3360.1951,0.085370
3362.0587,0.085211
3363.9224,0.084775
3365.7861,0.083572
3367.6497,0.082473
3369.5134,0.081953
3371.3771,0.082172
3373.2407,0.082407
3375.1044,0.082262
3376.9681,0.081387
3378.8317,0.081220
3380.6954,0.082176
3382.5591,0.083079
3384.4228,0.083235
3386.2864,0.082983
3388.1501,0.083064
3390.0138,0.084031
3391.8774,0.085270
3393.7411,0.086378
3395.6048,0.086689
3397.4684,0.086714
3399.3321,0.085483
3401.1958,0.084414
3403.0594,0.084011
3404.9231,0.083383
3406.7868,0.081647
3408.6505,0.079232
3410.5141,0.076950
3412.3778,0.074781
3414.2415,0.072696
3416.1051,0.071564
3417.9688,0.069507
3419.8325,0.066831
3421.6961,0.064391
3423.5598,0.062120
3425.4235,0.060405
3427.2871,0.059011
3429.1508,0.057133
3431.0145,0.056121
3432.8781,0.054750
3434.7418,0.052713
3436.6055,0.051671
3438.4692,0.051410
3440.3328,0.050487
3442.1965,0.049596
3444.0602,0.048238
3445.9238,0.046227
3447.7875,0.045434
3449.6512,0.045478
3451.5148,0.044794
3453.3785,0.044058
3455.2422,0.043113
3457.1058,0.042179
3458.9695,0.041700
3460.8332,0.042070
3462.6969,0.041384
3464.5605,0.039944
3466.4242,0.039667
3468.2879,0.039298
3470.1515,0.037645
3472.0152,0.036233
3473.8789,0.036127
3475.7425,0.036464
3477.6062,0.035779
3479.4699,0.035031
3481.3335,0.035149
3483.1972,0.034624
3485.0609,0.033672
3486.9245,0.032515
3488.7882,0.030585
3490.6519,0.029578
3492.5156,0.029549
3494.3792,0.029627
3496.2429,0.029542
3498.1066,0.029348
3499.9702,0.028486
3501.8339,0.026504
3503.6976,0.025450
3505.5612,0.026489
3507.4249,0.026868
3509.2886,0.025042
3511.1522,0.024137
3513.0159,0.024854
3514.8796,0.024238
3516.7432,0.022836
3518.6069,0.022358
3520.4706,0.021811
3522.3343,0.020899
3524.1979,0.020891
3526.0616,0.021465
3527.9253,0.020329
3529.7889,0.018820
3531.6526,0.018294
3533.5163,0.018615
3535.3799,0.019919
3537.2436,0.020476
3539.1073,0.019463
3540.9709,0.018480
3542.8346,0.017972
3544.6983,0.016497
3546.5620,0.015383
3548.4256,0.015866
3550.2893,0.016301
3552.1530,0.016195
3554.0166,0.016396
3555.8803,0.016712
3557.7440,0.016352
3559.6076,0.014912
3561.4713,0.014398
3563.3350,0.015102
3565.1986,0.014174
3567.0623,0.011680
3568.9260,0.010809
3570.7896,0.012057
3572.6533,0.013191
3574.5170,0.013596
3576.3807,0.013013
3578.2443,0.012834
3580.1080,0.013197
3581.9717,0.013074
3583.8353,0.012707
3585.6990,0.012584
3587.5627,0.012153
3589.4263,0.011410
3591.2900,0.011686
3593.1537,0.012008
3595.0173,0.011398
3596.8810,0.011229
3598.7447,0.011918
3600.6084,0.011113
3602.4720,0.010444
3604.3357,0.011375
3606.1994,0.012048
3608.0630,0.012093
3609.9267,0.011224
3611.7904,0.010783
3613.6540,0.010541
3615.5177,0.009739
3617.3814,0.009992
3619.2450,0.010074
3621.1087,0.009906
3622.9724,0.011452
3624.8360,0.012621
3626.6997,0.012349
3628.5634,0.010829
3630.4271,0.008745
3632.2907,0.009695
3634.1544,0.011344
3636.0181,0.011486
3637.8817,0.011538
3639.7454,0.011775
3641.6091,0.011782
3643.4727,0.011900
3645.3364,0.011766
3647.2001,0.011287
3649.0637,0.009792
3650.9274,0.008439
3652.7911,0.009942
3654.6547,0.010888
3656.5184,0.010766
3658.3821,0.010871
3660.2458,0.011223
3662.1094,0.011618
3663.9731,0.011943
3665.8368,0.012115
3667.7004,0.011937
3669.5641,0.011087
3671.4278,0.010618
3673.2914,0.010701
3675.1551,0.010764
3677.0188,0.010588
3678.8824,0.010418
3680.7461,0.011075
3682.6098,0.011130
3684.4735,0.010842
3686.3371,0.011463
3688.2008,0.011666
3690.0645,0.010770
3691.9281,0.010788
3693.7918,0.011475
3695.6555,0.011997
3697.5191,0.012221
3699.3828,0.012220
3701.2465,0.012555
3703.1101,0.012293
3704.9738,0.011735
3706.8375,0.011911
3708.7011,0.012252
3710.5648,0.012141
3712.4285,0.010664
3714.2922,0.010425
3716.1558,0.012095
3718.0195,0.013102
3719.8832,0.013257
3721.7468,0.012846
3723.6105,0.012281
3725.4742,0.011835
3727.3378,0.011585
3729.2015,0.011977
3731.0652,0.012599
3732.9288,0.012152
3734.7925,0.010574
3736.6562,0.010220
3738.5199,0.010765
3740.3835,0.011079
3742.2472,0.011647
3744.1109,0.011462
3745.9745,0.010124
3747.8382,0.010425
3749.7019,0.011375
3751.5655,0.011454
3753.4292,0.011612
3755.2929,0.012201
3757.1565,0.012918
3759.0202,0.013791
3760.8839,0.014520
3762.7475,0.014406
3764.6112,0.014009
3766.4749,0.013997
3768.3386,0.014149
3770.2022,0.014185
3772.0659,0.013672
3773.9296,0.013656
3775.7932,0.014407
3777.6569,0.014202
3779.5206,0.014100
3781.3842,0.014951
3783.2479,0.014918
3785.1116,0.014864
3786.9752,0.015180
3788.8389,0.014935
3790.7026,0.015071
3792.5662,0.015243
3794.4299,0.014702
3796.2936,0.014346
3798.1573,0.014023
3800.0209,0.013948
3801.8846,0.013864
3803.7483,0.012539
3805.6119,0.012639
3807.4756,0.014344
3809.3393,0.015123
3811.2029,0.014587
3813.0666,0.014550
3814.9303,0.014703
3816.7939,0.014013
3818.6576,0.013703
3820.5213,0.014224
3822.3850,0.014251
3824.2486,0.014461
3826.1123,0.014878
3827.9760,0.014985
3829.8396,0.014811
3831.7033,0.014494
3833.5670,0.014299
3835.4306,0.014644
3837.2943,0.014791
3839.1580,0.013983
3841.0216,0.013970
3842.8853,0.014778
3844.7490,0.014757
3846.6126,0.014624
3848.4763,0.014427
3850.3400,0.014154
3852.2037,0.014343
3854.0673,0.014462
3855.9310,0.014076
3857.7947,0.014160
3859.6583,0.014658
3861.5220,0.015130
3863.3857,0.015215
3865.2493,0.015161
3867.1130,0.015010
3868.9767,0.014829
3870.8403,0.015226
3872.7040,0.015773
3874.5677,0.015797
3876.4314,0.015962
3878.2950,0.015876
3880.1587,0.015839
3882.0224,0.016329
3883.8860,0.016706
3885.7497,0.016123
3887.6134,0.015662
3889.4770,0.015842
3891.3407,0.015537
3893.2044,0.015301
3895.0680,0.015609
3896.9317,0.015660
3898.7954,0.015906
3900.6590,0.016330
3902.5227,0.016524
3904.3864,0.016980
3906.2501,0.017421
3908.1137,0.017557
3909.9774,0.017394
3911.8411,0.017011
3913.7047,0.016960
3915.5684,0.016714
3917.4321,0.016222
3919.2957,0.016541
3921.1594,0.016947
3923.0231,0.017144
3924.8867,0.017195
3926.7504,0.016846
3928.6141,0.016670
3930.4777,0.017073
3932.3414,0.017644
3934.2051,0.017076
3936.0688,0.016749
3937.9324,0.017614
3939.7961,0.018141
3941.6598,0.017839
3943.5234,0.017409
3945.3871,0.017165
3947.2508,0.017133
3949.1144,0.017062
3950.9781,0.017415
3952.8418,0.017736
3954.7054,0.017334
3956.5691,0.017271
3958.4328,0.017729
3960.2965,0.018003
3962.1601,0.017991
3964.0238,0.017824
3965.8875,0.017879
3967.7511,0.018149
3969.6148,0.018296
3971.4785,0.018115
3973.3421,0.018133
3975.2058,0.018504
3977.0695,0.018457
3978.9331,0.017901
3980.7968,0.017684
3982.6605,0.017846
3984.5241,0.018232
3986.3878,0.018258
3988.2515,0.018103
3990.1152,0.018185
3991.9788,0.018765
3993.8425,0.019225
3995.7062,0.018982
3997.5698,0.018545
3999.4335,0.018281
