Wavenumber,Intensity
650.4205,0.181355
652.2841,0.176192
654.1478,0.174429
656.0115,0.172225
657.8751,0.169832
659.7388,0.167494
661.6025,0.165870
663.4661,0.165071
665.3298,0.164410
667.1935,0.162310
669.0571,0.161255
670.9208,0.160683
672.7845,0.160695
674.6481,0.160530
676.5118,0.161552
678.3755,0.161073
680.2392,0.160699
682.1028,0.161448
683.9665,0.162671
685.8302,0.162572
687.6938,0.162039
689.5575,0.161385
691.4212,0.162264
693.2848,0.162798
695.1485,0.162796
697.0122,0.163431
698.8758,0.165395
700.7395,0.166281
702.6032,0.165402
704.4669,0.162937
706.3305,0.159344
708.1942,0.154417
710.0579,0.148963
711.9215,0.142386
713.7852,0.135440
715.6489,0.129279
717.5125,0.124235
719.3762,0.119642
721.2399,0.115039
723.1035,0.110738
724.9672,0.106612
726.8309,0.102700
728.6945,0.099015
730.5582,0.095648
732.4219,0.092732
734.2856,0.089828
736.1492,0.087317
738.0129,0.086612
739.8766,0.087459
741.7402,0.088568
743.6039,0.090271
745.4676,0.092005
747.3312,0.092460
749.1949,0.092043
751.0586,0.092105
752.9222,0.091690
754.7859,0.090756
756.6496,0.090235
758.5132,0.089731
760.3769,0.089026
762.2406,0.087907
764.1043,0.086893
765.9679,0.086517
767.8316,0.086141
769.6953,0.085609
771.5589,0.085173
773.4226,0.084991
775.2863,0.084946
777.1499,0.084859
779.0136,0.085161
780.8773,0.085850
782.7409,0.086559
784.6046,0.087468
786.4683,0.088861
788.3320,0.090193
790.1956,0.091039
792.0593,0.092408
793.9230,0.094037
795.7866,0.095267
797.6503,0.096485
799.5140,0.097867
801.3776,0.098713
803.2413,0.098808
805.1050,0.098277
806.9686,0.097375
808.8323,0.095809
810.6960,0.093975
812.5596,0.091895
814.4233,0.089459
816.2870,0.087000
818.1507,0.084731
820.0143,0.082828
821.8780,0.081552
823.7417,0.080898
825.6053,0.081136
827.4690,0.082903
829.3327,0.084141
831.1963,0.080039
833.0600,0.070801
834.9237,0.063026
836.7873,0.059564
838.6510,0.058458
840.5147,0.058155
842.3784,0.058151
844.2420,0.057869
846.1057,0.057456
847.9694,0.057361
849.8330,0.057211
851.6967,0.056810
853.5604,0.056306
855.4240,0.055828
857.2877,0.055632
859.1514,0.055592
861.0150,0.055382
862.8787,0.055017
864.7424,0.054556
866.6060,0.054276
868.4697,0.054332
870.3334,0.054172
872.1971,0.053934
874.0607,0.053907
875.9244,0.053912
877.7881,0.054104
879.6517,0.054442
881.5154,0.054742
883.3791,0.055413
885.2427,0.056426
887.1064,0.057196
888.9701,0.057760
890.8337,0.058527
892.6974,0.059511
894.5611,0.060499
896.4247,0.061546
898.2884,0.062708
900.1521,0.064000
902.0158,0.065831
903.8794,0.068514
905.7431,0.072089
907.6068,0.076084
909.4704,0.080431
911.3341,0.085597
913.1978,0.091427
915.0614,0.094206
916.9251,0.088185
918.7888,0.075956
920.6524,0.066255
922.5161,0.062021
924.3798,0.060997
926.2435,0.061015
928.1071,0.061157
929.9708,0.061416
931.8345,0.061919
933.6981,0.062168
935.5618,0.062203
937.4255,0.062388
939.2891,0.062569
941.1528,0.062754
943.0165,0.063070
944.8801,0.063457
946.7438,0.064067
948.6075,0.064879
950.4711,0.065973
952.3348,0.067501
954.1985,0.069128
956.0622,0.070645
957.9258,0.072276
959.7895,0.074233
961.6532,0.076387
963.5168,0.078600
965.3805,0.081017
967.2442,0.083918
969.1078,0.087321
970.9715,0.090920
972.8352,0.095156
974.6988,0.101346
976.5625,0.110790
978.4262,0.125429
980.2899,0.144634
982.1535,0.152530
984.0172,0.132368
985.8809,0.104612
987.7445,0.091881
989.6082,0.089950
991.4719,0.090371
993.3355,0.091157
995.1992,0.091989
997.0629,0.092511
998.9265,0.092786
1000.7902,0.093165
1002.6539,0.093583
1004.5175,0.093967
1006.3812,0.094502
1008.2449,0.095193
1010.1086,0.096007
1011.9722,0.096793
1013.8359,0.097317
1015.6996,0.097816
1017.5632,0.098415
1019.4269,0.098825
1021.2906,0.099045
1023.1542,0.099193
1025.0179,0.099275
1026.8816,0.099234
1028.7452,0.099220
1030.6089,0.099426
1032.4726,0.099847
1034.3362,0.100527
1036.1999,0.101482
1038.0636,0.102736
1039.9273,0.104231
1041.7909,0.105963
1043.6546,0.108085
1045.5183,0.110419
1047.3819,0.112068
1049.2456,0.111306
1051.1093,0.106599
1052.9729,0.098877
1054.8366,0.091196
1056.7003,0.085821
1058.5639,0.082937
1060.4276,0.081551
1062.2913,0.080983
1064.1550,0.080949
1066.0186,0.081566
1067.8823,0.083083
1069.7460,0.085390
1071.6096,0.088113
1073.4733,0.090780
1075.3370,0.093129
1077.2006,0.094932
1079.0643,0.096107
1080.9280,0.097039
1082.7916,0.097910
1084.6553,0.098874
1086.5190,0.100165
1088.3826,0.101825
1090.2463,0.104143
1092.1100,0.107242
1093.9737,0.111001
1095.8373,0.115415
1097.7010,0.120356
1099.5647,0.125567
1101.4283,0.130746
1103.2920,0.135263
1105.1557,0.138290
1107.0193,0.138512
1108.8830,0.134699
1110.7467,0.127025
1112.6103,0.116972
1114.4740,0.106507
1116.3377,0.097025
1118.2014,0.089246
1120.0650,0.083537
1121.9287,0.079675
1123.7924,0.077044
1125.6560,0.075077
1127.5197,0.073323
1129.3834,0.071539
1131.2470,0.069853
1133.1107,0.068560
1134.9744,0.067690
1136.8380,0.067301
1138.7017,0.067494
1140.5654,0.068070
1142.4290,0.068775
1144.2927,0.069383
1146.1564,0.069740
1148.0201,0.069891
1149.8837,0.069853
1151.7474,0.069655
1153.6111,0.069304
1155.4747,0.068923
1157.3384,0.068633
1159.2021,0.068333
1161.0657,0.068069
1162.9294,0.068078
1164.7931,0.068611
1166.6567,0.069838
1168.5204,0.071658
1170.3841,0.073708
1172.2477,0.074969
1174.1114,0.073939
1175.9751,0.070282
1177.8388,0.065585
1179.7024,0.061760
1181.5661,0.059547
1183.4298,0.058709
1185.2934,0.058592
1187.1571,0.058679
1189.0208,0.058826
1190.8844,0.058953
1192.7481,0.059062
1194.6118,0.059287
1196.4754,0.059626
1198.3391,0.059974
1200.2028,0.060385
1202.0665,0.060823
1203.9301,0.061163
1205.7938,0.061475
1207.6575,0.061812
1209.5211,0.062073
1211.3848,0.062370
1213.2485,0.062776
1215.1121,0.063179
1216.9758,0.063621
1218.8395,0.064145
1220.7031,0.064664
1222.5668,0.065167
1224.4305,0.065725
1226.2941,0.066330
1228.1578,0.066931
1230.0215,0.067480
1231.8852,0.067938
1233.7488,0.068407
1235.6125,0.068941
1237.4762,0.069484
1239.3398,0.070012
1241.2035,0.070510
1243.0672,0.071042
1244.9308,0.071569
1246.7945,0.072066
1248.6582,0.072691
1250.5218,0.073365
1252.3855,0.073970
1254.2492,0.074625
1256.1129,0.075365
1257.9765,0.076189
1259.8402,0.077072
1261.7039,0.077963
1263.5675,0.078870
1265.4312,0.079698
1267.2949,0.080171
1269.1585,0.080223
1271.0222,0.080227
1272.8859,0.080325
1274.7495,0.080604
1276.6132,0.081258
1278.4769,0.082120
1280.3405,0.083171
1282.2042,0.084510
1284.0679,0.086133
1285.9316,0.088060
1287.7952,0.090364
1289.6589,0.093005
1291.5226,0.095936
1293.3862,0.099297
1295.2499,0.103266
1297.1136,0.107976
1298.9772,0.113456
1300.8409,0.119733
1302.7046,0.125951
1304.5682,0.129751
1306.4319,0.128044
1308.2956,0.118248
1310.1592,0.101680
1312.0229,0.084939
1313.8866,0.073895
1315.7503,0.069753
1317.6139,0.069879
1319.4776,0.071848
1321.3413,0.074242
1323.2049,0.076585
1325.0686,0.078997
1326.9323,0.081454
1328.7959,0.083808
1330.6596,0.085899
1332.5233,0.087528
1334.3869,0.088533
1336.2506,0.089360
1338.1143,0.090822
1339.9780,0.092531
1341.8416,0.093072
1343.7053,0.093146
1345.5690,0.093741
1347.4326,0.094670
1349.2963,0.095852
1351.1600,0.097205
1353.0236,0.098809
1354.8873,0.100829
1356.7510,0.102752
1358.6146,0.104353
1360.4783,0.106762
1362.3420,0.110811
1364.2056,0.114315
1366.0693,0.116146
1367.9330,0.118770
1369.7967,0.121822
1371.6603,0.124276
1373.5240,0.127783
1375.3877,0.131720
1377.2513,0.134367
1379.1150,0.137910
1380.9787,0.142400
1382.8423,0.146947
1384.7060,0.151967
1386.5697,0.158299
1388.4333,0.164938
1390.2970,0.168223
1392.1607,0.169477
1394.0244,0.169083
1395.8880,0.164593
1397.7517,0.157675
1399.6154,0.149634
1401.4790,0.142139
1403.3427,0.135484
1405.2064,0.124809
1407.0700,0.110407
1408.9337,0.096483
1410.7974,0.083692
1412.6610,0.074690
1414.5247,0.070628
1416.3884,0.070472
1418.2520,0.074517
1420.1157,0.081808
1421.9794,0.085348
1423.8431,0.083931
1425.7067,0.076947
1427.5704,0.069113
1429.4341,0.063889
1431.2977,0.061496
1433.1614,0.061291
1435.0251,0.062515
1436.8887,0.065400
1438.7524,0.067183
1440.6161,0.067796
1442.4797,0.069088
1444.3434,0.070283
1446.2071,0.071118
1448.0707,0.071476
1449.9344,0.070144
1451.7981,0.067683
1453.6618,0.065274
1455.5254,0.064696
1457.3891,0.067710
1459.2528,0.068942
1461.1164,0.068013
1462.9801,0.068088
1464.8438,0.068590
1466.7074,0.067578
1468.5711,0.065656
1470.4348,0.064650
1472.2984,0.065012
1474.1621,0.065359
1476.0258,0.064907
1477.8895,0.064543
1479.7531,0.064292
1481.6168,0.064585
1483.4805,0.064576
1485.3441,0.064501
1487.2078,0.065273
1489.0715,0.067145
1490.9351,0.068495
1492.7988,0.068069
1494.6625,0.068117
1496.5261,0.070006
1498.3898,0.071861
1500.2535,0.072065
1502.1171,0.071582
1503.9808,0.071509
1505.8445,0.073824
1507.7082,0.079585
1509.5718,0.079049
1511.4355,0.078515
1513.2992,0.079076
1515.1628,0.080079
1517.0265,0.081561
1518.8902,0.082597
1520.7538,0.084273
1522.6175,0.086736
1524.4812,0.086678
1526.3448,0.087681
1528.2085,0.088710
1530.0722,0.088894
1531.9359,0.090021
1533.7995,0.092230
1535.6632,0.092306
1537.5269,0.092384
1539.3905,0.095476
1541.2542,0.100330
1543.1179,0.101248
1544.9815,0.102659
1546.8452,0.103787
1548.7089,0.105099
1550.5725,0.107344
1552.4362,0.108904
1554.2999,0.110123
1556.1635,0.112015
1558.0272,0.116562
1559.8909,0.125293
1561.7546,0.123141
1563.6182,0.122906
1565.4819,0.124932
1567.3456,0.127093
1569.2092,0.130271
1571.0729,0.133566
1572.9366,0.134609
1574.8002,0.137450
1576.6639,0.142589
1578.5276,0.144822
1580.3912,0.145748
1582.2549,0.147782
1584.1186,0.149502
1585.9822,0.150775
1587.8459,0.151581
1589.7096,0.151899
1591.5733,0.151518
1593.4369,0.150738
1595.3006,0.149569
1597.1643,0.148116
1599.0279,0.146274
1600.8916,0.144265
1602.7553,0.142370
1604.6189,0.140730
1606.4826,0.139247
1608.3463,0.137854
1610.2099,0.136071
1612.0736,0.133751
1613.9373,0.131209
1615.8010,0.127894
1617.6646,0.121365
1619.5283,0.115613
1621.3920,0.112003
1623.2556,0.106482
1625.1193,0.099477
1626.9830,0.093822
1628.8466,0.086785
1630.7103,0.079268
1632.5740,0.073426
1634.4376,0.067694
1636.3013,0.060425
1638.1650,0.055968
1640.0286,0.055173
1641.8923,0.054644
1643.7560,0.055016
1645.6197,0.056556
1647.4833,0.058958
1649.3470,0.059952
1651.2107,0.061743
1653.0743,0.065898
1654.9380,0.069098
1656.8017,0.068946
1658.6653,0.069642
1660.5290,0.070215
1662.3927,0.070212
1664.2563,0.069055
1666.1200,0.067848
1667.9837,0.067007
1669.8474,0.066031
1671.7110,0.065216
1673.5747,0.065847
1675.4384,0.067722
1677.3020,0.069908
1679.1657,0.071932
1681.0294,0.075187
1682.8930,0.078962
1684.7567,0.083667
1686.6204,0.084181
1688.4840,0.083179
1690.3477,0.081958
1692.2114,0.079942
1694.0750,0.077665
1695.9387,0.074786
1697.8024,0.071117
1699.6661,0.068678
1701.5297,0.062612
1703.3934,0.057578
1705.2571,0.051921
1707.1207,0.044323
1708.9844,0.038951
1710.8481,0.034798
1712.7117,0.031394
1714.5754,0.029520
1716.4391,0.027862
1718.3027,0.026495
1720.1664,0.025184
1722.0301,0.024514
1723.8937,0.023323
1725.7574,0.021643
1727.6211,0.019978
1729.4848,0.018607
1731.3484,0.017305
1733.2121,0.016618
1735.0758,0.015483
1736.9394,0.014856
1738.8031,0.014631
1740.6668,0.014356
1742.5304,0.014112
1744.3941,0.014025
1746.2578,0.013617
1748.1214,0.013455
1749.9851,0.013285
1751.8488,0.012969
1753.7125,0.012622
1755.5761,0.012714
1757.4398,0.012615
1759.3035,0.012543
1761.1671,0.012535
1763.0308,0.012512
1764.8945,0.012190
1766.7581,0.012168
1768.6218,0.012175
1770.4855,0.012259
1772.3491,0.012189
1774.2128,0.012024
1776.0765,0.011873
1777.9401,0.012096
1779.8038,0.012295
1781.6675,0.012395
1783.5312,0.012288
1785.3948,0.012369
1787.2585,0.012237
1789.1222,0.012124
1790.9858,0.012125
1792.8495,0.012300
1794.7132,0.012151
1796.5768,0.012235
1798.4405,0.012286
1800.3042,0.012441
1802.1678,0.012326
1804.0315,0.012357
1805.8952,0.012576
1807.7589,0.012716
1809.6225,0.012427
1811.4862,0.012316
1813.3499,0.012348
1815.2135,0.012361
1817.0772,0.012179
1818.9409,0.012317
1820.8045,0.012367
1822.6682,0.012381
1824.5319,0.012283
1826.3955,0.012124
1828.2592,0.012039
1830.1229,0.012215
1831.9865,0.012119
1833.8502,0.012130
1835.7139,0.012141
1837.5776,0.012242
1839.4412,0.012066
1841.3049,0.012051
1843.1686,0.012238
1845.0322,0.012274
1846.8959,0.011920
1848.7596,0.012159
1850.6232,0.012307
1852.4869,0.012421
1854.3506,0.012210
1856.2142,0.012307
1858.0779,0.012615
1859.9416,0.012789
1861.8052,0.012625
1863.6689,0.012445
1865.5326,0.012350
1867.3963,0.012541
1869.2599,0.012342
1871.1236,0.012170
1872.9873,0.012097
1874.8509,0.012164
1876.7146,0.012136
1878.5783,0.012151
1880.4419,0.012120
1882.3056,0.012393
1884.1693,0.012718
1886.0329,0.012710
1887.8966,0.012274
1889.7603,0.012104
1891.6240,0.011997
1893.4876,0.012111
1895.3513,0.012195
1897.2150,0.012299
1899.0786,0.012395
1900.9423,0.012661
1902.8060,0.012620
1904.6696,0.012394
1906.5333,0.012382
1908.3970,0.012611
1910.2606,0.012294
1912.1243,0.012148
1913.9880,0.012045
1915.8516,0.012108
1917.7153,0.012287
1919.5790,0.012747
1921.4427,0.012436
1923.3063,0.012239
1925.1700,0.011660
1927.0337,0.011615
1928.8973,0.011897
1930.7610,0.012016
1932.6247,0.011687
1934.4883,0.011780
1936.3520,0.011976
1938.2157,0.012514
1940.0793,0.012312
1941.9430,0.011430
1943.8067,0.010316
1945.6704,0.010277
1947.5340,0.010194
1949.3977,0.010568
1951.2614,0.011025
1953.1250,0.011248
1954.9887,0.010433
1956.8524,0.009960
1958.7160,0.009062
1960.5797,0.008634
1962.4434,0.007892
1964.3070,0.007740
1966.1707,0.006746
1968.0344,0.005128
1969.8980,0.004501
1971.7617,0.005451
1973.6254,0.005405
1975.4891,0.005389
1977.3527,0.005211
1979.2164,0.006283
1981.0801,0.007333
1982.9437,0.008547
1984.8074,0.008189
1986.6711,0.008368
1988.5347,0.008733
1990.3984,0.008788
1992.2621,0.008038
1994.1257,0.008313
1995.9894,0.008851
1997.8531,0.009513
1999.7167,0.009744
2001.5804,0.010309
2003.4441,0.009792
2005.3078,0.008783
2007.1714,0.007469
2009.0351,0.007669
2010.8988,0.007808
2012.7624,0.007783
2014.6261,0.006840
2016.4898,0.006454
2018.3534,0.006892
2020.2171,0.007153
2022.0808,0.005758
2023.9444,0.005979
2025.8081,0.005376
2027.6718,0.005940
2029.5355,0.006650
2031.3991,0.008122
2033.2628,0.007775
2035.1265,0.007440
2036.9901,0.006883
2038.8538,0.007359
2040.7175,0.008245
2042.5811,0.009056
2044.4448,0.008976
2046.3085,0.009917
2048.1721,0.010838
2050.0358,0.011797
2051.8995,0.012119
2053.7631,0.012582
2055.6268,0.012557
2057.4905,0.012145
2059.3542,0.012110
2061.2178,0.012748
2063.0815,0.013327
2064.9452,0.013631
2066.8088,0.013237
2068.6725,0.013379
2070.5362,0.013749
2072.3998,0.014304
2074.2635,0.014239
2076.1272,0.014477
2077.9908,0.014102
2079.8545,0.014352
2081.7182,0.014511
2083.5819,0.014690
2085.4455,0.015392
2087.3092,0.015744
2089.1729,0.015759
2091.0365,0.015746
2092.9002,0.015225
2094.7639,0.014601
2096.6275,0.014369
2098.4912,0.015125
2100.3549,0.015162
2102.2185,0.015226
2104.0822,0.015016
2105.9459,0.015287
2107.8095,0.015554
2109.6732,0.015635
2111.5369,0.015967
2113.4006,0.016093
2115.2642,0.016069
2117.1279,0.016429
2118.9916,0.016095
2120.8552,0.015800
2122.7189,0.015874
2124.5826,0.015648
2126.4462,0.015045
2128.3099,0.015117
2130.1736,0.015291
2132.0372,0.015162
2133.9009,0.014824
2135.7646,0.014493
2137.6282,0.014000
2139.4919,0.013644
2141.3556,0.012748
2143.2193,0.011892
2145.0829,0.011514
2146.9466,0.012585
2148.8103,0.012006
2150.6739,0.010351
2152.5376,0.010349
2154.4013,0.010610
2156.2649,0.009249
2158.1286,0.007076
2159.9923,0.005653
2161.8559,0.007106
2163.7196,0.008855
2165.5833,0.009859
2167.4470,0.010417
2169.3106,0.011221
2171.1743,0.011305
2173.0380,0.010829
2174.9016,0.011135
2176.7653,0.012300
2178.6290,0.010675
2180.4926,0.010066
2182.3563,0.010510
2184.2200,0.011435
2186.0836,0.012689
2187.9473,0.013497
2189.8110,0.012962
2191.6746,0.013584
2193.5383,0.014319
2195.4020,0.013513
2197.2657,0.012689
2199.1293,0.013698
2200.9930,0.014941
2202.8567,0.014925
2204.7203,0.014506
2206.5840,0.014810
2208.4477,0.014478
2210.3113,0.014686
2212.1750,0.014659
2214.0387,0.014905
2215.9023,0.015280
2217.7660,0.016141
2219.6297,0.016373
2221.4934,0.016006
2223.3570,0.015052
2225.2207,0.015395
2227.0844,0.016467
2228.9480,0.017637
2230.8117,0.016918
2232.6754,0.016797
2234.5390,0.016674
2236.4027,0.016996
2238.2664,0.018039
2240.1300,0.018463
2241.9937,0.017637
2243.8574,0.017903
2245.7210,0.018062
2247.5847,0.018350
2249.4484,0.018425
2251.3121,0.017734
2253.1757,0.017697
2255.0394,0.018344
2256.9031,0.018233
2258.7667,0.018623
2260.6304,0.019411
2262.4941,0.019518
2264.3577,0.019434
2266.2214,0.019966
2268.0851,0.019739
2269.9487,0.019459
2271.8124,0.020182
2273.6761,0.020667
2275.5397,0.020955
2277.4034,0.021213
2279.2671,0.021369
2281.1308,0.022015
2282.9944,0.022408
2284.8581,0.022802
2286.7218,0.022646
2288.5854,0.022625
2290.4491,0.022667
2292.3128,0.022623
2294.1764,0.022801
2296.0401,0.022852
2297.9038,0.023067
2299.7674,0.023191
2301.6311,0.022998
2303.4948,0.022963
2305.3585,0.022948
2307.2221,0.022905
2309.0858,0.022868
2310.9495,0.022973
2312.8131,0.023230
2314.6768,0.023202
2316.5405,0.022900
2318.4041,0.022821
2320.2678,0.023110
2322.1315,0.023342
2323.9951,0.023593
2325.8588,0.023215
2327.7225,0.022353
2329.5861,0.022163
2331.4498,0.022220
2333.3135,0.022115
2335.1772,0.021937
2337.0408,0.021982
2338.9045,0.022130
2340.7682,0.022416
2342.6318,0.022756
2344.4955,0.022967
2346.3592,0.022641
2348.2228,0.022156
2350.0865,0.021894
2351.9502,0.022102
2353.8138,0.022121
2355.6775,0.021739
2357.5412,0.021409
2359.4049,0.021663
2361.2685,0.021847
2363.1322,0.021999
2364.9959,0.022432
2366.8595,0.022594
2368.7232,0.022506
2370.5869,0.022710
2372.4505,0.022957
2374.3142,0.023083
2376.1779,0.023457
2378.0415,0.023544
2379.9052,0.023340
2381.7689,0.023291
2383.6325,0.023341
2385.4962,0.023392
2387.3599,0.023237
2389.2236,0.023317
2391.0872,0.023253
2392.9509,0.023405
2394.8146,0.023434
2396.6782,0.023470
2398.5419,0.023545
2400.4056,0.023598
2402.2692,0.023720
2404.1329,0.023582
2405.9966,0.023449
2407.8602,0.023458
2409.7239,0.023474
2411.5876,0.023691
2413.4512,0.024102
2415.3149,0.024484
2417.1786,0.024303
2419.0423,0.024100
2420.9059,0.024298
2422.7696,0.024524
2424.6333,0.024379
2426.4969,0.024437
2428.3606,0.024546
2430.2243,0.024747
2432.0879,0.024999
2433.9516,0.025062
2435.8153,0.024954
2437.6789,0.024921
2439.5426,0.024711
2441.4063,0.024277
2443.2700,0.024550
2445.1336,0.024919
2446.9973,0.025073
2448.8610,0.024989
2450.7246,0.025024
2452.5883,0.024873
2454.4520,0.024741
2456.3156,0.024886
2458.1793,0.024890
2460.0430,0.024848
2461.9066,0.024505
2463.7703,0.024404
2465.6340,0.024466
2467.4976,0.024393
2469.3613,0.024444
2471.2250,0.024422
2473.0887,0.024532
2474.9523,0.024688
2476.8160,0.024822
2478.6797,0.024965
2480.5433,0.024948
2482.4070,0.025003
2484.2707,0.024984
2486.1343,0.024839
2487.9980,0.025048
2489.8617,0.025344
2491.7253,0.025528
2493.5890,0.025631
2495.4527,0.025861
2497.3164,0.026084
2499.1800,0.026133
2501.0437,0.026262
2502.9074,0.026255
2504.7710,0.026125
2506.6347,0.026121
2508.4984,0.026094
2510.3620,0.025898
2512.2257,0.025872
2514.0894,0.026005
2515.9530,0.026031
2517.8167,0.026259
2519.6804,0.026603
2521.5440,0.026694
2523.4077,0.026709
2525.2714,0.027066
2527.1351,0.027033
2528.9987,0.026778
2530.8624,0.026792
2532.7261,0.026659
2534.5897,0.026894
2536.4534,0.027300
2538.3171,0.027510
2540.1807,0.027307
2542.0444,0.026607
2543.9081,0.026772
2545.7717,0.027531
2547.6354,0.027443
2549.4991,0.027129
2551.3627,0.027320
2553.2264,0.027251
2555.0901,0.027300
2556.9538,0.027597
2558.8174,0.027534
2560.6811,0.027661
2562.5448,0.027951
2564.4084,0.027898
2566.2721,0.027820
2568.1358,0.027884
2569.9994,0.028066
2571.8631,0.028117
2573.7268,0.028312
2575.5904,0.028470
2577.4541,0.028761
2579.3178,0.029073
2581.1815,0.029208
2583.0451,0.029411
2584.9088,0.029628
2586.7725,0.029726
2588.6361,0.029741
2590.4998,0.029852
2592.3635,0.029936
2594.2271,0.030096
2596.0908,0.030223
2597.9545,0.030481
2599.8181,0.030771
2601.6818,0.030799
2603.5455,0.030780
2605.4091,0.030980
2607.2728,0.030998
2609.1365,0.030803
2611.0002,0.031121
2612.8638,0.031385
2614.7275,0.031283
2616.5912,0.031572
2618.4548,0.032046
2620.3185,0.032097
2622.1822,0.031907
2624.0458,0.032260
2625.9095,0.032973
2627.7732,0.033375
2629.6368,0.033709
2631.5005,0.033892
2633.3642,0.033941
2635.2279,0.033944
2637.0915,0.034142
2638.9552,0.034351
2640.8189,0.034580
2642.6825,0.034872
2644.5462,0.035030
2646.4099,0.035295
2648.2735,0.035606
2650.1372,0.035690
2652.0009,0.035872
2653.8645,0.035912
2655.7282,0.035906
2657.5919,0.036047
2659.4555,0.036152
2661.3192,0.036190
2663.1829,0.036302
2665.0466,0.036386
2666.9102,0.036473
2668.7739,0.036570
2670.6376,0.036659
2672.5012,0.036777
2674.3649,0.036965
2676.2286,0.037021
2678.0922,0.037209
2679.9559,0.037661
2681.8196,0.037870
2683.6832,0.038085
2685.5469,0.038237
2687.4106,0.038320
2689.2742,0.038707
2691.1379,0.038982
2693.0016,0.038862
2694.8653,0.039038
2696.7289,0.039585
2698.5926,0.039847
2700.4563,0.040155
2702.3199,0.040442
2704.1836,0.040720
2706.0473,0.041000
2707.9109,0.041129
2709.7746,0.041440
2711.6383,0.041920
2713.5019,0.042075
2715.3656,0.042373
2717.2293,0.042714
2719.0930,0.042874
2720.9566,0.043190
2722.8203,0.043615
2724.6840,0.043948
2726.5476,0.044487
2728.4113,0.045076
2730.2750,0.045492
2732.1386,0.045790
2734.0023,0.046018
2735.8660,0.046366
2737.7296,0.046881
2739.5933,0.047468
2741.4570,0.047942
2743.3206,0.048181
2745.1843,0.048638
2747.0480,0.049314
2748.9117,0.049892
2750.7753,0.050513
2752.6390,0.051028
2754.5027,0.051293
2756.3663,0.051858
2758.2300,0.052421
2760.0937,0.052792
2761.9573,0.053384
2763.8210,0.054041
2765.6847,0.054314
2767.5483,0.054931
2769.4120,0.055668
2771.2757,0.056161
2773.1394,0.056651
2775.0030,0.057412
2776.8667,0.058258
2778.7304,0.058732
2780.5940,0.058662
2782.4577,0.058847
2784.3214,0.059038
2786.1850,0.058864
2788.0487,0.058616
2789.9124,0.058751
2791.7760,0.058431
2793.6397,0.057876
2795.5034,0.057392
2797.3670,0.056993
2799.2307,0.056647
2801.0944,0.056078
2802.9581,0.055431
2804.8217,0.055176
2806.6854,0.054955
2808.5491,0.054427
2810.4127,0.054329
2812.2764,0.054820
2814.1401,0.054678
2816.0037,0.054371
2817.8674,0.054444
2819.7311,0.054545
2821.5947,0.054644
2823.4584,0.054890
2825.3221,0.054858
2827.1857,0.054837
2829.0494,0.054599
2830.9131,0.054190
2832.7768,0.053940
2834.6404,0.053934
2836.5041,0.054151
2838.3678,0.054510
2840.2314,0.054723
2842.0951,0.054958
2843.9588,0.055397
2845.8224,0.055887
2847.6861,0.056492
2849.5498,0.056972
2851.4134,0.057354
2853.2771,0.058013
2855.1408,0.058569
2857.0045,0.059380
2858.8681,0.060113
2860.7318,0.060676
2862.5955,0.061373
2864.4591,0.061896
2866.3228,0.062103
2868.1865,0.062418
2870.0501,0.062891
2871.9138,0.063236
2873.7775,0.063474
2875.6411,0.064129
2877.5048,0.064746
2879.3685,0.065139
2881.2321,0.065610
2883.0958,0.066057
2884.9595,0.066504
2886.8232,0.067034
2888.6868,0.067416
2890.5505,0.067860
2892.4142,0.068224
2894.2778,0.068634
2896.1415,0.069228
2898.0052,0.069746
2899.8688,0.069732
2901.7325,0.069692
2903.5962,0.069813
2905.4598,0.069863
2907.3235,0.070048
2909.1872,0.070485
2911.0509,0.070999
2912.9145,0.071626
2914.7782,0.072089
2916.6419,0.072547
2918.5055,0.073367
2920.3692,0.074232
2922.2329,0.074828
2924.0965,0.075057
2925.9602,0.075287
2927.8239,0.075821
2929.6875,0.076112
2931.5512,0.076723
2933.4149,0.077427
2935.2785,0.077696
2937.1422,0.078018
2939.0059,0.078337
2940.8696,0.078350
2942.7332,0.078279
2944.5969,0.078318
2946.4606,0.078828
2948.3242,0.078724
2950.1879,0.078829
2952.0516,0.078966
2953.9152,0.079134
2955.7789,0.079155
2957.6426,0.079384
2959.5062,0.079794
2961.3699,0.080332
2963.2336,0.081014
2965.0972,0.081670
2966.9609,0.082284
2968.8246,0.083160
2970.6883,0.083875
2972.5519,0.084340
2974.4156,0.084715
2976.2793,0.085226
2978.1429,0.085702
2980.0066,0.086045
2981.8703,0.086446
2983.7339,0.086836
2985.5976,0.086900
2987.4613,0.087247
2989.3249,0.087782
2991.1886,0.088444
2993.0523,0.089182
2994.9160,0.090029
2996.7796,0.090899
2998.6433,0.091372
3000.5070,0.091789
3002.3706,0.092757
3004.2343,0.093210
3006.0980,0.093870
3007.9616,0.094821
3009.8253,0.095224
3011.6890,0.095696
3013.5526,0.096958
3015.4163,0.097665
3017.2800,0.098096
3019.1436,0.098437
3021.0073,0.098926
3022.8710,0.099259
3024.7347,0.099550
3026.5983,0.100024
3028.4620,0.100882
3030.3257,0.101114
3032.1893,0.101199
3034.0530,0.101296
3035.9167,0.101499
3037.7803,0.101956
3039.6440,0.102503
3041.5077,0.102908
3043.3713,0.103414
3045.2350,0.103694
3047.0987,0.103952
3048.9624,0.104053
3050.8260,0.104583
3052.6897,0.104872
3054.5534,0.104949
3056.4170,0.105215
3058.2807,0.105563
3060.1444,0.105198
3062.0080,0.105406
3063.8717,0.106102
3065.7354,0.106422
3067.5990,0.106230
3069.4627,0.106117
3071.3264,0.106006
3073.1900,0.106084
3075.0537,0.106150
3076.9174,0.106141
3078.7811,0.105853
3080.6447,0.105838
3082.5084,0.105686
3084.3721,0.105608
3086.2357,0.105128
3088.0994,0.104349
3089.9631,0.104133
3091.8267,0.103730
3093.6904,0.102727
3095.5541,0.102086
3097.4177,0.101874
3099.2814,0.101550
3101.1451,0.100797
3103.0087,0.100250
3104.8724,0.099427
3106.7361,0.098664
3108.5998,0.097956
3110.4634,0.097310
3112.3271,0.096479
3114.1908,0.095900
3116.0544,0.095230
3117.9181,0.094726
3119.7818,0.094349
3121.6454,0.094059
3123.5091,0.093305
3125.3728,0.092288
3127.2364,0.091297
3129.1001,0.090930
3130.9638,0.090636
3132.8275,0.090041
3134.6911,0.089471
3136.5548,0.089197
3138.4185,0.088938
3140.2821,0.088921
3142.1458,0.088695
3144.0095,0.087904
3145.8731,0.086584
3147.7368,0.086283
3149.6005,0.086206
3151.4641,0.086410
3153.3278,0.086499
3155.1915,0.085953
3157.0551,0.085441
3158.9188,0.085432
3160.7825,0.084838
3162.6462,0.083808
3164.5098,0.083400
3166.3735,0.083306
3168.2372,0.083391
3170.1008,0.083223
3171.9645,0.082358
3173.8282,0.081799
3175.6918,0.082038
3177.5555,0.082314
3179.4192,0.081902
3181.2828,0.081605
3183.1465,0.081342
3185.0102,0.081381
3186.8739,0.081535
3188.7375,0.081536
3190.6012,0.081297
3192.4649,0.081052
3194.3285,0.081186
3196.1922,0.081429
3198.0559,0.081086
3199.9195,0.080786
3201.7832,0.081436
3203.6469,0.082345
3205.5105,0.082606
3207.3742,0.082439
3209.2379,0.082114
3211.1015,0.082290
3212.9652,0.082172
3214.8289,0.082042
3216.6926,0.082430
3218.5562,0.082845
3220.4199,0.083018
3222.2836,0.083097
3224.1472,0.083138
3226.0109,0.083736
3227.8746,0.083670
3229.7382,0.083437
3231.6019,0.084190
3233.4656,0.085049
3235.3292,0.084955
3237.1929,0.084620
3239.0566,0.084681
3240.9202,0.085037
3242.7839,0.085421
3244.6476,0.085586
3246.5113,0.085421
3248.3749,0.086042
3250.2386,0.086651
3252.1023,0.087151
3253.9659,0.087593
3255.8296,0.087902
3257.6933,0.088124
3259.5569,0.088836
3261.4206,0.088897
3263.2843,0.088599
3265.1479,0.089176
3267.0116,0.089329
3268.8753,0.088740
3270.7390,0.088338
3272.6026,0.088256
3274.4663,0.089211
3276.3300,0.089944
3278.1936,0.089150
3280.0573,0.087713
3281.9210,0.087557
3283.7846,0.088004
3285.6483,0.087188
3287.5120,0.086205
3289.3756,0.086049
3291.2393,0.085193
3293.1030,0.084401
3294.9666,0.084072
3296.8303,0.083401
3298.6940,0.082972
3300.5577,0.082401
3302.4213,0.081182
3304.2850,0.080755
3306.1487,0.080528
3308.0123,0.080595
3309.8760,0.079657
3311.7397,0.079252
3313.6033,0.079541
3315.4670,0.079216
3317.3307,0.078365
3319.1943,0.078320
3321.0580,0.079011
3322.9217,0.079667
3324.7854,0.079960
3326.6490,0.080066
3328.5127,0.079826
3330.3764,0.079822
3332.2400,0.079585
3334.1037,0.078940
3335.9674,0.078899
3337.8310,0.079152
3339.6947,0.077846
3341.5584,0.076515
3343.4220,0.076022
3345.2857,0.075086
3347.1494,0.073224
3349.0130,0.072303
3350.8767,0.071917
3352.7404,0.070653
3354.6041,0.069451
3356.4677,0.068670
3358.3314,0.067044
3360.1951,0.066279
3362.0587,0.066113
3363.9224,0.065379
3365.7861,0.064318
3367.6497,0.063319
3369.5134,0.063504
3371.3771,0.064130
3373.2407,0.063820
3375.1044,0.062951
3376.9681,0.062527
3378.8317,0.063113
3380.6954,0.063626
3382.5591,0.063264
3384.4228,0.063329
3386.2864,0.064153
3388.1501,0.064715
3390.0138,0.064455
3391.8774,0.064522
3393.7411,0.065037
3395.6048,0.065315
3397.4684,0.065751
3399.3321,0.065475
3401.1958,0.064853
3403.0594,0.064880
3404.9231,0.064276
3406.7868,0.061811
3408.6505,0.059792
3410.5141,0.058429
3412.3778,0.056785
3414.2415,0.054587
3416.1051,0.052920
3417.9688,0.052353
3419.8325,0.051376
3421.6961,0.049946
3423.5598,0.048773
3425.4235,0.047755
3427.2871,0.046981
3429.1508,0.045336
3431.0145,0.044222
3432.8781,0.044102
3434.7418,0.043256
3436.6055,0.041473
3438.4692,0.040146
3440.3328,0.040001
3442.1965,0.039973
3444.0602,0.038162
3445.9238,0.036769
3447.7875,0.036757
3449.6512,0.035607
3451.5148,0.034822
3453.3785,0.034514
3455.2422,0.033878
3457.1058,0.034025
3458.9695,0.033973
3460.8332,0.033907
3462.6969,0.033636
3464.5605,0.032074
3466.4242,0.030884
3468.2879,0.030522
3470.1515,0.030232
3472.0152,0.029836
3473.8789,0.029338
3475.7425,0.029424
3477.6062,0.028760
3479.4699,0.028398
3481.3335,0.028675
3483.1972,0.027437
3485.0609,0.026427
3486.9245,0.026244
3488.7882,0.025473
3490.6519,0.025002
3492.5156,0.025606
3494.3792,0.026299
3496.2429,0.025101
3498.1066,0.023607
3499.9702,0.023163
3501.8339,0.022693
3503.6976,0.022724
3505.5612,0.022533
3507.4249,0.022169
3509.2886,0.021804
3511.1522,0.021018
3513.0159,0.020106
3514.8796,0.019114
3516.7432,0.018933
3518.6069,0.019461
3520.4706,0.019469
3522.3343,0.018710
3524.1979,0.017705
3526.0616,0.017182
3527.9253,0.017126
3529.7889,0.015944
3531.6526,0.014784
3533.5163,0.016080
3535.3799,0.017595
3537.2436,0.016415
3539.1073,0.015059
3540.9709,0.015409
3542.8346,0.015612
3544.6983,0.014599
3546.5620,0.013156
3548.4256,0.013312
3550.2893,0.013983
3552.1530,0.014590
3554.0166,0.015021
3555.8803,0.013851
3557.7440,0.012890
3559.6076,0.012842
3561.4713,0.012284
3563.3350,0.012130
3565.1986,0.012918
3567.0623,0.013005
3568.9260,0.011754
3570.7896,0.011398
3572.6533,0.012042
3574.5170,0.012340
3576.3807,0.012248
3578.2443,0.011624
3580.1080,0.011226
3581.9717,0.010415
3583.8353,0.009241
3585.6990,0.009732
3587.5627,0.010452
3589.4263,0.009424
3591.2900,0.008701
3593.1537,0.009516
3595.0173,0.009925
3596.8810,0.009428
3598.7447,0.009675
3600.6084,0.010171
3602.4720,0.009778
3604.3357,0.009642
3606.1994,0.010415
3608.0630,0.011006
3609.9267,0.010345
3611.7904,0.008941
3613.6540,0.008432
3615.5177,0.008401
3617.3814,0.008487
3619.2450,0.008445
3621.1087,0.008171
3622.9724,0.008052
3624.8360,0.008030
3626.6997,0.008449
3628.5634,0.008987
3630.4271,0.008244
3632.2907,0.007343
3634.1544,0.008043
3636.0181,0.008635
3637.8817,0.008886
3639.7454,0.009309
3641.6091,0.009665
3643.4727,0.009505
3645.3364,0.008988
3647.2001,0.008656
3649.0637,0.007725
3650.9274,0.007071
3652.7911,0.008260
3654.6547,0.009402
3656.5184,0.009706
3658.3821,0.009131
3660.2458,0.009207
3662.1094,0.009646
3663.9731,0.009602
3665.8368,0.009536
3667.7004,0.009556
3669.5641,0.009485
3671.4278,0.009068
3673.2914,0.008359
3675.1551,0.007843
3677.0188,0.007421
3678.8824,0.008193
3680.7461,0.009286
3682.6098,0.009636
3684.4735,0.009571
3686.3371,0.009579
3688.2008,0.009529
3690.0645,0.008589
3691.9281,0.008287
3693.7918,0.009038
3695.6555,0.009525
3697.5191,0.010041
3699.3828,0.010099
3701.2465,0.009758
3703.1101,0.009234
3704.9738,0.008843
3706.8375,0.009150
3708.7011,0.009510
3710.5648,0.009755
3712.4285,0.009876
3714.2922,0.009606
3716.1558,0.009562
3718.0195,0.010002
3719.8832,0.009944
3721.7468,0.009364
3723.6105,0.009298
3725.4742,0.009295
3727.3378,0.009477
3729.2015,0.009567
3731.0652,0.009408
3732.9288,0.009166
3734.7925,0.008412
3736.6562,0.007705
3738.5199,0.008363
3740.3835,0.009091
3742.2472,0.008944
3744.1109,0.008966
3745.9745,0.008743
3747.8382,0.008375
3749.7019,0.009396
3751.5655,0.009815
3753.4292,0.009211
3755.2929,0.009588
3757.1565,0.010090
3759.0202,0.010134
3760.8839,0.009966
3762.7475,0.010242
3764.6112,0.010870
3766.4749,0.011367
3768.3386,0.011501
3770.2022,0.011546
3772.0659,0.011427
3773.9296,0.011139
3775.7932,0.011157
3777.6569,0.011304
3779.5206,0.011756
3781.3842,0.012246
3783.2479,0.012019
3785.1116,0.011471
3786.9752,0.011230
3788.8389,0.011333
3790.7026,0.011584
3792.5662,0.011716
3794.4299,0.011533
3796.2936,0.011435
3798.1573,0.011473
3800.0209,0.011638
3801.8846,0.011563
3803.7483,0.011028
3805.6119,0.011278
3807.4756,0.011760
3809.3393,0.011746
3811.2029,0.011551
3813.0666,0.011378
3814.9303,0.011234
3816.7939,0.011494
3818.6576,0.011603
3820.5213,0.011698
3822.3850,0.011912
3824.2486,0.011281
3826.1123,0.011208
3827.9760,0.011825
3829.8396,0.011829
3831.7033,0.011194
3833.5670,0.011440
3835.4306,0.011964
3837.2943,0.011474
3839.1580,0.010936
3841.0216,0.011171
3842.8853,0.011871
3844.7490,0.011824
3846.6126,0.011081
3848.4763,0.010942
3850.3400,0.011469
3852.2037,0.011851
3854.0673,0.011874
3855.9310,0.012152
3857.7947,0.012287
3859.6583,0.011986
3861.5220,0.011844
3863.3857,0.012273
3865.2493,0.012457
3867.1130,0.012086
3868.9767,0.011863
3870.8403,0.011979
3872.7040,0.012064
3874.5677,0.012135
3876.4314,0.012275
3878.2950,0.012175
3880.1587,0.012440
3882.0224,0.012509
3883.8860,0.012235
3885.7497,0.012985
3887.6134,0.013258
3889.4770,0.012796
3891.3407,0.013107
3893.2044,0.013249
3895.0680,0.012520
3896.9317,0.012083
3898.7954,0.012130
3900.6590,0.012310
3902.5227,0.012544
3904.3864,0.012498
3906.2501,0.012693
3908.1137,0.013019
3909.9774,0.013106
3911.8411,0.013315
3913.7047,0.013550
3915.5684,0.013566
3917.4321,0.013363
3919.2957,0.012776
3921.1594,0.012775
3923.0231,0.013492
3924.8867,0.013942
3926.7504,0.013797
3928.6141,0.013373
3930.4777,0.013522
3932.3414,0.013914
3934.2051,0.013651
3936.0688,0.013563
3937.9324,0.013908
3939.7961,0.013939
3941.6598,0.013765
3943.5234,0.013848
3945.3871,0.013376
3947.2508,0.013184
3949.1144,0.013651
3950.9781,0.014020
3952.8418,0.014007
3954.7054,0.013584
3956.5691,0.013210
3958.4328,0.013374
3960.2965,0.014196
3962.1601,0.014747
3964.0238,0.014647
3965.8875,0.014291
3967.7511,0.013890
3969.6148,0.014234
3971.4785,0.014323
3973.3421,0.013784
3975.2058,0.013862
3977.0695,0.014481
3978.9331,0.014404
3980.7968,0.014015
3982.6605,0.014041
3984.5241,0.014427
3986.3878,0.014788
3988.2515,0.014494
3990.1152,0.014302
3991.9788,0.014565
3993.8425,0.014663
3995.7062,0.014874
3997.5698,0.014597
3999.4335,0.014082
