Wavenumber,Intensity
650.4205,0.253142
652.2841,0.246092
654.1478,0.244102
656.0115,0.241638
657.8751,0.236981
659.7388,0.230513
661.6025,0.225863
663.4661,0.223618
665.3298,0.221933
667.1935,0.220026
669.0571,0.220777
670.9208,0.220219
672.7845,0.218942
674.6481,0.218431
676.5118,0.220264
678.3755,0.220429
680.2392,0.219834
682.1028,0.219562
683.9665,0.220532
685.8302,0.220480
687.6938,0.220405
689.5575,0.220082
691.4212,0.221321
693.2848,0.222967
695.1485,0.223434
697.0122,0.224009
698.8758,0.226654
700.7395,0.227416
702.6032,0.227176
704.4669,0.225135
706.3305,0.219598
708.1942,0.211141
710.0579,0.202256
711.9215,0.193648
713.7852,0.185137
715.6489,0.175938
717.5125,0.168153
719.3762,0.161627
721.2399,0.155048
723.1035,0.148830
724.9672,0.143335
726.8309,0.137714
728.6945,0.132616
730.5582,0.128020
732.4219,0.123391
734.2856,0.119646
736.1492,0.116479
738.0129,0.113951
739.8766,0.113751
741.7402,0.116169
743.6039,0.119651
745.4676,0.121524
747.3312,0.121863
749.1949,0.121729
751.0586,0.121345
752.9222,0.120543
754.7859,0.119824
756.6496,0.118949
758.5132,0.118123
760.3769,0.117489
762.2406,0.116338
764.1043,0.114794
765.9679,0.113616
767.8316,0.113151
769.6953,0.113059
771.5589,0.112406
773.4226,0.111549
775.2863,0.111360
777.1499,0.111579
779.0136,0.112074
780.8773,0.112932
782.7409,0.113775
784.6046,0.115423
786.4683,0.117236
788.3320,0.119109
790.1956,0.121134
792.0593,0.122857
793.9230,0.124723
795.7866,0.126764
797.6503,0.128563
799.5140,0.130284
801.3776,0.131413
803.2413,0.131709
805.1050,0.131221
806.9686,0.129901
808.8323,0.127738
810.6960,0.125199
812.5596,0.122174
814.4233,0.118628
816.2870,0.114880
818.1507,0.111720
820.0143,0.109304
821.8780,0.107442
823.7417,0.106525
825.6053,0.107311
827.4690,0.109560
829.3327,0.110887
831.1963,0.105377
833.0600,0.092988
834.9237,0.082566
836.7873,0.077993
838.6510,0.076416
840.5147,0.075619
842.3784,0.075379
844.2420,0.075203
846.1057,0.074745
847.9694,0.074232
849.8330,0.073649
851.6967,0.073054
853.5604,0.072562
855.4240,0.072348
857.2877,0.072354
859.1514,0.071903
861.0150,0.071167
862.8787,0.070741
864.7424,0.070264
866.6060,0.069756
868.4697,0.069554
870.3334,0.069399
872.1971,0.069255
874.0607,0.069367
875.9244,0.069705
877.7881,0.069873
879.6517,0.070151
881.5154,0.070947
883.3791,0.071788
885.2427,0.072520
887.1064,0.073492
888.9701,0.074637
890.8337,0.075804
892.6974,0.076924
894.5611,0.077977
896.4247,0.079284
898.2884,0.080910
900.1521,0.083045
902.0158,0.085891
903.8794,0.089388
905.7431,0.093909
907.6068,0.099654
909.4704,0.106198
911.3341,0.113556
913.1978,0.121677
915.0614,0.125293
916.9251,0.116227
918.7888,0.098873
920.6524,0.085727
922.5161,0.080241
924.3798,0.078776
926.2435,0.078684
928.1071,0.078913
929.9708,0.079235
931.8345,0.079672
933.6981,0.080113
935.5618,0.080512
937.4255,0.080821
939.2891,0.081042
941.1528,0.081254
943.0165,0.081551
944.8801,0.082027
946.7438,0.082877
948.6075,0.084161
950.4711,0.085755
952.3348,0.087465
954.1985,0.089364
956.0622,0.091498
957.9258,0.093726
959.7895,0.096107
961.6532,0.098781
963.5168,0.101782
965.3805,0.105269
967.2442,0.109321
969.1078,0.113839
970.9715,0.118831
972.8352,0.124767
974.6988,0.133007
976.5625,0.145941
978.4262,0.166989
980.2899,0.195363
982.1535,0.206980
984.0172,0.176898
985.8809,0.136988
987.7445,0.119176
989.6082,0.116639
991.4719,0.117392
993.3355,0.118416
995.1992,0.119424
997.0629,0.120312
998.9265,0.120966
1000.7902,0.121359
1002.6539,0.121856
1004.5175,0.122635
1006.3812,0.123484
1008.2449,0.124496
1010.1086,0.125636
1011.9722,0.126712
1013.8359,0.127768
1015.6996,0.128586
1017.5632,0.129105
1019.4269,0.129485
1021.2906,0.129768
1023.1542,0.129967
1025.0179,0.130103
1026.8816,0.130218
1028.7452,0.130482
1030.6089,0.131017
1032.4726,0.131781
1034.3362,0.132774
1036.1999,0.134144
1038.0636,0.135994
1039.9273,0.138293
1041.7909,0.141208
1043.6546,0.144634
1045.5183,0.148245
1047.3819,0.150955
1049.2456,0.150238
1051.1093,0.143683
1052.9729,0.132621
1054.8366,0.121697
1056.7003,0.114132
1058.5639,0.109942
1060.4276,0.107868
1062.2913,0.107011
1064.1550,0.107148
1066.0186,0.108375
1067.8823,0.110715
1069.7460,0.113920
1071.6096,0.117588
1073.4733,0.121181
1075.3370,0.124273
1077.2006,0.126671
1079.0643,0.128388
1080.9280,0.129676
1082.7916,0.130920
1084.6553,0.132393
1086.5190,0.134346
1088.3826,0.136889
1090.2463,0.140407
1092.1100,0.145143
1093.9737,0.150785
1095.8373,0.157280
1097.7010,0.164636
1099.5647,0.172619
1101.4283,0.180648
1103.2920,0.187712
1105.1557,0.192258
1107.0193,0.192385
1108.8830,0.186507
1110.7467,0.174794
1112.6103,0.159786
1114.4740,0.144443
1116.3377,0.130774
1118.2014,0.119723
1120.0650,0.111653
1121.9287,0.106256
1123.7924,0.102739
1125.6560,0.100144
1127.5197,0.097628
1129.3834,0.095059
1131.2470,0.092712
1133.1107,0.090829
1134.9744,0.089672
1136.8380,0.089321
1138.7017,0.089533
1140.5654,0.090148
1142.4290,0.090959
1144.2927,0.091685
1146.1564,0.092125
1148.0201,0.092232
1149.8837,0.092152
1151.7474,0.091887
1153.6111,0.091475
1155.4747,0.091037
1157.3384,0.090516
1159.2021,0.089998
1161.0657,0.089682
1162.9294,0.089846
1164.7931,0.090808
1166.6567,0.092651
1168.5204,0.095257
1170.3841,0.098010
1172.2477,0.099500
1174.1114,0.097850
1175.9751,0.092674
1177.8388,0.086159
1179.7024,0.080943
1181.5661,0.077942
1183.4298,0.076638
1185.2934,0.076456
1187.1571,0.076751
1189.0208,0.077015
1190.8844,0.077237
1192.7481,0.077495
1194.6118,0.077796
1196.4754,0.078224
1198.3391,0.078755
1200.2028,0.079290
1202.0665,0.079777
1203.9301,0.080212
1205.7938,0.080569
1207.6575,0.080887
1209.5211,0.081299
1211.3848,0.081795
1213.2485,0.082243
1215.1121,0.082702
1216.9758,0.083352
1218.8395,0.084126
1220.7031,0.084877
1222.5668,0.085577
1224.4305,0.086279
1226.2941,0.087012
1228.1578,0.087757
1230.0215,0.088522
1231.8852,0.089236
1233.7488,0.089935
1235.6125,0.090615
1237.4762,0.091227
1239.3398,0.091882
1241.2035,0.092586
1243.0672,0.093303
1244.9308,0.093979
1246.7945,0.094629
1248.6582,0.095367
1250.5218,0.096250
1252.3855,0.097173
1254.2492,0.098041
1256.1129,0.098918
1257.9765,0.099949
1259.8402,0.101235
1261.7039,0.102533
1263.5675,0.103777
1265.4312,0.104930
1267.2949,0.105562
1269.1585,0.105637
1271.0222,0.105537
1272.8859,0.105558
1274.7495,0.105973
1276.6132,0.106808
1278.4769,0.108050
1280.3405,0.109778
1282.2042,0.111776
1284.0679,0.113901
1285.9316,0.116465
1287.7952,0.119784
1289.6589,0.123562
1291.5226,0.127781
1293.3862,0.132783
1295.2499,0.138638
1297.1136,0.145594
1298.9772,0.153853
1300.8409,0.163441
1302.7046,0.173166
1304.5682,0.179129
1306.4319,0.176242
1308.2956,0.160746
1310.1592,0.135344
1312.0229,0.110680
1313.8866,0.095353
1315.7503,0.090219
1317.6139,0.090879
1319.4776,0.093818
1321.3413,0.097156
1323.2049,0.100497
1325.0686,0.103878
1326.9323,0.107039
1328.7959,0.110100
1330.6596,0.112998
1332.5233,0.115220
1334.3869,0.116494
1336.2506,0.117334
1338.1143,0.119086
1339.9780,0.121735
1341.8416,0.122766
1343.7053,0.122800
1345.5690,0.123533
1347.4326,0.124784
1349.2963,0.126476
1351.1600,0.128444
1353.0236,0.130768
1354.8873,0.133715
1356.7510,0.136520
1358.6146,0.138789
1360.4783,0.142110
1362.3420,0.148128
1364.2056,0.153386
1366.0693,0.155790
1367.9330,0.159651
1369.7967,0.164130
1371.6603,0.167436
1373.5240,0.172865
1375.3877,0.179336
1377.2513,0.183422
1379.1150,0.188877
1380.9787,0.196015
1382.8423,0.203175
1384.7060,0.210910
1386.5697,0.221511
1388.4333,0.233490
1390.2970,0.238842
1392.1607,0.240328
1394.0244,0.239766
1395.8880,0.233100
1397.7517,0.222222
1399.6154,0.209826
1401.4790,0.197756
1403.3427,0.186439
1405.2064,0.169738
1407.0700,0.148373
1408.9337,0.127945
1410.7974,0.109500
1412.6610,0.096917
1414.5247,0.091511
1416.3884,0.091731
1418.2520,0.098067
1420.1157,0.108957
1421.9794,0.113666
1423.8431,0.111235
1425.7067,0.101005
1427.5704,0.089656
1429.4341,0.082298
1431.2977,0.079183
1433.1614,0.078896
1435.0251,0.080640
1436.8887,0.085056
1438.7524,0.087550
1440.6161,0.088340
1442.4797,0.090032
1444.3434,0.091474
1446.2071,0.092733
1448.0707,0.093487
1449.9344,0.091577
1451.7981,0.087834
1453.6618,0.084150
1455.5254,0.083320
1457.3891,0.088244
1459.2528,0.090312
1461.1164,0.088553
1462.9801,0.088385
1464.8438,0.089306
1466.7074,0.088013
1468.5711,0.085011
1470.4348,0.083278
1472.2984,0.083917
1474.1621,0.084722
1476.0258,0.084083
1477.8895,0.083653
1479.7531,0.083304
1481.6168,0.083619
1483.4805,0.083452
1485.3441,0.083171
1487.2078,0.084180
1489.0715,0.087006
1490.9351,0.089084
1492.7988,0.088091
1494.6625,0.087904
1496.5261,0.090868
1498.3898,0.093904
1500.2535,0.094202
1502.1171,0.093016
1503.9808,0.092222
1505.8445,0.095459
1507.7082,0.104737
1509.5718,0.103996
1511.4355,0.102987
1513.2992,0.103442
1515.1628,0.104522
1517.0265,0.106745
1518.8902,0.108020
1520.7538,0.110102
1522.6175,0.114249
1524.4812,0.114524
1526.3448,0.116051
1528.2085,0.117464
1530.0722,0.117295
1531.9359,0.118765
1533.7995,0.122573
1535.6632,0.122484
1537.5269,0.121488
1539.3905,0.126194
1541.2542,0.135500
1543.1179,0.136965
1544.9815,0.138530
1546.8452,0.139475
1548.7089,0.141071
1550.5725,0.144404
1552.4362,0.146528
1554.2999,0.148055
1556.1635,0.150408
1558.0272,0.157788
1559.8909,0.175254
1561.7546,0.170462
1563.6182,0.168279
1565.4819,0.170754
1567.3456,0.173936
1569.2092,0.179413
1571.0729,0.185120
1572.9366,0.185573
1574.8002,0.189387
1576.6639,0.198905
1578.5276,0.202992
1580.3912,0.203716
1582.2549,0.206809
1584.1186,0.209599
1585.9822,0.211598
1587.8459,0.212860
1589.7096,0.213376
1591.5733,0.212730
1593.4369,0.211706
1595.3006,0.210083
1597.1643,0.207671
1599.0279,0.204676
1600.8916,0.201684
1602.7553,0.198653
1604.6189,0.196136
1606.4826,0.194077
1608.3463,0.192086
1610.2099,0.189518
1612.0736,0.185823
1613.9373,0.181310
1615.8010,0.176256
1617.6646,0.167837
1619.5283,0.159519
1621.3920,0.153345
1623.2556,0.144954
1625.1193,0.135111
1626.9830,0.126800
1628.8466,0.116368
1630.7103,0.105557
1632.5740,0.096947
1634.4376,0.088564
1636.3013,0.078818
1638.1650,0.073527
1640.0286,0.072482
1641.8923,0.071484
1643.7560,0.071858
1645.6197,0.074051
1647.4833,0.077503
1649.3470,0.078678
1651.2107,0.080943
1653.0743,0.088148
1654.9380,0.093805
1656.8017,0.092470
1658.6653,0.092914
1660.5290,0.093403
1662.3927,0.093515
1664.2563,0.092230
1666.1200,0.090354
1667.9837,0.089024
1669.8474,0.088003
1671.7110,0.086884
1673.5747,0.087539
1675.4384,0.090579
1677.3020,0.093893
1679.1657,0.096217
1681.0294,0.100105
1682.8930,0.104999
1684.7567,0.113150
1686.6204,0.115230
1688.4840,0.113711
1690.3477,0.111852
1692.2114,0.108419
1694.0750,0.104654
1695.9387,0.100420
1697.8024,0.095470
1699.6661,0.091979
1701.5297,0.083594
1703.3934,0.076769
1705.2571,0.068706
1707.1207,0.057940
1708.9844,0.050789
1710.8481,0.045602
1712.7117,0.041213
1714.5754,0.038181
1716.4391,0.035621
1718.3027,0.034350
1720.1664,0.033055
1722.0301,0.032043
1723.8937,0.030260
1725.7574,0.027850
1727.6211,0.025495
1729.4848,0.023678
1731.3484,0.022114
1733.2121,0.021175
1735.0758,0.019684
1736.9394,0.019116
1738.8031,0.019174
1740.6668,0.018899
1742.5304,0.018253
1744.3941,0.018026
1746.2578,0.017556
1748.1214,0.017237
1749.9851,0.016766
1751.8488,0.016485
1753.7125,0.016236
1755.5761,0.016355
1757.4398,0.016346
1759.3035,0.016318
1761.1671,0.016325
1763.0308,0.016372
1764.8945,0.016095
1766.7581,0.016057
1768.6218,0.015878
1770.4855,0.015903
1772.3491,0.016013
1774.2128,0.015887
1776.0765,0.015728
1777.9401,0.015997
1779.8038,0.016112
1781.6675,0.016277
1783.5312,0.016167
1785.3948,0.016257
1787.2585,0.016130
1789.1222,0.016046
1790.9858,0.015977
1792.8495,0.016172
1794.7132,0.016094
1796.5768,0.016175
1798.4405,0.016128
1800.3042,0.016362
1802.1678,0.016584
1804.0315,0.016587
1805.8952,0.016441
1807.7589,0.016648
1809.6225,0.016848
1811.4862,0.016886
1813.3499,0.016703
1815.2135,0.016715
1817.0772,0.016528
1818.9409,0.016518
1820.8045,0.016337
1822.6682,0.016262
1824.5319,0.016323
1826.3955,0.016475
1828.2592,0.016457
1830.1229,0.016555
1831.9865,0.016014
1833.8502,0.016086
1835.7139,0.016243
1837.5776,0.016175
1839.4412,0.015969
1841.3049,0.016327
1843.1686,0.016622
1845.0322,0.016488
1846.8959,0.015889
1848.7596,0.016274
1850.6232,0.016619
1852.4869,0.016734
1854.3506,0.016624
1856.2142,0.016605
1858.0779,0.016684
1859.9416,0.016647
1861.8052,0.016570
1863.6689,0.016773
1865.5326,0.016450
1867.3963,0.016439
1869.2599,0.016425
1871.1236,0.016242
1872.9873,0.016130
1874.8509,0.016293
1876.7146,0.016578
1878.5783,0.016823
1880.4419,0.016515
1882.3056,0.016522
1884.1693,0.016502
1886.0329,0.016573
1887.8966,0.016706
1889.7603,0.016830
1891.6240,0.016547
1893.4876,0.016480
1895.3513,0.016244
1897.2150,0.016299
1899.0786,0.016558
1900.9423,0.016827
1902.8060,0.016532
1904.6696,0.016465
1906.5333,0.016635
1908.3970,0.016767
1910.2606,0.016514
1912.1243,0.016702
1913.9880,0.016345
1915.8516,0.015981
1917.7153,0.015995
1919.5790,0.016197
1921.4427,0.016005
1923.3063,0.016265
1925.1700,0.016021
1927.0337,0.016173
1928.8973,0.016062
1930.7610,0.015825
1932.6247,0.015798
1934.4883,0.016288
1936.3520,0.015990
1938.2157,0.015817
1940.0793,0.015690
1941.9430,0.015436
1943.8067,0.014274
1945.6704,0.013992
1947.5340,0.013982
1949.3977,0.014035
1951.2614,0.013603
1953.1250,0.013728
1954.9887,0.013581
1956.8524,0.013116
1958.7160,0.011458
1960.5797,0.010987
1962.4434,0.010709
1964.3070,0.009710
1966.1707,0.007523
1968.0344,0.006435
1969.8980,0.005310
1971.7617,0.006203
1973.6254,0.006852
1975.4891,0.007310
1977.3527,0.006711
1979.2164,0.007399
1981.0801,0.008766
1982.9437,0.009785
1984.8074,0.010501
1986.6711,0.012111
1988.5347,0.011800
1990.3984,0.011870
1992.2621,0.012167
1994.1257,0.011126
1995.9894,0.010186
1997.8531,0.011496
1999.7167,0.011418
2001.5804,0.010803
2003.4441,0.010325
2005.3078,0.010577
2007.1714,0.009346
2009.0351,0.009196
2010.8988,0.009061
2012.7624,0.008723
2014.6261,0.008567
2016.4898,0.008683
2018.3534,0.007150
2020.2171,0.007077
2022.0808,0.007370
2023.9444,0.008572
2025.8081,0.008226
2027.6718,0.007136
2029.5355,0.008317
2031.3991,0.009429
2033.2628,0.008106
2035.1265,0.009076
2036.9901,0.010269
2038.8538,0.011147
2040.7175,0.011104
2042.5811,0.010504
2044.4448,0.010455
2046.3085,0.012659
2048.1721,0.012741
2050.0358,0.013082
2051.8995,0.014119
2053.7631,0.014560
2055.6268,0.014813
2057.4905,0.015810
2059.3542,0.016126
2061.2178,0.016408
2063.0815,0.016848
2064.9452,0.016601
2066.8088,0.016579
2068.6725,0.017350
2070.5362,0.017541
2072.3998,0.017636
2074.2635,0.017784
2076.1272,0.018308
2077.9908,0.018609
2079.8545,0.019129
2081.7182,0.019446
2083.5819,0.019412
2085.4455,0.019238
2087.3092,0.019502
2089.1729,0.019461
2091.0365,0.019489
2092.9002,0.019224
2094.7639,0.019107
2096.6275,0.018995
2098.4912,0.019196
2100.3549,0.019372
2102.2185,0.020025
2104.0822,0.019967
2105.9459,0.019774
2107.8095,0.019628
2109.6732,0.020164
2111.5369,0.020574
2113.4006,0.020702
2115.2642,0.020481
2117.1279,0.020207
2118.9916,0.020099
2120.8552,0.020542
2122.7189,0.020974
2124.5826,0.021379
2126.4462,0.020938
2128.3099,0.019875
2130.1736,0.019232
2132.0372,0.019259
2133.9009,0.017822
2135.7646,0.016541
2137.6282,0.016501
2139.4919,0.016768
2141.3556,0.016393
2143.2193,0.016166
2145.0829,0.015572
2146.9466,0.015029
2148.8103,0.014006
2150.6739,0.013904
2152.5376,0.011624
2154.4013,0.009399
2156.2649,0.008037
2158.1286,0.007281
2159.9923,0.007086
2161.8559,0.009160
2163.7196,0.010964
2165.5833,0.011614
2167.4470,0.011583
2169.3106,0.012702
2171.1743,0.013420
2173.0380,0.012975
2174.9016,0.011893
2176.7653,0.013027
2178.6290,0.014032
2180.4926,0.013900
2182.3563,0.013266
2184.2200,0.014111
2186.0836,0.014677
2187.9473,0.016023
2189.8110,0.016446
2191.6746,0.016399
2193.5383,0.016304
2195.4020,0.015902
2197.2657,0.015925
2199.1293,0.016788
2200.9930,0.017438
2202.8567,0.018700
2204.7203,0.018932
2206.5840,0.018361
2208.4477,0.017263
2210.3113,0.017540
2212.1750,0.018614
2214.0387,0.018942
2215.9023,0.019140
2217.7660,0.020196
2219.6297,0.021278
2221.4934,0.021581
2223.3570,0.021013
2225.2207,0.021287
2227.0844,0.020895
2228.9480,0.021025
2230.8117,0.021098
2232.6754,0.021400
2234.5390,0.021874
2236.4027,0.022495
2238.2664,0.022442
2240.1300,0.022394
2241.9937,0.022889
2243.8574,0.023408
2245.7210,0.023266
2247.5847,0.023126
2249.4484,0.022734
2251.3121,0.023316
2253.1757,0.023752
2255.0394,0.023973
2256.9031,0.024434
2258.7667,0.025116
2260.6304,0.024930
2262.4941,0.024909
2264.3577,0.025335
2266.2214,0.025400
2268.0851,0.026033
2269.9487,0.027089
2271.8124,0.027242
2273.6761,0.027431
2275.5397,0.027428
2277.4034,0.027583
2279.2671,0.028148
2281.1308,0.028816
2282.9944,0.029308
2284.8581,0.029535
2286.7218,0.029273
2288.5854,0.028944
2290.4491,0.028803
2292.3128,0.029297
2294.1764,0.029756
2296.0401,0.029889
2297.9038,0.030139
2299.7674,0.030135
2301.6311,0.030042
2303.4948,0.029873
2305.3585,0.029953
2307.2221,0.029874
2309.0858,0.029763
2310.9495,0.030040
2312.8131,0.030136
2314.6768,0.030063
2316.5405,0.030166
2318.4041,0.030396
2320.2678,0.030373
2322.1315,0.030682
2323.9951,0.030968
2325.8588,0.030663
2327.7225,0.029749
2329.5861,0.029155
2331.4498,0.029115
2333.3135,0.029516
2335.1772,0.029506
2337.0408,0.029293
2338.9045,0.029436
2340.7682,0.029809
2342.6318,0.029952
2344.4955,0.029810
2346.3592,0.029647
2348.2228,0.029479
2350.0865,0.029305
2351.9502,0.029290
2353.8138,0.029407
2355.6775,0.029287
2357.5412,0.028957
2359.4049,0.029040
2361.2685,0.029237
2363.1322,0.029292
2364.9959,0.029252
2366.8595,0.029408
2368.7232,0.029768
2370.5869,0.030315
2372.4505,0.030760
2374.3142,0.030763
2376.1779,0.030768
2378.0415,0.030872
2379.9052,0.030703
2381.7689,0.030551
2383.6325,0.030573
2385.4962,0.030655
2387.3599,0.030506
2389.2236,0.030314
2391.0872,0.030341
2392.9509,0.030717
2394.8146,0.030889
2396.6782,0.030895
2398.5419,0.030832
2400.4056,0.030687
2402.2692,0.030693
2404.1329,0.030951
2405.9966,0.031152
2407.8602,0.031373
2409.7239,0.031477
2411.5876,0.031366
2413.4512,0.031512
2415.3149,0.031503
2417.1786,0.031346
2419.0423,0.031542
2420.9059,0.031751
2422.7696,0.031990
2424.6333,0.032082
2426.4969,0.032000
2428.3606,0.031745
2430.2243,0.031708
2432.0879,0.032084
2433.9516,0.032280
2435.8153,0.032521
2437.6789,0.032841
2439.5426,0.032631
2441.4063,0.032477
2443.2700,0.032405
2445.1336,0.032437
2446.9973,0.032461
2448.8610,0.032401
2450.7246,0.032382
2452.5883,0.032182
2454.4520,0.031973
2456.3156,0.032125
2458.1793,0.032265
2460.0430,0.032515
2461.9066,0.032308
2463.7703,0.031861
2465.6340,0.031644
2467.4976,0.031597
2469.3613,0.031898
2471.2250,0.032057
2473.0887,0.031943
2474.9523,0.031894
2476.8160,0.031923
2478.6797,0.032153
2480.5433,0.032613
2482.4070,0.032614
2484.2707,0.032702
2486.1343,0.033116
2487.9980,0.033476
2489.8617,0.033480
2491.7253,0.033125
2493.5890,0.033480
2495.4527,0.033997
2497.3164,0.034242
2499.1800,0.033934
2501.0437,0.033965
2502.9074,0.033950
2504.7710,0.033426
2506.6347,0.033247
2508.4984,0.033523
2510.3620,0.034021
2512.2257,0.034116
2514.0894,0.033922
2515.9530,0.033902
2517.8167,0.034261
2519.6804,0.034636
2521.5440,0.034757
2523.4077,0.034836
2525.2714,0.035068
2527.1351,0.035040
2528.9987,0.034976
2530.8624,0.034906
2532.7261,0.034657
2534.5897,0.034684
2536.4534,0.034843
2538.3171,0.035118
2540.1807,0.035310
2542.0444,0.035412
2543.9081,0.035238
2545.7717,0.034833
2547.6354,0.034653
2549.4991,0.034680
2551.3627,0.035001
2553.2264,0.035187
2555.0901,0.035226
2556.9538,0.035514
2558.8174,0.035814
2560.6811,0.035890
2562.5448,0.035911
2564.4084,0.035827
2566.2721,0.035963
2568.1358,0.036268
2569.9994,0.036487
2571.8631,0.036531
2573.7268,0.036780
2575.5904,0.036977
2577.4541,0.037007
2579.3178,0.037141
2581.1815,0.037308
2583.0451,0.037425
2584.9088,0.038036
2586.7725,0.038320
2588.6361,0.038229
2590.4998,0.038136
2592.3635,0.038439
2594.2271,0.038824
2596.0908,0.038904
2597.9545,0.038936
2599.8181,0.039173
2601.6818,0.039547
2603.5455,0.039747
2605.4091,0.039782
2607.2728,0.039710
2609.1365,0.039846
2611.0002,0.040065
2612.8638,0.040266
2614.7275,0.040813
2616.5912,0.040864
2618.4548,0.040648
2620.3185,0.041013
2622.1822,0.041471
2624.0458,0.041695
2625.9095,0.041982
2627.7732,0.042616
2629.6368,0.043236
2631.5005,0.043475
2633.3642,0.043548
2635.2279,0.043729
2637.0915,0.044060
2638.9552,0.044372
2640.8189,0.044484
2642.6825,0.044777
2644.5462,0.045295
2646.4099,0.045521
2648.2735,0.045555
2650.1372,0.045621
2652.0009,0.045874
2653.8645,0.046153
2655.7282,0.046274
2657.5919,0.046433
2659.4555,0.046564
2661.3192,0.046627
2663.1829,0.046695
2665.0466,0.046729
2666.9102,0.046886
2668.7739,0.047041
2670.6376,0.047134
2672.5012,0.047418
2674.3649,0.047693
2676.2286,0.047811
2678.0922,0.048012
2679.9559,0.048503
2681.8196,0.048874
2683.6832,0.048893
2685.5469,0.048949
2687.4106,0.049135
2689.2742,0.049445
2691.1379,0.049889
2693.0016,0.050101
2694.8653,0.050312
2696.7289,0.050720
2698.5926,0.051000
2700.4563,0.051315
2702.3199,0.051736
2704.1836,0.052163
2706.0473,0.052434
2707.9109,0.052499
2709.7746,0.052843
2711.6383,0.053602
2713.5019,0.054075
2715.3656,0.054270
2717.2293,0.054763
2719.0930,0.055131
2720.9566,0.055380
2722.8203,0.055836
2724.6840,0.056428
2726.5476,0.057111
2728.4113,0.057675
2730.2750,0.058139
2732.1386,0.058600
2734.0023,0.059055
2735.8660,0.059405
2737.7296,0.059985
2739.5933,0.060658
2741.4570,0.061298
2743.3206,0.061977
2745.1843,0.062446
2747.0480,0.062910
2748.9117,0.063885
2750.7753,0.064818
2752.6390,0.065413
2754.5027,0.065872
2756.3663,0.066357
2758.2300,0.066997
2760.0937,0.067664
2761.9573,0.068250
2763.8210,0.068840
2765.6847,0.069466
2767.5483,0.070245
2769.4120,0.070995
2771.2757,0.071655
2773.1394,0.072475
2775.0030,0.073797
2776.8667,0.074892
2778.7304,0.075110
2780.5940,0.075264
2782.4577,0.075804
2784.3214,0.075828
2786.1850,0.075496
2788.0487,0.075086
2789.9124,0.074715
2791.7760,0.074239
2793.6397,0.073730
2795.5034,0.072978
2797.3670,0.072256
2799.2307,0.071644
2801.0944,0.071230
2802.9581,0.070864
2804.8217,0.070234
2806.6854,0.069545
2808.5491,0.069246
2810.4127,0.069134
2812.2764,0.069107
2814.1401,0.068934
2816.0037,0.068986
2817.8674,0.069188
2819.7311,0.069314
2821.5947,0.069651
2823.4584,0.070010
2825.3221,0.069884
2827.1857,0.069651
2829.0494,0.069284
2830.9131,0.068791
2832.7768,0.068627
2834.6404,0.068890
2836.5041,0.069086
2838.3678,0.069504
2840.2314,0.069835
2842.0951,0.070125
2843.9588,0.070515
2845.8224,0.071016
2847.6861,0.071601
2849.5498,0.072579
2851.4134,0.073548
2853.2771,0.074200
2855.1408,0.074668
2857.0045,0.075712
2858.8681,0.076886
2860.7318,0.077454
2862.5955,0.077962
2864.4591,0.078613
2866.3228,0.078902
2868.1865,0.079274
2870.0501,0.079763
2871.9138,0.080343
2873.7775,0.081021
2875.6411,0.081676
2877.5048,0.082226
2879.3685,0.082850
2881.2321,0.083134
2883.0958,0.083739
2884.9595,0.084459
2886.8232,0.085182
2888.6868,0.085729
2890.5505,0.086094
2892.4142,0.086719
2894.2778,0.087524
2896.1415,0.087920
2898.0052,0.088297
2899.8688,0.088375
2901.7325,0.088229
2903.5962,0.088025
2905.4598,0.088280
2907.3235,0.088850
2909.1872,0.089257
2911.0509,0.089939
2912.9145,0.091020
2914.7782,0.091783
2916.6419,0.092743
2918.5055,0.093450
2920.3692,0.093924
2922.2329,0.094657
2924.0965,0.095543
2925.9602,0.096087
2927.8239,0.096491
2929.6875,0.096963
2931.5512,0.097690
2933.4149,0.098181
2935.2785,0.098500
2937.1422,0.098914
2939.0059,0.099126
2940.8696,0.099095
2942.7332,0.099330
2944.5969,0.099486
2946.4606,0.099475
2948.3242,0.099647
2950.1879,0.100040
2952.0516,0.100335
2953.9152,0.100321
2955.7789,0.100337
2957.6426,0.100952
2959.5062,0.101703
2961.3699,0.102534
2963.2336,0.103184
2965.0972,0.103875
2966.9609,0.104773
2968.8246,0.105775
2970.6883,0.106575
2972.5519,0.107325
2974.4156,0.107931
2976.2793,0.108635
2978.1429,0.109318
2980.0066,0.110060
2981.8703,0.110322
2983.7339,0.110490
2985.5976,0.110609
2987.4613,0.111205
2989.3249,0.111953
2991.1886,0.112791
2993.0523,0.113913
2994.9160,0.114737
2996.7796,0.115513
2998.6433,0.116896
3000.5070,0.118035
3002.3706,0.119075
3004.2343,0.119632
3006.0980,0.120116
3007.9616,0.121071
3009.8253,0.122498
3011.6890,0.123703
3013.5526,0.124708
3015.4163,0.125087
3017.2800,0.125727
3019.1436,0.126336
3021.0073,0.126662
3022.8710,0.127262
3024.7347,0.128164
3026.5983,0.128988
3028.4620,0.129451
3030.3257,0.129413
3032.1893,0.129991
3034.0530,0.130542
3035.9167,0.130887
3037.7803,0.131287
3039.6440,0.132153
3041.5077,0.133020
3043.3713,0.133475
3045.2350,0.133486
3047.0987,0.133763
3048.9624,0.134212
3050.8260,0.134843
3052.6897,0.135225
3054.5534,0.135621
3056.4170,0.136146
3058.2807,0.136789
3060.1444,0.136870
3062.0080,0.137070
3063.8717,0.137132
3065.7354,0.136803
3067.5990,0.136872
3069.4627,0.137306
3071.3264,0.137165
3073.1900,0.136822
3075.0537,0.136806
3076.9174,0.137303
3078.7811,0.137062
3080.6447,0.136690
3082.5084,0.136385
3084.3721,0.136140
3086.2357,0.135537
3088.0994,0.134806
3089.9631,0.134065
3091.8267,0.133390
3093.6904,0.132663
3095.5541,0.132044
3097.4177,0.130873
3099.2814,0.129799
3101.1451,0.129215
3103.0087,0.128543
3104.8724,0.127298
3106.7361,0.125983
3108.5998,0.125411
3110.4634,0.124865
3112.3271,0.123378
3114.1908,0.122510
3116.0544,0.121529
3117.9181,0.120603
3119.7818,0.120047
3121.6454,0.119335
3123.5091,0.118636
3125.3728,0.117381
3127.2364,0.115917
3129.1001,0.115711
3130.9638,0.115339
3132.8275,0.114435
3134.6911,0.113288
3136.5548,0.112526
3138.4185,0.112331
3140.2821,0.112338
3142.1458,0.111843
3144.0095,0.111251
3145.8731,0.110589
3147.7368,0.110158
3149.6005,0.109446
3151.4641,0.109055
3153.3278,0.109073
3155.1915,0.108979
3157.0551,0.108070
3158.9188,0.107001
3160.7825,0.106372
3162.6462,0.105958
3164.5098,0.105634
3166.3735,0.105257
3168.2372,0.104545
3170.1008,0.104328
3171.9645,0.104189
3173.8282,0.104018
3175.6918,0.103634
3177.5555,0.103268
3179.4192,0.103030
3181.2828,0.102992
3183.1465,0.102564
3185.0102,0.102136
3186.8739,0.102273
3188.7375,0.102299
3190.6012,0.102010
3192.4649,0.102423
3194.3285,0.102624
3196.1922,0.102431
3198.0559,0.102228
3199.9195,0.102100
3201.7832,0.101908
3203.6469,0.102557
3205.5105,0.103429
3207.3742,0.103386
3209.2379,0.103002
3211.1015,0.103226
3212.9652,0.103622
3214.8289,0.103550
3216.6926,0.103431
3218.5562,0.104105
3220.4199,0.104990
3222.2836,0.104981
3224.1472,0.104102
3226.0109,0.104255
3227.8746,0.105139
3229.7382,0.105661
3231.6019,0.105616
3233.4656,0.106209
3235.3292,0.107006
3237.1929,0.107299
3239.0566,0.107054
3240.9202,0.107083
3242.7839,0.107586
3244.6476,0.108749
3246.5113,0.109640
3248.3749,0.109621
3250.2386,0.109761
3252.1023,0.110245
3253.9659,0.110346
3255.8296,0.110577
3257.6933,0.111301
3259.5569,0.112626
3261.4206,0.112844
3263.2843,0.112235
3265.1479,0.111718
3267.0116,0.112114
3268.8753,0.112448
3270.7390,0.112434
3272.6026,0.112770
3274.4663,0.112861
3276.3300,0.112019
3278.1936,0.111622
3280.0573,0.111407
3281.9210,0.111229
3283.7846,0.111285
3285.6483,0.111253
3287.5120,0.110380
3289.3756,0.109009
3291.2393,0.107420
3293.1030,0.106181
3294.9666,0.105315
3296.8303,0.105126
3298.6940,0.104307
3300.5577,0.103136
3302.4213,0.102488
3304.2850,0.102130
3306.1487,0.101481
3308.0123,0.100468
3309.8760,0.099503
3311.7397,0.099492
3313.6033,0.099122
3315.4670,0.098926
3317.3307,0.098744
3319.1943,0.098476
3321.0580,0.098822
3322.9217,0.099810
3324.7854,0.100670
3326.6490,0.101297
3328.5127,0.101445
3330.3764,0.101267
3332.2400,0.100543
3334.1037,0.099940
3335.9674,0.098854
3337.8310,0.098077
3339.6947,0.097671
3341.5584,0.096304
3343.4220,0.094633
3345.2857,0.093559
3347.1494,0.091777
3349.0130,0.089828
3350.8767,0.089094
3352.7404,0.088308
3354.6041,0.086326
3356.4677,0.084847
3358.3314,0.083847
3360.1951,0.082951
3362.0587,0.081561
3363.9224,0.080029
3365.7861,0.079501
3367.6497,0.078898
3369.5134,0.078585
3371.3771,0.079528
3373.2407,0.079448
3375.1044,0.078251
3376.9681,0.078105
3378.8317,0.078197
3380.6954,0.077871
3382.5591,0.078958
3384.4228,0.079586
3386.2864,0.079380
3388.1501,0.079376
3390.0138,0.080343
3391.8774,0.081069
3393.7411,0.081445
3395.6048,0.081008
3397.4684,0.080072
3399.3321,0.080209
3401.1958,0.080482
3403.0594,0.079551
3404.9231,0.077929
3406.7868,0.076337
3408.6505,0.075062
3410.5141,0.073490
3412.3778,0.071119
3414.2415,0.068745
3416.1051,0.066891
3417.9688,0.064679
3419.8325,0.062462
3421.6961,0.061124
3423.5598,0.060591
3425.4235,0.059358
3427.2871,0.057257
3429.1508,0.055352
3431.0145,0.053839
3432.8781,0.051903
3434.7418,0.050403
3436.6055,0.049353
3438.4692,0.048376
3440.3328,0.047791
3442.1965,0.046949
3444.0602,0.045699
3445.9238,0.045204
3447.7875,0.044508
3449.6512,0.043627
3451.5148,0.042828
3453.3785,0.041854
3455.2422,0.041108
3457.1058,0.040738
3458.9695,0.040262
3460.8332,0.039755
3462.6969,0.039213
3464.5605,0.038566
3466.4242,0.038054
3468.2879,0.037428
3470.1515,0.036584
3472.0152,0.035936
3473.8789,0.034655
3475.7425,0.033267
3477.6062,0.032962
3479.4699,0.033216
3481.3335,0.032717
3483.1972,0.032142
3485.0609,0.031136
3486.9245,0.029823
3488.7882,0.029354
3490.6519,0.029470
3492.5156,0.029583
3494.3792,0.028695
3496.2429,0.027346
3498.1066,0.026669
3499.9702,0.026551
3501.8339,0.026719
3503.6976,0.026277
3505.5612,0.025031
3507.4249,0.023938
3509.2886,0.023452
3511.1522,0.022904
3513.0159,0.022287
3514.8796,0.022337
3516.7432,0.021781
3518.6069,0.020305
3520.4706,0.020194
3522.3343,0.020816
3524.1979,0.019826
3526.0616,0.018738
3527.9253,0.018891
3529.7889,0.018727
3531.6526,0.018107
3533.5163,0.017738
3535.3799,0.017959
3537.2436,0.017775
3539.1073,0.016847
3540.9709,0.016203
3542.8346,0.016222
3544.6983,0.016282
3546.5620,0.015697
3548.4256,0.014428
3550.2893,0.014467
3552.1530,0.014845
3554.0166,0.014063
3555.8803,0.013747
3557.7440,0.014323
3559.6076,0.014437
3561.4713,0.014259
3563.3350,0.014275
3565.1986,0.013023
3567.0623,0.011255
3568.9260,0.009677
3570.7896,0.010135
3572.6533,0.012152
3574.5170,0.012273
3576.3807,0.011382
3578.2443,0.011286
3580.1080,0.010969
3581.9717,0.010882
3583.8353,0.011366
3585.6990,0.011729
3587.5627,0.011266
3589.4263,0.009583
3591.2900,0.009552
3593.1537,0.010190
3595.0173,0.009462
3596.8810,0.009279
3598.7447,0.010862
3600.6084,0.011309
3602.4720,0.010468
3604.3357,0.010374
3606.1994,0.010763
3608.0630,0.010564
3609.9267,0.009220
3611.7904,0.008480
3613.6540,0.009305
3615.5177,0.009766
3617.3814,0.009719
3619.2450,0.009324
3621.1087,0.008650
3622.9724,0.008820
3624.8360,0.009345
3626.6997,0.009782
3628.5634,0.008940
3630.4271,0.007058
3632.2907,0.007911
3634.1544,0.009833
3636.0181,0.010641
3637.8817,0.011004
3639.7454,0.011392
3641.6091,0.011366
3643.4727,0.010890
3645.3364,0.010470
3647.2001,0.010095
3649.0637,0.007622
3650.9274,0.005334
3652.7911,0.007432
3654.6547,0.009921
3656.5184,0.010759
3658.3821,0.010216
3660.2458,0.010392
3662.1094,0.010799
3663.9731,0.010392
3665.8368,0.010472
3667.7004,0.010844
3669.5641,0.009675
3671.4278,0.007429
3673.2914,0.008003
3675.1551,0.009020
3677.0188,0.008081
3678.8824,0.008864
3680.7461,0.010120
3682.6098,0.010393
3684.4735,0.011004
3686.3371,0.011325
3688.2008,0.010360
3690.0645,0.008509
3691.9281,0.008166
3693.7918,0.009453
3695.6555,0.010544
3697.5191,0.011425
3699.3828,0.011461
3701.2465,0.011108
3703.1101,0.011099
3704.9738,0.010971
3706.8375,0.011195
3708.7011,0.011265
3710.5648,0.010582
3712.4285,0.009865
3714.2922,0.009784
3716.1558,0.010628
3718.0195,0.011725
3719.8832,0.011941
3721.7468,0.010959
3723.6105,0.010426
3725.4742,0.010995
3727.3378,0.011188
3729.2015,0.011053
3731.0652,0.010911
3732.9288,0.010253
3734.7925,0.009432
3736.6562,0.008484
3738.5199,0.008470
3740.3835,0.010047
3742.2472,0.010505
3744.1109,0.009251
3745.9745,0.007127
3747.8382,0.007931
3749.7019,0.009905
3751.5655,0.009409
3753.4292,0.009194
3755.2929,0.010775
3757.1565,0.011778
3759.0202,0.012151
3760.8839,0.012188
3762.7475,0.012136
3764.6112,0.012203
3766.4749,0.012405
3768.3386,0.012654
3770.2022,0.012605
3772.0659,0.012612
3773.9296,0.013202
3775.7932,0.013536
3777.6569,0.013497
3779.5206,0.013404
3781.3842,0.013664
3783.2479,0.013868
3785.1116,0.013412
3786.9752,0.013030
3788.8389,0.013230
3790.7026,0.013542
3792.5662,0.013812
3794.4299,0.013899
3796.2936,0.013472
3798.1573,0.013531
3800.0209,0.013456
3801.8846,0.012865
3803.7483,0.012686
3805.6119,0.012452
3807.4756,0.012926
3809.3393,0.013789
3811.2029,0.013854
3813.0666,0.013395
3814.9303,0.013376
3816.7939,0.013847
3818.6576,0.013106
3820.5213,0.012388
3822.3850,0.012696
3824.2486,0.012623
3826.1123,0.012776
3827.9760,0.013328
3829.8396,0.013432
3831.7033,0.013164
3833.5670,0.013117
3835.4306,0.013419
3837.2943,0.013439
3839.1580,0.012913
3841.0216,0.012618
3842.8853,0.012577
3844.7490,0.012958
3846.6126,0.013646
3848.4763,0.014046
3850.3400,0.014143
3852.2037,0.014130
3854.0673,0.013006
3855.9310,0.010790
3857.7947,0.012362
3859.6583,0.014164
3861.5220,0.014196
3863.3857,0.013609
3865.2493,0.013265
3867.1130,0.013259
3868.9767,0.014026
3870.8403,0.014250
3872.7040,0.013433
3874.5677,0.013735
3876.4314,0.014418
3878.2950,0.014300
3880.1587,0.013785
3882.0224,0.013570
3883.8860,0.014235
3885.7497,0.014930
3887.6134,0.014934
3889.4770,0.014692
3891.3407,0.014627
3893.2044,0.014169
3895.0680,0.014228
3896.9317,0.014737
3898.7954,0.014785
3900.6590,0.014608
3902.5227,0.015116
3904.3864,0.015674
3906.2501,0.015257
3908.1137,0.015087
3909.9774,0.015353
3911.8411,0.015766
3913.7047,0.016170
3915.5684,0.015969
3917.4321,0.015740
3919.2957,0.015798
3921.1594,0.015689
3923.0231,0.015380
3924.8867,0.015672
3926.7504,0.016251
3928.6141,0.015785
3930.4777,0.014839
3932.3414,0.015476
3934.2051,0.016840
3936.0688,0.016596
3937.9324,0.016242
3939.7961,0.016106
3941.6598,0.015852
3943.5234,0.016161
3945.3871,0.016320
3947.2508,0.015814
3949.1144,0.016062
3950.9781,0.017007
3952.8418,0.017074
3954.7054,0.016795
3956.5691,0.016647
3958.4328,0.016489
3960.2965,0.016329
3962.1601,0.016248
3964.0238,0.016179
3965.8875,0.016129
3967.7511,0.016199
3969.6148,0.016594
3971.4785,0.017088
3973.3421,0.017122
3975.2058,0.016779
3977.0695,0.016979
3978.9331,0.016945
3980.7968,0.016513
3982.6605,0.016546
3984.5241,0.016535
3986.3878,0.016321
3988.2515,0.016671
3990.1152,0.016941
3991.9788,0.016704
3993.8425,0.017075
3995.7062,0.017245
3997.5698,0.016675
3999.4335,0.016623
