Wavenumber,Intensity
650.4205,0.281495
652.2841,0.280918
654.1478,0.284328
656.0115,0.289843
657.8751,0.297882
659.7388,0.305654
661.6025,0.316555
663.4661,0.325601
665.3298,0.334856
667.1935,0.343194
669.0571,0.340077
670.9208,0.320930
672.7845,0.303051
674.6481,0.286578
676.5118,0.276688
678.3755,0.271280
680.2392,0.266614
682.1028,0.259196
683.9665,0.252266
685.8302,0.244924
687.6938,0.237630
689.5575,0.231094
691.4212,0.225870
693.2848,0.219574
695.1485,0.214288
697.0122,0.211062
698.8758,0.210404
700.7395,0.210191
702.6032,0.209175
704.4669,0.206694
706.3305,0.201832
708.1942,0.194381
710.0579,0.186671
711.9215,0.177629
713.7852,0.169063
715.6489,0.160949
717.5125,0.154798
719.3762,0.149412
721.2399,0.143513
723.1035,0.138007
724.9672,0.133281
726.8309,0.129224
728.6945,0.125310
730.5582,0.121038
732.4219,0.117311
734.2856,0.114094
736.1492,0.111635
738.0129,0.109938
739.8766,0.110250
741.7402,0.113301
743.6039,0.117281
745.4676,0.119507
747.3312,0.119979
749.1949,0.119673
751.0586,0.118837
752.9222,0.117505
754.7859,0.116646
756.6496,0.116774
758.5132,0.116659
760.3769,0.115941
762.2406,0.115431
764.1043,0.115315
765.9679,0.115590
767.8316,0.116337
769.6953,0.116896
771.5589,0.117546
773.4226,0.118449
775.2863,0.119456
777.1499,0.121027
779.0136,0.122869
780.8773,0.125035
782.7409,0.126531
784.6046,0.128056
786.4683,0.129975
788.3320,0.132602
790.1956,0.135025
792.0593,0.137074
793.9230,0.139442
795.7866,0.142172
797.6503,0.145043
799.5140,0.147858
801.3776,0.149781
803.2413,0.151040
805.1050,0.151807
806.9686,0.151312
808.8323,0.149666
810.6960,0.147436
812.5596,0.144770
814.4233,0.142087
816.2870,0.139428
818.1507,0.136859
820.0143,0.134596
821.8780,0.133319
823.7417,0.133414
825.6053,0.134912
827.4690,0.138123
829.3327,0.140138
831.1963,0.134344
833.0600,0.121765
834.9237,0.111284
836.7873,0.106757
838.6510,0.105764
840.5147,0.105869
842.3784,0.106401
844.2420,0.107405
846.1057,0.108410
847.9694,0.109020
849.8330,0.109746
851.6967,0.110625
853.5604,0.111707
855.4240,0.112975
857.2877,0.113961
859.1514,0.114803
861.0150,0.115754
862.8787,0.116776
864.7424,0.117727
866.6060,0.118820
868.4697,0.120164
870.3334,0.121671
872.1971,0.123101
874.0607,0.124610
875.9244,0.126381
877.7881,0.128403
879.6517,0.130201
881.5154,0.131941
883.3791,0.133854
885.2427,0.135812
887.1064,0.137581
888.9701,0.139043
890.8337,0.140435
892.6974,0.142151
894.5611,0.144194
896.4247,0.146448
898.2884,0.148934
900.1521,0.152229
902.0158,0.156346
903.8794,0.161274
905.7431,0.167111
907.6068,0.174133
909.4704,0.182232
911.3341,0.191705
913.1978,0.202251
915.0614,0.207700
916.9251,0.198673
918.7888,0.180186
920.6524,0.166350
922.5161,0.161071
924.3798,0.160441
926.2435,0.161604
928.1071,0.163621
929.9708,0.166133
931.8345,0.168489
933.6981,0.170758
935.5618,0.173086
937.4255,0.175566
939.2891,0.178113
941.1528,0.180523
943.0165,0.182800
944.8801,0.185242
946.7438,0.187808
948.6075,0.190420
950.4711,0.193150
952.3348,0.196028
954.1985,0.198796
956.0622,0.201656
957.9258,0.204663
959.7895,0.207996
961.6532,0.211550
963.5168,0.215230
965.3805,0.219348
967.2442,0.224272
969.1078,0.229802
970.9715,0.235539
972.8352,0.242019
974.6988,0.251080
976.5625,0.264530
978.4262,0.285592
980.2899,0.312878
982.1535,0.321937
984.0172,0.290752
985.8809,0.252946
987.7445,0.238461
989.6082,0.239144
991.4719,0.242914
993.3355,0.247033
995.1992,0.251015
997.0629,0.254848
998.9265,0.258544
1000.7902,0.262156
1002.6539,0.265641
1004.5175,0.268945
1006.3812,0.271799
1008.2449,0.273987
1010.1086,0.274779
1011.9722,0.273688
1013.8359,0.270848
1015.6996,0.266490
1017.5632,0.260322
1019.4269,0.252597
1021.2906,0.243803
1023.1542,0.234795
1025.0179,0.226318
1026.8816,0.218649
1028.7452,0.211767
1030.6089,0.205695
1032.4726,0.200151
1034.3362,0.195019
1036.1999,0.190455
1038.0636,0.186623
1039.9273,0.183475
1041.7909,0.180933
1043.6546,0.178788
1045.5183,0.176845
1047.3819,0.174306
1049.2456,0.169191
1051.1093,0.159927
1052.9729,0.148267
1054.8366,0.138104
1056.7003,0.131666
1058.5639,0.128480
1060.4276,0.127112
1062.2913,0.126439
1064.1550,0.125946
1066.0186,0.125868
1067.8823,0.126285
1069.7460,0.126987
1071.6096,0.127865
1073.4733,0.128880
1075.3370,0.129838
1077.2006,0.130658
1079.0643,0.131702
1080.9280,0.133041
1082.7916,0.134593
1084.6553,0.136431
1086.5190,0.138587
1088.3826,0.141293
1090.2463,0.144595
1092.1100,0.148302
1093.9737,0.152659
1095.8373,0.157596
1097.7010,0.162889
1099.5647,0.168729
1101.4283,0.174720
1103.2920,0.179955
1105.1557,0.183177
1107.0193,0.182522
1108.8830,0.176534
1110.7467,0.165563
1112.6103,0.151969
1114.4740,0.138121
1116.3377,0.125593
1118.2014,0.115341
1120.0650,0.107676
1121.9287,0.102397
1123.7924,0.098783
1125.6560,0.095792
1127.5197,0.092886
1129.3834,0.090032
1131.2470,0.087325
1133.1107,0.084962
1134.9744,0.082948
1136.8380,0.081263
1138.7017,0.080023
1140.5654,0.079135
1142.4290,0.078449
1144.2927,0.077884
1146.1564,0.077389
1148.0201,0.077047
1149.8837,0.076787
1151.7474,0.076626
1153.6111,0.076685
1155.4747,0.076912
1157.3384,0.077364
1159.2021,0.078119
1161.0657,0.079195
1162.9294,0.080670
1164.7931,0.082653
1166.6567,0.085333
1168.5204,0.088670
1170.3841,0.092166
1172.2477,0.094551
1174.1114,0.093970
1175.9751,0.089890
1177.8388,0.084259
1179.7024,0.079478
1181.5661,0.076614
1183.4298,0.075377
1185.2934,0.075083
1187.1571,0.075089
1189.0208,0.075040
1190.8844,0.075039
1192.7481,0.075091
1194.6118,0.075199
1196.4754,0.075355
1198.3391,0.075609
1200.2028,0.075986
1202.0665,0.076362
1203.9301,0.076796
1205.7938,0.077268
1207.6575,0.077776
1209.5211,0.078325
1211.3848,0.078848
1213.2485,0.079359
1215.1121,0.079833
1216.9758,0.080293
1218.8395,0.080757
1220.7031,0.081179
1222.5668,0.081556
1224.4305,0.081971
1226.2941,0.082384
1228.1578,0.082784
1230.0215,0.083213
1231.8852,0.083663
1233.7488,0.084136
1235.6125,0.084681
1237.4762,0.085345
1239.3398,0.085919
1241.2035,0.086380
1243.0672,0.086901
1244.9308,0.087507
1246.7945,0.088193
1248.6582,0.088924
1250.5218,0.089682
1252.3855,0.090371
1254.2492,0.091011
1256.1129,0.091809
1257.9765,0.092801
1259.8402,0.093982
1261.7039,0.095202
1263.5675,0.096336
1265.4312,0.097420
1267.2949,0.098079
1269.1585,0.098143
1271.0222,0.098086
1272.8859,0.098217
1274.7495,0.098650
1276.6132,0.099521
1278.4769,0.100798
1280.3405,0.102333
1282.2042,0.104030
1284.0679,0.106020
1285.9316,0.108430
1287.7952,0.111258
1289.6589,0.114451
1291.5226,0.118104
1293.3862,0.122364
1295.2499,0.127291
1297.1136,0.132999
1298.9772,0.139716
1300.8409,0.147745
1302.7046,0.156141
1304.5682,0.161816
1306.4319,0.160561
1308.2956,0.148105
1310.1592,0.125563
1312.0229,0.102580
1313.8866,0.087630
1315.7503,0.082018
1317.6139,0.082005
1319.4776,0.084356
1321.3413,0.087138
1323.2049,0.090015
1325.0686,0.093218
1326.9323,0.096411
1328.7959,0.099411
1330.6596,0.102285
1332.5233,0.104706
1334.3869,0.106245
1336.2506,0.107405
1338.1143,0.109487
1339.9780,0.112214
1341.8416,0.113034
1343.7053,0.113127
1345.5690,0.114106
1347.4326,0.115365
1349.2963,0.116941
1351.1600,0.118702
1353.0236,0.120665
1354.8873,0.123290
1356.7510,0.125824
1358.6146,0.127905
1360.4783,0.131079
1362.3420,0.136547
1364.2056,0.141033
1366.0693,0.143059
1367.9330,0.146529
1369.7967,0.150563
1371.6603,0.153614
1373.5240,0.158719
1375.3877,0.164582
1377.2513,0.167977
1379.1150,0.172526
1380.9787,0.178555
1382.8423,0.184589
1384.7060,0.191208
1386.5697,0.200328
1388.4333,0.210164
1390.2970,0.214438
1392.1607,0.216346
1394.0244,0.216997
1395.8880,0.211692
1397.7517,0.202119
1399.6154,0.191198
1401.4790,0.180487
1403.3427,0.171462
1405.2064,0.158115
1407.0700,0.139373
1408.9337,0.120561
1410.7974,0.102944
1412.6610,0.090197
1414.5247,0.084260
1416.3884,0.084089
1418.2520,0.090103
1420.1157,0.100250
1421.9794,0.104397
1423.8431,0.102130
1425.7067,0.092567
1427.5704,0.082244
1429.4341,0.076001
1431.2977,0.073322
1433.1614,0.072947
1435.0251,0.074716
1436.8887,0.079194
1438.7524,0.081476
1440.6161,0.081869
1442.4797,0.083251
1444.3434,0.084486
1446.2071,0.085568
1448.0707,0.086212
1449.9344,0.084445
1451.7981,0.081083
1453.6618,0.077792
1455.5254,0.077495
1457.3891,0.082884
1459.2528,0.084376
1461.1164,0.082456
1462.9801,0.082521
1464.8438,0.083819
1466.7074,0.082998
1468.5711,0.080440
1470.4348,0.079319
1472.2984,0.080989
1474.1621,0.082528
1476.0258,0.081740
1477.8895,0.081137
1479.7531,0.080887
1481.6168,0.081460
1483.4805,0.081470
1485.3441,0.081190
1487.2078,0.082143
1489.0715,0.085117
1490.9351,0.087363
1492.7988,0.086198
1494.6625,0.085822
1496.5261,0.088634
1498.3898,0.091436
1500.2535,0.091476
1502.1171,0.090254
1503.9808,0.089627
1505.8445,0.093507
1507.7082,0.103283
1509.5718,0.101270
1511.4355,0.099713
1513.2992,0.099866
1515.1628,0.100902
1517.0265,0.103432
1518.8902,0.104615
1520.7538,0.106649
1522.6175,0.110434
1524.4812,0.110161
1526.3448,0.111378
1528.2085,0.112512
1530.0722,0.112248
1531.9359,0.113696
1533.7995,0.117306
1535.6632,0.116871
1537.5269,0.115902
1539.3905,0.121307
1541.2542,0.130632
1543.1179,0.130848
1544.9815,0.131854
1546.8452,0.132258
1548.7089,0.133354
1550.5725,0.136557
1552.4362,0.138533
1554.2999,0.139989
1556.1635,0.142513
1558.0272,0.150061
1559.8909,0.165629
1561.7546,0.159496
1563.6182,0.157630
1565.4819,0.160144
1567.3456,0.162943
1569.2092,0.168028
1571.0729,0.172708
1572.9366,0.172783
1574.8002,0.176721
1576.6639,0.185457
1578.5276,0.188136
1580.3912,0.188510
1582.2549,0.191458
1584.1186,0.194079
1585.9822,0.195965
1587.8459,0.197236
1589.7096,0.197767
1591.5733,0.197262
1593.4369,0.196495
1595.3006,0.195192
1597.1643,0.192902
1599.0279,0.189998
1600.8916,0.187307
1602.7553,0.184655
1604.6189,0.181901
1606.4826,0.179348
1608.3463,0.177122
1610.2099,0.174499
1612.0736,0.170929
1613.9373,0.167073
1615.8010,0.163160
1617.6646,0.155426
1619.5283,0.146828
1621.3920,0.141257
1623.2556,0.134649
1625.1193,0.126389
1626.9830,0.119050
1628.8466,0.109858
1630.7103,0.100029
1632.5740,0.092345
1634.4376,0.085256
1636.3013,0.076334
1638.1650,0.070061
1640.0286,0.068424
1641.8923,0.067436
1643.7560,0.067822
1645.6197,0.070003
1647.4833,0.073520
1649.3470,0.074618
1651.2107,0.076862
1653.0743,0.084268
1654.9380,0.088865
1656.8017,0.087138
1658.6653,0.087724
1660.5290,0.088583
1662.3927,0.088865
1664.2563,0.087210
1666.1200,0.085149
1667.9837,0.084072
1669.8474,0.083316
1671.7110,0.081921
1673.5747,0.082140
1675.4384,0.084761
1677.3020,0.087592
1679.1657,0.089823
1681.0294,0.094304
1682.8930,0.099925
1684.7567,0.107516
1686.6204,0.108748
1688.4840,0.107348
1690.3477,0.105674
1692.2114,0.102590
1694.0750,0.099748
1695.9387,0.096602
1697.8024,0.091647
1699.6661,0.088391
1701.5297,0.080549
1703.3934,0.073414
1705.2571,0.066118
1707.1207,0.056077
1708.9844,0.049094
1710.8481,0.044130
1712.7117,0.039955
1714.5754,0.037195
1716.4391,0.034928
1718.3027,0.033473
1720.1664,0.031777
1722.0301,0.030699
1723.8937,0.029080
1725.7574,0.026914
1727.6211,0.024830
1729.4848,0.023131
1731.3484,0.021646
1733.2121,0.020697
1735.0758,0.019046
1736.9394,0.018177
1738.8031,0.018062
1740.6668,0.017919
1742.5304,0.017483
1744.3941,0.017218
1746.2578,0.016795
1748.1214,0.016536
1749.9851,0.016116
1751.8488,0.015886
1753.7125,0.015516
1755.5761,0.015528
1757.4398,0.015466
1759.3035,0.015304
1761.1671,0.015198
1763.0308,0.015134
1764.8945,0.014995
1766.7581,0.015122
1768.6218,0.014969
1770.4855,0.014890
1772.3491,0.014762
1774.2128,0.014427
1776.0765,0.014385
1777.9401,0.014741
1779.8038,0.014850
1781.6675,0.014808
1783.5312,0.014793
1785.3948,0.014842
1787.2585,0.014574
1789.1222,0.014631
1790.9858,0.014930
1792.8495,0.015170
1794.7132,0.014817
1796.5768,0.014918
1798.4405,0.015190
1800.3042,0.015307
1802.1678,0.015212
1804.0315,0.015350
1805.8952,0.015416
1807.7589,0.015572
1809.6225,0.015453
1811.4862,0.015547
1813.3499,0.015407
1815.2135,0.015236
1817.0772,0.015236
1818.9409,0.015334
1820.8045,0.015376
1822.6682,0.015583
1824.5319,0.015458
1826.3955,0.015054
1828.2592,0.015025
1830.1229,0.015246
1831.9865,0.014649
1833.8502,0.014402
1835.7139,0.014491
1837.5776,0.014617
1839.4412,0.014439
1841.3049,0.014643
1843.1686,0.014686
1845.0322,0.014237
1846.8959,0.013920
1848.7596,0.014374
1850.6232,0.014572
1852.4869,0.014765
1854.3506,0.014861
1856.2142,0.014795
1858.0779,0.014817
1859.9416,0.015005
1861.8052,0.014656
1863.6689,0.014654
1865.5326,0.014591
1867.3963,0.014554
1869.2599,0.014260
1871.1236,0.014055
1872.9873,0.014078
1874.8509,0.014105
1876.7146,0.013764
1878.5783,0.013988
1880.4419,0.014303
1882.3056,0.014336
1884.1693,0.014171
1886.0329,0.014344
1887.8966,0.014180
1889.7603,0.013887
1891.6240,0.013697
1893.4876,0.013939
1895.3513,0.013942
1897.2150,0.013633
1899.0786,0.013606
1900.9423,0.014149
1902.8060,0.014208
1904.6696,0.014104
1906.5333,0.014060
1908.3970,0.014034
1910.2606,0.013419
1912.1243,0.013446
1913.9880,0.013838
1915.8516,0.014164
1917.7153,0.013732
1919.5790,0.013301
1921.4427,0.013081
1923.3063,0.013023
1925.1700,0.012843
1927.0337,0.012797
1928.8973,0.012318
1930.7610,0.012450
1932.6247,0.012617
1934.4883,0.012451
1936.3520,0.011965
1938.2157,0.012313
1940.0793,0.012051
1941.9430,0.011524
1943.8067,0.010390
1945.6704,0.009819
1947.5340,0.009537
1949.3977,0.009948
1951.2614,0.010219
1953.1250,0.009870
1954.9887,0.009117
1956.8524,0.008789
1958.7160,0.007794
1960.5797,0.007428
1962.4434,0.006410
1964.3070,0.005560
1966.1707,0.004284
1968.0344,0.002877
1969.8980,0.002258
1971.7617,0.003680
1973.6254,0.003061
1975.4891,0.002567
1977.3527,0.002329
1979.2164,0.002991
1981.0801,0.003918
1982.9437,0.005073
1984.8074,0.005366
1986.6711,0.005909
1988.5347,0.006153
1990.3984,0.006578
1992.2621,0.005933
1994.1257,0.005700
1995.9894,0.006283
1997.8531,0.007287
1999.7167,0.007233
2001.5804,0.006796
2003.4441,0.004716
2005.3078,0.003905
2007.1714,0.004274
2009.0351,0.004340
2010.8988,0.003477
2012.7624,0.003441
2014.6261,0.003551
2016.4898,0.003821
2018.3534,0.002561
2020.2171,0.001578
2022.0808,0.000476
2023.9444,0.001701
2025.8081,0.001445
2027.6718,0.001446
2029.5355,0.002721
2031.3991,0.002511
2033.2628,0.001332
2035.1265,0.002522
2036.9901,0.003876
2038.8538,0.004698
2040.7175,0.004291
2042.5811,0.005287
2044.4448,0.006492
2046.3085,0.007313
2048.1721,0.007777
2050.0358,0.009332
2051.8995,0.010404
2053.7631,0.010160
2055.6268,0.009845
2057.4905,0.010839
2059.3542,0.011476
2061.2178,0.011583
2063.0815,0.011431
2064.9452,0.012335
2066.8088,0.012653
2068.6725,0.012907
2070.5362,0.012870
2072.3998,0.013339
2074.2635,0.013541
2076.1272,0.013326
2077.9908,0.013758
2079.8545,0.014666
2081.7182,0.015370
2083.5819,0.015869
2085.4455,0.015793
2087.3092,0.015913
2089.1729,0.015775
2091.0365,0.016041
2092.9002,0.016200
2094.7639,0.015719
2096.6275,0.015210
2098.4912,0.015462
2100.3549,0.015344
2102.2185,0.015349
2104.0822,0.015122
2105.9459,0.015739
2107.8095,0.016085
2109.6732,0.015869
2111.5369,0.016004
2113.4006,0.016670
2115.2642,0.017011
2117.1279,0.016865
2118.9916,0.016583
2120.8552,0.017386
2122.7189,0.017564
2124.5826,0.016732
2126.4462,0.016110
2128.3099,0.015838
2130.1736,0.015028
2132.0372,0.015141
2133.9009,0.014511
2135.7646,0.013602
2137.6282,0.013931
2139.4919,0.013261
2141.3556,0.011095
2143.2193,0.010553
2145.0829,0.010698
2146.9466,0.010425
2148.8103,0.008908
2150.6739,0.009266
2152.5376,0.007867
2154.4013,0.005453
2156.2649,0.002973
2158.1286,0.000936
2159.9923,0.002622
2161.8559,0.004306
2163.7196,0.004807
2165.5833,0.007326
2167.4470,0.008195
2169.3106,0.008786
2171.1743,0.008553
2173.0380,0.008641
2174.9016,0.008666
2176.7653,0.009438
2178.6290,0.009034
2180.4926,0.009537
2182.3563,0.010288
2184.2200,0.011020
2186.0836,0.010346
2187.9473,0.010482
2189.8110,0.011173
2191.6746,0.011965
2193.5383,0.011924
2195.4020,0.011642
2197.2657,0.011180
2199.1293,0.012171
2200.9930,0.013279
2202.8567,0.013602
2204.7203,0.013854
2206.5840,0.014339
2208.4477,0.014402
2210.3113,0.014855
2212.1750,0.015887
2214.0387,0.016162
2215.9023,0.015150
2217.7660,0.014645
2219.6297,0.014734
2221.4934,0.016059
2223.3570,0.017139
2225.2207,0.017203
2227.0844,0.016849
2228.9480,0.017298
2230.8117,0.017663
2232.6754,0.017533
2234.5390,0.017517
2236.4027,0.018699
2238.2664,0.019456
2240.1300,0.018908
2241.9937,0.018654
2243.8574,0.019170
2245.7210,0.019426
2247.5847,0.019637
2249.4484,0.019899
2251.3121,0.020385
2253.1757,0.020094
2255.0394,0.020368
2256.9031,0.020830
2258.7667,0.020632
2260.6304,0.020851
2262.4941,0.021675
2264.3577,0.021565
2266.2214,0.021703
2268.0851,0.022053
2269.9487,0.022469
2271.8124,0.023119
2273.6761,0.023557
2275.5397,0.023781
2277.4034,0.024338
2279.2671,0.024531
2281.1308,0.025276
2282.9944,0.025641
2284.8581,0.025654
2286.7218,0.026108
2288.5854,0.026366
2290.4491,0.025872
2292.3128,0.025622
2294.1764,0.026065
2296.0401,0.026320
2297.9038,0.026198
2299.7674,0.026592
2301.6311,0.026713
2303.4948,0.026596
2305.3585,0.026766
2307.2221,0.027001
2309.0858,0.027072
2310.9495,0.027074
2312.8131,0.026801
2314.6768,0.026423
2316.5405,0.026260
2318.4041,0.026272
2320.2678,0.026642
2322.1315,0.027261
2323.9951,0.027466
2325.8588,0.027026
2327.7225,0.026295
2329.5861,0.025973
2331.4498,0.025732
2333.3135,0.025538
2335.1772,0.025457
2337.0408,0.025586
2338.9045,0.025836
2340.7682,0.025991
2342.6318,0.026338
2344.4955,0.026584
2346.3592,0.026441
2348.2228,0.025991
2350.0865,0.025610
2351.9502,0.025609
2353.8138,0.025649
2355.6775,0.025446
2357.5412,0.025157
2359.4049,0.024920
2361.2685,0.025072
2363.1322,0.025418
2364.9959,0.025483
2366.8595,0.025687
2368.7232,0.026050
2370.5869,0.026120
2372.4505,0.026306
2374.3142,0.026585
2376.1779,0.026722
2378.0415,0.026937
2379.9052,0.026679
2381.7689,0.026543
2383.6325,0.026776
2385.4962,0.026987
2387.3599,0.027250
2389.2236,0.027219
2391.0872,0.026908
2392.9509,0.027013
2394.8146,0.027084
2396.6782,0.027058
2398.5419,0.027148
2400.4056,0.027301
2402.2692,0.027379
2404.1329,0.027552
2405.9966,0.027520
2407.8602,0.027311
2409.7239,0.027117
2411.5876,0.027449
2413.4512,0.027919
2415.3149,0.028062
2417.1786,0.028122
2419.0423,0.028144
2420.9059,0.027932
2422.7696,0.028048
2424.6333,0.028172
2426.4969,0.028336
2428.3606,0.028584
2430.2243,0.028737
2432.0879,0.028773
2433.9516,0.028585
2435.8153,0.028501
2437.6789,0.028615
2439.5426,0.028649
2441.4063,0.028332
2443.2700,0.028181
2445.1336,0.028390
2446.9973,0.028532
2448.8610,0.028565
2450.7246,0.028368
2452.5883,0.028476
2454.4520,0.028669
2456.3156,0.028736
2458.1793,0.028208
2460.0430,0.027747
2461.9066,0.027778
2463.7703,0.028101
2465.6340,0.028007
2467.4976,0.027987
2469.3613,0.028223
2471.2250,0.027987
2473.0887,0.028209
2474.9523,0.028525
2476.8160,0.028510
2478.6797,0.028245
2480.5433,0.028204
2482.4070,0.028433
2484.2707,0.028838
2486.1343,0.029122
2487.9980,0.029033
2489.8617,0.029060
2491.7253,0.029108
2493.5890,0.029860
2495.4527,0.030294
2497.3164,0.029819
2499.1800,0.029418
2501.0437,0.029682
2502.9074,0.030157
2504.7710,0.030232
2506.6347,0.030137
2508.4984,0.030136
2510.3620,0.030177
2512.2257,0.029974
2514.0894,0.029850
2515.9530,0.030061
2517.8167,0.030367
2519.6804,0.030789
2521.5440,0.030871
2523.4077,0.030742
2525.2714,0.030680
2527.1351,0.030899
2528.9987,0.031045
2530.8624,0.030824
2532.7261,0.030894
2534.5897,0.031079
2536.4534,0.031205
2538.3171,0.031075
2540.1807,0.030938
2542.0444,0.031167
2543.9081,0.031317
2545.7717,0.031393
2547.6354,0.031435
2549.4991,0.031452
2551.3627,0.031343
2553.2264,0.031393
2555.0901,0.031729
2556.9538,0.031751
2558.8174,0.031656
2560.6811,0.031807
2562.5448,0.032122
2564.4084,0.032367
2566.2721,0.032245
2568.1358,0.032239
2569.9994,0.032551
2571.8631,0.032350
2573.7268,0.032275
2575.5904,0.032843
2577.4541,0.033526
2579.3178,0.033641
2581.1815,0.033392
2583.0451,0.033644
2584.9088,0.033941
2586.7725,0.033830
2588.6361,0.033952
2590.4998,0.034153
2592.3635,0.034294
2594.2271,0.034686
2596.0908,0.035082
2597.9545,0.035141
2599.8181,0.035266
2601.6818,0.035275
2603.5455,0.035254
2605.4091,0.035557
2607.2728,0.035752
2609.1365,0.036040
2611.0002,0.036155
2612.8638,0.035882
2614.7275,0.035890
2616.5912,0.035992
2618.4548,0.036587
2620.3185,0.037051
2622.1822,0.037337
2624.0458,0.037683
2625.9095,0.038095
2627.7732,0.038425
2629.6368,0.038634
2631.5005,0.038941
2633.3642,0.039237
2635.2279,0.039293
2637.0915,0.039404
2638.9552,0.039948
2640.8189,0.040413
2642.6825,0.040578
2644.5462,0.040584
2646.4099,0.040797
2648.2735,0.041005
2650.1372,0.041074
2652.0009,0.041332
2653.8645,0.041548
2655.7282,0.041749
2657.5919,0.041880
2659.4555,0.041948
2661.3192,0.041952
2663.1829,0.041918
2665.0466,0.041896
2666.9102,0.041989
2668.7739,0.042096
2670.6376,0.042135
2672.5012,0.042281
2674.3649,0.042684
2676.2286,0.042947
2678.0922,0.043031
2679.9559,0.043255
2681.8196,0.043668
2683.6832,0.043933
2685.5469,0.043947
2687.4106,0.044027
2689.2742,0.044291
2691.1379,0.044588
2693.0016,0.045008
2694.8653,0.045218
2696.7289,0.045448
2698.5926,0.045696
2700.4563,0.046063
2702.3199,0.046589
2704.1836,0.046951
2706.0473,0.047163
2707.9109,0.047445
2709.7746,0.047938
2711.6383,0.048265
2713.5019,0.048552
2715.3656,0.049069
2717.2293,0.049512
2719.0930,0.049713
2720.9566,0.049849
2722.8203,0.050430
2724.6840,0.051202
2726.5476,0.051860
2728.4113,0.052299
2730.2750,0.052594
2732.1386,0.052702
2734.0023,0.053110
2735.8660,0.053861
2737.7296,0.054481
2739.5933,0.054896
2741.4570,0.055245
2743.3206,0.055814
2745.1843,0.056464
2747.0480,0.057020
2748.9117,0.057875
2750.7753,0.058738
2752.6390,0.059384
2754.5027,0.059808
2756.3663,0.060164
2758.2300,0.060704
2760.0937,0.061369
2761.9573,0.061971
2763.8210,0.062432
2765.6847,0.063022
2767.5483,0.064018
2769.4120,0.064783
2771.2757,0.065260
2773.1394,0.065886
2775.0030,0.066677
2776.8667,0.067440
2778.7304,0.068094
2780.5940,0.068362
2782.4577,0.068508
2784.3214,0.068526
2786.1850,0.068105
2788.0487,0.067845
2789.9124,0.067879
2791.7760,0.067495
2793.6397,0.066667
2795.5034,0.065700
2797.3670,0.065111
2799.2307,0.065026
2801.0944,0.064858
2802.9581,0.064167
2804.8217,0.063392
2806.6854,0.062697
2808.5491,0.062462
2810.4127,0.062344
2812.2764,0.062335
2814.1401,0.062190
2816.0037,0.062229
2817.8674,0.062303
2819.7311,0.062324
2821.5947,0.062265
2823.4584,0.062635
2825.3221,0.062835
2827.1857,0.062266
2829.0494,0.061734
2830.9131,0.061336
2832.7768,0.061145
2834.6404,0.061244
2836.5041,0.061581
2838.3678,0.061968
2840.2314,0.062361
2842.0951,0.062714
2843.9588,0.062632
2845.8224,0.062926
2847.6861,0.063634
2849.5498,0.064409
2851.4134,0.065054
2853.2771,0.065730
2855.1408,0.066590
2857.0045,0.067371
2858.8681,0.067905
2860.7318,0.068453
2862.5955,0.068763
2864.4591,0.069331
2866.3228,0.069619
2868.1865,0.069624
2870.0501,0.069963
2871.9138,0.070668
2873.7775,0.071326
2875.6411,0.071416
2877.5048,0.071532
2879.3685,0.072125
2881.2321,0.072887
2883.0958,0.073558
2884.9595,0.074131
2886.8232,0.074647
2888.6868,0.075037
2890.5505,0.075865
2892.4142,0.076457
2894.2778,0.076975
2896.1415,0.077861
2898.0052,0.078343
2899.8688,0.077913
2901.7325,0.077761
2903.5962,0.077996
2905.4598,0.078191
2907.3235,0.078323
2909.1872,0.078726
2911.0509,0.079076
2912.9145,0.079868
2914.7782,0.080343
2916.6419,0.081097
2918.5055,0.082270
2920.3692,0.083241
2922.2329,0.083701
2924.0965,0.084080
2925.9602,0.084803
2927.8239,0.085484
2929.6875,0.086284
2931.5512,0.087304
2933.4149,0.087970
2935.2785,0.088408
2937.1422,0.088650
2939.0059,0.089146
2940.8696,0.089433
2942.7332,0.089880
2944.5969,0.090289
2946.4606,0.090525
2948.3242,0.090787
2950.1879,0.091223
2952.0516,0.091266
2953.9152,0.091713
2955.7789,0.092271
2957.6426,0.092585
2959.5062,0.092958
2961.3699,0.093731
2963.2336,0.094841
2965.0972,0.095747
2966.9609,0.096647
2968.8246,0.097964
2970.6883,0.098889
2972.5519,0.099809
2974.4156,0.100517
2976.2793,0.101063
2978.1429,0.101652
2980.0066,0.102420
2981.8703,0.102703
2983.7339,0.102740
2985.5976,0.102740
2987.4613,0.103403
2989.3249,0.104446
2991.1886,0.105464
2993.0523,0.106062
2994.9160,0.106799
2996.7796,0.107716
2998.6433,0.108660
3000.5070,0.109239
3002.3706,0.109904
3004.2343,0.110921
3006.0980,0.111995
3007.9616,0.112593
3009.8253,0.113418
3011.6890,0.114555
3013.5526,0.115700
3015.4163,0.116024
3017.2800,0.116372
3019.1436,0.116766
3021.0073,0.117288
3022.8710,0.117811
3024.7347,0.118217
3026.5983,0.118517
3028.4620,0.119044
3030.3257,0.119484
3032.1893,0.119769
3034.0530,0.119867
3035.9167,0.120373
3037.7803,0.120944
3039.6440,0.121440
3041.5077,0.121313
3043.3713,0.121435
3045.2350,0.122075
3047.0987,0.122636
3048.9624,0.122889
3050.8260,0.123309
3052.6897,0.123384
3054.5534,0.123515
3056.4170,0.123559
3058.2807,0.123636
3060.1444,0.124016
3062.0080,0.124674
3063.8717,0.124745
3065.7354,0.124603
3067.5990,0.124485
3069.4627,0.124198
3071.3264,0.123894
3073.1900,0.123563
3075.0537,0.123241
3076.9174,0.123337
3078.7811,0.123087
3080.6447,0.123182
3082.5084,0.123240
3084.3721,0.123092
3086.2357,0.122476
3088.0994,0.121463
3089.9631,0.120298
3091.8267,0.119935
3093.6904,0.119459
3095.5541,0.118993
3097.4177,0.117943
3099.2814,0.116837
3101.1451,0.115608
3103.0087,0.114501
3104.8724,0.113501
3106.7361,0.112684
3108.5998,0.111691
3110.4634,0.111245
3112.3271,0.110544
3114.1908,0.109209
3116.0544,0.107861
3117.9181,0.107144
3119.7818,0.106479
3121.6454,0.105797
3123.5091,0.105184
3125.3728,0.104089
3127.2364,0.102176
3129.1001,0.100983
3130.9638,0.100866
3132.8275,0.100578
3134.6911,0.099603
3136.5548,0.098923
3138.4185,0.098326
3140.2821,0.098425
3142.1458,0.098164
3144.0095,0.097448
3145.8731,0.096203
3147.7368,0.095350
3149.6005,0.094990
3151.4641,0.094557
3153.3278,0.094107
3155.1915,0.094336
3157.0551,0.093843
3158.9188,0.092778
3160.7825,0.091695
3162.6462,0.090907
3164.5098,0.090625
3166.3735,0.090583
3168.2372,0.090006
3170.1008,0.089651
3171.9645,0.088774
3173.8282,0.088284
3175.6918,0.088022
3177.5555,0.087763
3179.4192,0.087691
3181.2828,0.087226
3183.1465,0.086762
3185.0102,0.086676
3186.8739,0.086322
3188.7375,0.086602
3190.6012,0.086875
3192.4649,0.086522
3194.3285,0.086229
3196.1922,0.086290
3198.0559,0.086045
3199.9195,0.085996
3201.7832,0.085773
3203.6469,0.086273
3205.5105,0.086864
3207.3742,0.086647
3209.2379,0.086571
3211.1015,0.087166
3212.9652,0.087215
3214.8289,0.086945
3216.6926,0.086978
3218.5562,0.087348
3220.4199,0.087371
3222.2836,0.087039
3224.1472,0.087143
3226.0109,0.087899
3227.8746,0.088187
3229.7382,0.088382
3231.6019,0.088569
3233.4656,0.089247
3235.3292,0.089695
3237.1929,0.089949
3239.0566,0.090215
3240.9202,0.090353
3242.7839,0.090351
3244.6476,0.090921
3246.5113,0.091215
3248.3749,0.091549
3250.2386,0.091938
3252.1023,0.092270
3253.9659,0.092828
3255.8296,0.093070
3257.6933,0.093728
3259.5569,0.094539
3261.4206,0.094438
3263.2843,0.094112
3265.1479,0.094106
3267.0116,0.094584
3268.8753,0.095250
3270.7390,0.095802
3272.6026,0.095768
3274.4663,0.096132
3276.3300,0.095828
3278.1936,0.095209
3280.0573,0.094456
3281.9210,0.094243
3283.7846,0.094220
3285.6483,0.093880
3287.5120,0.093108
3289.3756,0.092292
3291.2393,0.091514
3293.1030,0.090897
3294.9666,0.089974
3296.8303,0.089229
3298.6940,0.088242
3300.5577,0.086845
3302.4213,0.085812
3304.2850,0.084890
3306.1487,0.083765
3308.0123,0.084004
3309.8760,0.084061
3311.7397,0.083692
3313.6033,0.083604
3315.4670,0.083927
3317.3307,0.083610
3319.1943,0.083302
3321.0580,0.083323
3322.9217,0.082812
3324.7854,0.083093
3326.6490,0.084905
3328.5127,0.085586
3330.3764,0.085149
3332.2400,0.084219
3334.1037,0.084298
3335.9674,0.084247
3337.8310,0.083212
3339.6947,0.082213
3341.5584,0.081393
3343.4220,0.079578
3345.2857,0.078036
3347.1494,0.077266
3349.0130,0.076054
3350.8767,0.074239
3352.7404,0.072641
3354.6041,0.071183
3356.4677,0.070149
3358.3314,0.069115
3360.1951,0.068567
3362.0587,0.067805
3363.9224,0.066651
3365.7861,0.065517
3367.6497,0.064999
3369.5134,0.064955
3371.3771,0.064807
3373.2407,0.064453
3375.1044,0.064822
3376.9681,0.064992
3378.8317,0.065355
3380.6954,0.065599
3382.5591,0.066119
3384.4228,0.066658
3386.2864,0.066713
3388.1501,0.066976
3390.0138,0.067403
3391.8774,0.067640
3393.7411,0.068249
3395.6048,0.068435
3397.4684,0.068496
3399.3321,0.068906
3401.1958,0.068762
3403.0594,0.068174
3404.9231,0.067602
3406.7868,0.066083
3408.6505,0.064505
3410.5141,0.062514
3412.3778,0.060650
3414.2415,0.058984
3416.1051,0.057737
3417.9688,0.055719
3419.8325,0.052997
3421.6961,0.051697
3423.5598,0.051056
3425.4235,0.049329
3427.2871,0.047553
3429.1508,0.046520
3431.0145,0.045122
3432.8781,0.042904
3434.7418,0.041863
3436.6055,0.041330
3438.4692,0.040210
3440.3328,0.039516
3442.1965,0.038796
3444.0602,0.037546
3445.9238,0.036779
3447.7875,0.036247
3449.6512,0.035292
3451.5148,0.034821
3453.3785,0.034394
3455.2422,0.034063
3457.1058,0.034292
3458.9695,0.033639
3460.8332,0.032970
3462.6969,0.032795
3464.5605,0.032574
3466.4242,0.032363
3468.2879,0.031539
3470.1515,0.030146
3472.0152,0.029337
3473.8789,0.029336
3475.7425,0.029747
3477.6062,0.029239
3479.4699,0.028474
3481.3335,0.027799
3483.1972,0.026718
3485.0609,0.025520
3486.9245,0.024860
3488.7882,0.024511
3490.6519,0.024203
3492.5156,0.023622
3494.3792,0.024018
3496.2429,0.024255
3498.1066,0.023028
3499.9702,0.022395
3501.8339,0.023328
3503.6976,0.023102
3505.5612,0.021146
3507.4249,0.020109
3509.2886,0.020168
3511.1522,0.019878
3513.0159,0.019720
3514.8796,0.019491
3516.7432,0.018919
3518.6069,0.018405
3520.4706,0.017970
3522.3343,0.018517
3524.1979,0.018587
3526.0616,0.017085
3527.9253,0.016199
3529.7889,0.016934
3531.6526,0.017731
3533.5163,0.017137
3535.3799,0.016219
3537.2436,0.016221
3539.1073,0.017000
3540.9709,0.016714
3542.8346,0.015609
3544.6983,0.015020
3546.5620,0.014652
3548.4256,0.014279
3550.2893,0.013657
3552.1530,0.013642
3554.0166,0.014219
3555.8803,0.013823
3557.7440,0.013854
3559.6076,0.014541
3561.4713,0.013953
3563.3350,0.013193
3565.1986,0.013353
3567.0623,0.013305
3568.9260,0.013126
3570.7896,0.012840
3572.6533,0.013954
3574.5170,0.014933
3576.3807,0.014858
3578.2443,0.014584
3580.1080,0.013786
3581.9717,0.013038
3583.8353,0.013103
3585.6990,0.013343
3587.5627,0.012958
3589.4263,0.012292
3591.2900,0.012573
3593.1537,0.013141
3595.0173,0.013897
3596.8810,0.014002
3598.7447,0.013153
3600.6084,0.013169
3602.4720,0.013159
3604.3357,0.012785
3606.1994,0.012390
3608.0630,0.011847
3609.9267,0.011693
3611.7904,0.012240
3613.6540,0.012966
3615.5177,0.013834
3617.3814,0.013557
3619.2450,0.012646
3621.1087,0.012380
3622.9724,0.012786
3624.8360,0.013246
3626.6997,0.013698
3628.5634,0.014528
3630.4271,0.014289
3632.2907,0.013714
3634.1544,0.013737
3636.0181,0.013553
3637.8817,0.013519
3639.7454,0.013974
3641.6091,0.014472
3643.4727,0.014431
3645.3364,0.014556
3647.2001,0.014954
3649.0637,0.013892
3650.9274,0.012067
3652.7911,0.013109
3654.6547,0.015218
3656.5184,0.016650
3658.3821,0.017148
3660.2458,0.017302
3662.1094,0.017959
3663.9731,0.018865
3665.8368,0.020155
3667.7004,0.021712
3669.5641,0.024203
3671.4278,0.028480
3673.2914,0.032161
3675.1551,0.032866
3677.0188,0.028055
3678.8824,0.018709
3680.7461,0.013430
3682.6098,0.011103
3684.4735,0.011912
3686.3371,0.012519
3688.2008,0.012087
3690.0645,0.012119
3691.9281,0.012964
3693.7918,0.013537
3695.6555,0.013607
3697.5191,0.013750
3699.3828,0.013667
3701.2465,0.013523
3703.1101,0.013443
3704.9738,0.013235
3706.8375,0.013566
3708.7011,0.013469
3710.5648,0.012575
3712.4285,0.011970
3714.2922,0.012578
3716.1558,0.013801
3718.0195,0.014354
3719.8832,0.014357
3721.7468,0.013810
3723.6105,0.013047
3725.4742,0.012510
3727.3378,0.012279
3729.2015,0.012542
3731.0652,0.013164
3732.9288,0.013303
3734.7925,0.012598
3736.6562,0.011970
3738.5199,0.011786
3740.3835,0.012810
3742.2472,0.013706
3744.1109,0.012531
3745.9745,0.010576
3747.8382,0.011976
3749.7019,0.013225
3751.5655,0.012049
3753.4292,0.011929
3755.2929,0.013973
3757.1565,0.015183
3759.0202,0.015531
3760.8839,0.015427
3762.7475,0.015067
3764.6112,0.014945
3766.4749,0.015717
3768.3386,0.016279
3770.2022,0.016030
3772.0659,0.016121
3773.9296,0.015950
3775.7932,0.015763
3777.6569,0.016016
3779.5206,0.016584
3781.3842,0.016950
3783.2479,0.016642
3785.1116,0.016573
3786.9752,0.016655
3788.8389,0.016398
3790.7026,0.016221
3792.5662,0.016186
3794.4299,0.016297
3796.2936,0.016063
3798.1573,0.015322
3800.0209,0.015190
3801.8846,0.015026
3803.7483,0.014715
3805.6119,0.015447
3807.4756,0.016114
3809.3393,0.016277
3811.2029,0.016372
3813.0666,0.016049
3814.9303,0.015101
3816.7939,0.014760
3818.6576,0.015537
3820.5213,0.015959
3822.3850,0.016063
3824.2486,0.016073
3826.1123,0.016077
3827.9760,0.015853
3829.8396,0.015118
3831.7033,0.015003
3833.5670,0.015728
3835.4306,0.016185
3837.2943,0.016185
3839.1580,0.016354
3841.0216,0.016592
3842.8853,0.016460
3844.7490,0.016597
3846.6126,0.016828
3848.4763,0.016553
3850.3400,0.016177
3852.2037,0.015304
3854.0673,0.014638
3855.9310,0.015388
3857.7947,0.015705
3859.6583,0.015746
3861.5220,0.016160
3863.3857,0.016763
3865.2493,0.017196
3867.1130,0.017203
3868.9767,0.016710
3870.8403,0.016948
3872.7040,0.017737
3874.5677,0.017473
3876.4314,0.017184
3878.2950,0.017270
3880.1587,0.017553
3882.0224,0.017987
3883.8860,0.017902
3885.7497,0.017445
3887.6134,0.017318
3889.4770,0.017238
3891.3407,0.017383
3893.2044,0.017334
3895.0680,0.017103
3896.9317,0.017871
3898.7954,0.018234
3900.6590,0.017822
3902.5227,0.017477
3904.3864,0.017307
3906.2501,0.017803
3908.1137,0.017989
3909.9774,0.017863
3911.8411,0.017951
3913.7047,0.018590
3915.5684,0.019129
3917.4321,0.018866
3919.2957,0.018346
3921.1594,0.018140
3923.0231,0.018142
3924.8867,0.018543
3926.7504,0.019040
3928.6141,0.018744
3930.4777,0.018634
3932.3414,0.019128
3934.2051,0.019606
3936.0688,0.019492
3937.9324,0.018911
3939.7961,0.018482
3941.6598,0.018514
3943.5234,0.018760
3945.3871,0.018552
3947.2508,0.018459
3949.1144,0.019157
3950.9781,0.019879
3952.8418,0.019659
3954.7054,0.019518
3956.5691,0.019452
3958.4328,0.019486
3960.2965,0.019583
3962.1601,0.019521
3964.0238,0.019524
3965.8875,0.019239
3967.7511,0.018796
3969.6148,0.018999
3971.4785,0.019567
3973.3421,0.019296
3975.2058,0.019165
3977.0695,0.019403
3978.9331,0.019206
3980.7968,0.019308
3982.6605,0.019803
3984.5241,0.019786
3986.3878,0.019727
3988.2515,0.019697
3990.1152,0.019747
3991.9788,0.020369
3993.8425,0.020082
3995.7062,0.019333
3997.5698,0.019618
3999.4335,0.019629
