Wavenumber,Intensity
650.4205,0.269758
652.2841,0.262949
654.1478,0.261734
656.0115,0.259265
657.8751,0.255829
659.7388,0.253559
661.6025,0.253953
663.4661,0.253001
665.3298,0.250874
667.1935,0.252580
669.0571,0.257403
670.9208,0.252095
672.7845,0.246875
674.6481,0.245116
676.5118,0.245080
678.3755,0.243916
680.2392,0.243018
682.1028,0.242595
683.9665,0.242233
685.8302,0.240542
687.6938,0.240077
689.5575,0.240219
691.4212,0.240060
693.2848,0.238050
695.1485,0.237976
697.0122,0.239804
698.8758,0.241951
700.7395,0.242515
702.6032,0.242120
704.4669,0.239714
706.3305,0.234339
708.1942,0.226727
710.0579,0.217854
711.9215,0.208041
713.7852,0.198598
715.6489,0.189626
717.5125,0.182152
719.3762,0.175775
721.2399,0.169993
723.1035,0.164629
724.9672,0.159904
726.8309,0.155008
728.6945,0.150428
730.5582,0.145884
732.4219,0.141631
734.2856,0.137349
736.1492,0.132821
738.0129,0.127982
739.8766,0.125698
741.7402,0.126457
743.6039,0.127525
745.4676,0.127013
747.3312,0.124391
749.1949,0.121172
751.0586,0.118837
752.9222,0.117211
754.7859,0.115281
756.6496,0.113558
758.5132,0.112606
760.3769,0.111961
762.2406,0.111179
764.1043,0.110565
765.9679,0.110136
767.8316,0.109912
769.6953,0.110194
771.5589,0.110755
773.4226,0.111396
775.2863,0.111762
777.1499,0.112322
779.0136,0.113379
780.8773,0.114978
782.7409,0.116982
784.6046,0.118974
786.4683,0.121120
788.3320,0.123582
790.1956,0.126118
792.0593,0.128723
793.9230,0.131668
795.7866,0.134602
797.6503,0.137334
799.5140,0.139825
801.3776,0.141135
803.2413,0.141623
805.1050,0.141680
806.9686,0.140716
808.8323,0.138248
810.6960,0.135272
812.5596,0.131913
814.4233,0.128094
816.2870,0.124180
818.1507,0.120400
820.0143,0.117094
821.8780,0.114778
823.7417,0.113568
825.6053,0.114198
827.4690,0.117067
829.3327,0.118402
831.1963,0.111344
833.0600,0.096744
834.9237,0.084258
836.7873,0.078238
838.6510,0.076131
840.5147,0.075595
842.3784,0.075848
844.2420,0.076737
846.1057,0.077818
847.9694,0.077305
849.8330,0.075099
851.6967,0.073172
853.5604,0.072245
855.4240,0.072005
857.2877,0.072176
859.1514,0.072388
861.0150,0.072509
862.8787,0.072629
864.7424,0.072917
866.6060,0.073185
868.4697,0.073455
870.3334,0.073759
872.1971,0.074124
874.0607,0.074545
875.9244,0.075188
877.7881,0.076192
879.6517,0.077222
881.5154,0.078214
883.3791,0.079432
885.2427,0.080877
887.1064,0.082653
888.9701,0.084661
890.8337,0.086649
892.6974,0.087543
894.5611,0.086574
896.4247,0.084966
898.2884,0.084622
900.1521,0.085931
902.0158,0.088382
903.8794,0.092169
905.7431,0.097480
907.6068,0.103902
909.4704,0.111197
911.3341,0.120077
913.1978,0.130420
915.0614,0.135758
916.9251,0.126218
918.7888,0.106081
920.6524,0.089719
922.5161,0.082178
924.3798,0.080160
926.2435,0.080094
928.1071,0.080417
929.9708,0.081192
931.8345,0.082394
933.6981,0.083704
935.5618,0.084925
937.4255,0.086052
939.2891,0.087373
941.1528,0.088797
943.0165,0.090209
944.8801,0.091668
946.7438,0.093203
948.6075,0.094839
950.4711,0.096688
952.3348,0.098677
954.1985,0.100906
956.0622,0.103273
957.9258,0.105582
959.7895,0.107623
961.6532,0.109048
963.5168,0.109809
965.3805,0.110800
967.2442,0.112830
969.1078,0.115990
970.9715,0.119935
972.8352,0.124749
974.6988,0.132260
976.5625,0.145114
978.4262,0.167166
980.2899,0.198242
982.1535,0.211899
984.0172,0.179291
985.8809,0.134690
987.7445,0.114074
989.6082,0.110776
991.4719,0.111718
993.3355,0.113509
995.1992,0.115579
997.0629,0.117748
998.9265,0.119792
1000.7902,0.121779
1002.6539,0.123767
1004.5175,0.125764
1006.3812,0.127899
1008.2449,0.129959
1010.1086,0.131805
1011.9722,0.133433
1013.8359,0.134788
1015.6996,0.135818
1017.5632,0.136501
1019.4269,0.136856
1021.2906,0.137013
1023.1542,0.137328
1025.0179,0.137846
1026.8816,0.138479
1028.7452,0.139552
1030.6089,0.141081
1032.4726,0.142728
1034.3362,0.144155
1036.1999,0.144920
1038.0636,0.145035
1039.9273,0.145483
1041.7909,0.147493
1043.6546,0.151436
1045.5183,0.156009
1047.3819,0.158585
1049.2456,0.156500
1051.1093,0.147853
1052.9729,0.134472
1054.8366,0.121804
1056.7003,0.113486
1058.5639,0.109525
1060.4276,0.108488
1062.2913,0.108855
1064.1550,0.109854
1066.0186,0.111375
1067.8823,0.113330
1069.7460,0.115686
1071.6096,0.118378
1073.4733,0.121255
1075.3370,0.124206
1077.2006,0.127340
1079.0643,0.130687
1080.9280,0.134239
1082.7916,0.138142
1084.6553,0.142428
1086.5190,0.147251
1088.3826,0.152690
1090.2463,0.158673
1092.1100,0.165435
1093.9737,0.173031
1095.8373,0.181214
1097.7010,0.189829
1099.5647,0.198676
1101.4283,0.207253
1103.2920,0.214612
1105.1557,0.219467
1107.0193,0.219785
1108.8830,0.213402
1110.7467,0.199933
1112.6103,0.181999
1114.4740,0.163263
1116.3377,0.146296
1118.2014,0.132476
1120.0650,0.122183
1121.9287,0.115089
1123.7924,0.110417
1125.6560,0.107149
1127.5197,0.104324
1129.3834,0.101481
1131.2470,0.098716
1133.1107,0.096341
1134.9744,0.094617
1136.8380,0.093562
1138.7017,0.093095
1140.5654,0.093096
1142.4290,0.093427
1144.2927,0.093905
1146.1564,0.094368
1148.0201,0.094876
1149.8837,0.095535
1151.7474,0.096413
1153.6111,0.097518
1155.4747,0.098807
1157.3384,0.100323
1159.2021,0.102209
1161.0657,0.104506
1162.9294,0.107344
1164.7931,0.110962
1166.6567,0.115515
1168.5204,0.120922
1170.3841,0.126449
1172.2477,0.130213
1174.1114,0.129786
1175.9751,0.124459
1177.8388,0.116926
1179.7024,0.110524
1181.5661,0.106433
1183.4298,0.104424
1185.2934,0.103662
1187.1571,0.103285
1189.0208,0.102919
1190.8844,0.102589
1192.7481,0.102331
1194.6118,0.102122
1196.4754,0.102146
1198.3391,0.102405
1200.2028,0.102737
1202.0665,0.103204
1203.9301,0.103674
1205.7938,0.103899
1207.6575,0.104031
1209.5211,0.104188
1211.3848,0.104325
1213.2485,0.104384
1215.1121,0.104210
1216.9758,0.103916
1218.8395,0.103715
1220.7031,0.103482
1222.5668,0.103130
1224.4305,0.102842
1226.2941,0.102637
1228.1578,0.102402
1230.0215,0.102132
1231.8852,0.101906
1233.7488,0.101700
1235.6125,0.101460
1237.4762,0.101250
1239.3398,0.101273
1241.2035,0.101753
1243.0672,0.102696
1244.9308,0.103943
1246.7945,0.105216
1248.6582,0.106342
1250.5218,0.107146
1252.3855,0.107483
1254.2492,0.107572
1256.1129,0.107798
1257.9765,0.108508
1259.8402,0.109767
1261.7039,0.111199
1263.5675,0.112574
1265.4312,0.113848
1267.2949,0.114689
1269.1585,0.114919
1271.0222,0.114826
1272.8859,0.114865
1274.7495,0.115300
1276.6132,0.116202
1278.4769,0.117493
1280.3405,0.119220
1282.2042,0.121360
1284.0679,0.123830
1285.9316,0.126797
1287.7952,0.130452
1289.6589,0.134694
1291.5226,0.139540
1293.3862,0.145399
1295.2499,0.152480
1297.1136,0.161014
1298.9772,0.171227
1300.8409,0.183214
1302.7046,0.195207
1304.5682,0.202431
1306.4319,0.199502
1308.2956,0.182133
1310.1592,0.152594
1312.0229,0.122856
1313.8866,0.103307
1315.7503,0.095417
1317.6139,0.094549
1319.4776,0.096908
1321.3413,0.099983
1323.2049,0.103220
1325.0686,0.106925
1326.9323,0.110678
1328.7959,0.114389
1330.6596,0.117815
1332.5233,0.120482
1334.3869,0.122343
1336.2506,0.124020
1338.1143,0.126822
1339.9780,0.130664
1341.8416,0.132568
1343.7053,0.132795
1345.5690,0.133141
1347.4326,0.133582
1349.2963,0.134643
1351.1600,0.136363
1353.0236,0.138751
1354.8873,0.142004
1356.7510,0.145107
1358.6146,0.147734
1360.4783,0.151680
1362.3420,0.158574
1364.2056,0.164675
1366.0693,0.167593
1367.9330,0.172106
1369.7967,0.177618
1371.6603,0.182052
1373.5240,0.188856
1375.3877,0.196612
1377.2513,0.201233
1379.1150,0.207353
1380.9787,0.215697
1382.8423,0.224541
1384.7060,0.234672
1386.5697,0.248072
1388.4333,0.261244
1390.2970,0.265894
1392.1607,0.267554
1394.0244,0.268030
1395.8880,0.261110
1397.7517,0.248730
1399.6154,0.234550
1401.4790,0.220649
1403.3427,0.208856
1405.2064,0.191538
1407.0700,0.167481
1408.9337,0.143844
1410.7974,0.122213
1412.6610,0.106669
1414.5247,0.099291
1416.3884,0.098847
1418.2520,0.106362
1420.1157,0.119944
1421.9794,0.126240
1423.8431,0.124258
1425.7067,0.112772
1427.5704,0.099311
1429.4341,0.090447
1431.2977,0.086081
1433.1614,0.084890
1435.0251,0.086487
1436.8887,0.091791
1438.7524,0.094893
1440.6161,0.095528
1442.4797,0.097542
1444.3434,0.099456
1446.2071,0.101143
1448.0707,0.102439
1449.9344,0.100661
1451.7981,0.096835
1453.6618,0.093312
1455.5254,0.093257
1457.3891,0.100189
1459.2528,0.101974
1461.1164,0.098513
1462.9801,0.097612
1464.8438,0.099025
1466.7074,0.098376
1468.5711,0.095188
1470.4348,0.093687
1472.2984,0.095771
1474.1621,0.097994
1476.0258,0.097364
1477.8895,0.097049
1479.7531,0.096810
1481.6168,0.097502
1483.4805,0.097792
1485.3441,0.097810
1487.2078,0.099510
1489.0715,0.103818
1490.9351,0.107295
1492.7988,0.106395
1494.6625,0.106238
1496.5261,0.110485
1498.3898,0.114840
1500.2535,0.115422
1502.1171,0.114399
1503.9808,0.113901
1505.8445,0.118383
1507.7082,0.130526
1509.5718,0.128807
1511.4355,0.126552
1513.2992,0.126362
1515.1628,0.127128
1517.0265,0.129536
1518.8902,0.130674
1520.7538,0.133069
1522.6175,0.138146
1524.4812,0.137809
1526.3448,0.138906
1528.2085,0.139731
1530.0722,0.138786
1531.9359,0.140057
1533.7995,0.144135
1535.6632,0.143718
1537.5269,0.142490
1539.3905,0.148696
1541.2542,0.160120
1543.1179,0.160602
1544.9815,0.161905
1546.8452,0.162972
1548.7089,0.164508
1550.5725,0.168387
1552.4362,0.170900
1554.2999,0.172882
1556.1635,0.176381
1558.0272,0.185556
1559.8909,0.205686
1561.7546,0.199077
1563.6182,0.196467
1565.4819,0.199947
1567.3456,0.204242
1569.2092,0.210851
1571.0729,0.217519
1572.9366,0.218068
1574.8002,0.222894
1576.6639,0.234292
1578.5276,0.238285
1580.3912,0.238607
1582.2549,0.242203
1584.1186,0.245461
1585.9822,0.247557
1587.8459,0.248360
1589.7096,0.248337
1591.5733,0.247287
1593.4369,0.245748
1595.3006,0.243549
1597.1643,0.240561
1599.0279,0.237072
1600.8916,0.233759
1602.7553,0.230761
1604.6189,0.227958
1606.4826,0.225667
1608.3463,0.223934
1610.2099,0.221272
1612.0736,0.216914
1613.9373,0.211962
1615.8010,0.206591
1617.6646,0.195383
1619.5283,0.182878
1621.3920,0.174726
1623.2556,0.165075
1625.1193,0.153151
1626.9830,0.142893
1628.8466,0.130897
1630.7103,0.118339
1632.5740,0.108395
1634.4376,0.099318
1636.3013,0.088925
1638.1650,0.081501
1640.0286,0.079002
1641.8923,0.077387
1643.7560,0.077601
1645.6197,0.080103
1647.4833,0.084759
1649.3470,0.086333
1651.2107,0.088461
1653.0743,0.096680
1654.9380,0.103549
1656.8017,0.101736
1658.6653,0.102374
1660.5290,0.103311
1662.3927,0.103654
1664.2563,0.102283
1666.1200,0.100107
1667.9837,0.098548
1669.8474,0.097311
1671.7110,0.095877
1673.5747,0.096349
1675.4384,0.099451
1677.3020,0.103065
1679.1657,0.105858
1681.0294,0.111227
1682.8930,0.117752
1684.7567,0.126717
1686.6204,0.128240
1688.4840,0.126368
1690.3477,0.124341
1692.2114,0.120748
1694.0750,0.117240
1695.9387,0.113817
1697.8024,0.108327
1699.6661,0.104205
1701.5297,0.094871
1703.3934,0.085836
1705.2571,0.076362
1707.1207,0.063838
1708.9844,0.055007
1710.8481,0.048591
1712.7117,0.043264
1714.5754,0.039928
1716.4391,0.037345
1718.3027,0.035859
1720.1664,0.033988
1722.0301,0.032568
1723.8937,0.030447
1725.7574,0.027700
1727.6211,0.025045
1729.4848,0.022936
1731.3484,0.020977
1733.2121,0.019945
1735.0758,0.018585
1736.9394,0.017456
1738.8031,0.016951
1740.6668,0.016561
1742.5304,0.015711
1744.3941,0.015359
1746.2578,0.015029
1748.1214,0.014690
1749.9851,0.014145
1751.8488,0.013906
1753.7125,0.013680
1755.5761,0.013663
1757.4398,0.013446
1759.3035,0.013318
1761.1671,0.013309
1763.0308,0.013372
1764.8945,0.012964
1766.7581,0.012835
1768.6218,0.012714
1770.4855,0.012806
1772.3491,0.012968
1774.2128,0.012982
1776.0765,0.012571
1777.9401,0.012657
1779.8038,0.012705
1781.6675,0.012894
1783.5312,0.012884
1785.3948,0.012996
1787.2585,0.012988
1789.1222,0.013046
1790.9858,0.012919
1792.8495,0.013061
1794.7132,0.012937
1796.5768,0.012902
1798.4405,0.012793
1800.3042,0.012982
1802.1678,0.013112
1804.0315,0.013276
1805.8952,0.013294
1807.7589,0.013426
1809.6225,0.013521
1811.4862,0.013666
1813.3499,0.013425
1815.2135,0.013188
1817.0772,0.012936
1818.9409,0.013035
1820.8045,0.013021
1822.6682,0.013293
1824.5319,0.013415
1826.3955,0.013167
1828.2592,0.012774
1830.1229,0.012890
1831.9865,0.012717
1833.8502,0.012760
1835.7139,0.012836
1837.5776,0.012839
1839.4412,0.012651
1841.3049,0.012672
1843.1686,0.012640
1845.0322,0.012965
1846.8959,0.012649
1848.7596,0.012764
1850.6232,0.012922
1852.4869,0.013125
1854.3506,0.013069
1856.2142,0.012953
1858.0779,0.012699
1859.9416,0.013174
1861.8052,0.013583
1863.6689,0.013468
1865.5326,0.013081
1867.3963,0.013328
1869.2599,0.013235
1871.1236,0.012835
1872.9873,0.012516
1874.8509,0.012798
1876.7146,0.012923
1878.5783,0.012924
1880.4419,0.013047
1882.3056,0.013362
1884.1693,0.013190
1886.0329,0.012984
1887.8966,0.012808
1889.7603,0.013205
1891.6240,0.013197
1893.4876,0.013388
1895.3513,0.013405
1897.2150,0.013393
1899.0786,0.013268
1900.9423,0.013280
1902.8060,0.013118
1904.6696,0.013516
1906.5333,0.013627
1908.3970,0.013382
1910.2606,0.012820
1912.1243,0.012810
1913.9880,0.013246
1915.8516,0.013667
1917.7153,0.013108
1919.5790,0.012859
1921.4427,0.012964
1923.3063,0.012904
1925.1700,0.012698
1927.0337,0.013440
1928.8973,0.013447
1930.7610,0.012856
1932.6247,0.012893
1934.4883,0.013041
1936.3520,0.012159
1938.2157,0.012115
1940.0793,0.011775
1941.9430,0.011795
1943.8067,0.011069
1945.6704,0.011148
1947.5340,0.010383
1949.3977,0.009792
1951.2614,0.009776
1953.1250,0.010742
1954.9887,0.010612
1956.8524,0.010441
1958.7160,0.009898
1960.5797,0.009310
1962.4434,0.008047
1964.3070,0.006455
1966.1707,0.004670
1968.0344,0.004479
1969.8980,0.004464
1971.7617,0.004675
1973.6254,0.003810
1975.4891,0.003852
1977.3527,0.003565
1979.2164,0.006235
1981.0801,0.008609
1982.9437,0.008558
1984.8074,0.008552
1986.6711,0.009121
1988.5347,0.008132
1990.3984,0.008815
1992.2621,0.009087
1994.1257,0.009260
1995.9894,0.009349
1997.8531,0.010162
1999.7167,0.010053
2001.5804,0.009518
2003.4441,0.007934
2005.3078,0.007072
2007.1714,0.006597
2009.0351,0.006965
2010.8988,0.006775
2012.7624,0.007552
2014.6261,0.007439
2016.4898,0.006974
2018.3534,0.005155
2020.2171,0.004528
2022.0808,0.004605
2023.9444,0.005870
2025.8081,0.006404
2027.6718,0.005741
2029.5355,0.004917
2031.3991,0.006202
2033.2628,0.006946
2035.1265,0.006805
2036.9901,0.006769
2038.8538,0.009008
2040.7175,0.007974
2042.5811,0.008033
2044.4448,0.009572
2046.3085,0.010363
2048.1721,0.010091
2050.0358,0.011053
2051.8995,0.011862
2053.7631,0.012184
2055.6268,0.012605
2057.4905,0.013569
2059.3542,0.013200
2061.2178,0.013069
2063.0815,0.013118
2064.9452,0.013616
2066.8088,0.013708
2068.6725,0.013823
2070.5362,0.014690
2072.3998,0.015843
2074.2635,0.015948
2076.1272,0.016169
2077.9908,0.016459
2079.8545,0.016493
2081.7182,0.015975
2083.5819,0.016447
2085.4455,0.016812
2087.3092,0.016959
2089.1729,0.016921
2091.0365,0.017192
2092.9002,0.016356
2094.7639,0.016135
2096.6275,0.016966
2098.4912,0.017231
2100.3549,0.016581
2102.2185,0.016861
2104.0822,0.016932
2105.9459,0.016892
2107.8095,0.017341
2109.6732,0.018017
2111.5369,0.018193
2113.4006,0.018427
2115.2642,0.017732
2117.1279,0.017920
2118.9916,0.018292
2120.8552,0.017678
2122.7189,0.017436
2124.5826,0.017786
2126.4462,0.017265
2128.3099,0.017535
2130.1736,0.017128
2132.0372,0.016347
2133.9009,0.015713
2135.7646,0.016100
2137.6282,0.015582
2139.4919,0.014810
2141.3556,0.014265
2143.2193,0.013444
2145.0829,0.012500
2146.9466,0.012871
2148.8103,0.012932
2150.6739,0.012373
2152.5376,0.010608
2154.4013,0.008720
2156.2649,0.007805
2158.1286,0.007807
2159.9923,0.006428
2161.8559,0.007450
2163.7196,0.007229
2165.5833,0.008032
2167.4470,0.010348
2169.3106,0.012048
2171.1743,0.011155
2173.0380,0.011740
2174.9016,0.012649
2176.7653,0.012721
2178.6290,0.011977
2180.4926,0.011796
2182.3563,0.012525
2184.2200,0.014074
2186.0836,0.014126
2187.9473,0.014045
2189.8110,0.014400
2191.6746,0.015539
2193.5383,0.015685
2195.4020,0.015792
2197.2657,0.015980
2199.1293,0.015841
2200.9930,0.015190
2202.8567,0.016520
2204.7203,0.017204
2206.5840,0.017823
2208.4477,0.017500
2210.3113,0.017532
2212.1750,0.017299
2214.0387,0.017339
2215.9023,0.017934
2217.7660,0.019283
2219.6297,0.019226
2221.4934,0.018595
2223.3570,0.018751
2225.2207,0.019504
2227.0844,0.019400
2228.9480,0.019557
2230.8117,0.019654
2232.6754,0.019393
2234.5390,0.019829
2236.4027,0.020458
2238.2664,0.020485
2240.1300,0.020717
2241.9937,0.020849
2243.8574,0.021658
2245.7210,0.021972
2247.5847,0.021702
2249.4484,0.021370
2251.3121,0.022016
2253.1757,0.022564
2255.0394,0.022664
2256.9031,0.022837
2258.7667,0.023183
2260.6304,0.023032
2262.4941,0.023392
2264.3577,0.023683
2266.2214,0.023570
2268.0851,0.023859
2269.9487,0.024619
2271.8124,0.025092
2273.6761,0.025497
2275.5397,0.025784
2277.4034,0.026156
2279.2671,0.026684
2281.1308,0.027144
2282.9944,0.027257
2284.8581,0.027654
2286.7218,0.027837
2288.5854,0.027622
2290.4491,0.027487
2292.3128,0.027592
2294.1764,0.027843
2296.0401,0.027759
2297.9038,0.027398
2299.7674,0.027602
2301.6311,0.027782
2303.4948,0.027837
2305.3585,0.028234
2307.2221,0.028466
2309.0858,0.028387
2310.9495,0.028306
2312.8131,0.028259
2314.6768,0.028317
2316.5405,0.028165
2318.4041,0.028210
2320.2678,0.028439
2322.1315,0.028694
2323.9951,0.028508
2325.8588,0.027739
2327.7225,0.026862
2329.5861,0.026800
2331.4498,0.026775
2333.3135,0.026803
2335.1772,0.026861
2337.0408,0.026668
2338.9045,0.026515
2340.7682,0.026861
2342.6318,0.027589
2344.4955,0.027959
2346.3592,0.027309
2348.2228,0.026468
2350.0865,0.025827
2351.9502,0.025751
2353.8138,0.025838
2355.6775,0.025998
2357.5412,0.026062
2359.4049,0.026084
2361.2685,0.026172
2363.1322,0.026351
2364.9959,0.026471
2366.8595,0.026985
2368.7232,0.027172
2370.5869,0.027095
2372.4505,0.027507
2374.3142,0.027975
2376.1779,0.028128
2378.0415,0.027941
2379.9052,0.027977
2381.7689,0.028190
2383.6325,0.028209
2385.4962,0.028256
2387.3599,0.028086
2389.2236,0.027944
2391.0872,0.028045
2392.9509,0.028395
2394.8146,0.028292
2396.6782,0.028253
2398.5419,0.028293
2400.4056,0.028383
2402.2692,0.028664
2404.1329,0.028918
2405.9966,0.029045
2407.8602,0.029047
2409.7239,0.028893
2411.5876,0.028947
2413.4512,0.029027
2415.3149,0.029078
2417.1786,0.029426
2419.0423,0.029767
2420.9059,0.029900
2422.7696,0.030008
2424.6333,0.030103
2426.4969,0.030095
2428.3606,0.029899
2430.2243,0.030163
2432.0879,0.030176
2433.9516,0.030004
2435.8153,0.030300
2437.6789,0.030634
2439.5426,0.030470
2441.4063,0.030471
2443.2700,0.030561
2445.1336,0.030615
2446.9973,0.030268
2448.8610,0.030186
2450.7246,0.030206
2452.5883,0.030326
2454.4520,0.030354
2456.3156,0.030110
2458.1793,0.029929
2460.0430,0.030039
2461.9066,0.030053
2463.7703,0.030191
2465.6340,0.030007
2467.4976,0.029723
2469.3613,0.029871
2471.2250,0.029934
2473.0887,0.030057
2474.9523,0.030137
2476.8160,0.030147
2478.6797,0.030263
2480.5433,0.030175
2482.4070,0.030522
2484.2707,0.030712
2486.1343,0.030716
2487.9980,0.030790
2489.8617,0.031087
2491.7253,0.031228
2493.5890,0.031147
2495.4527,0.031375
2497.3164,0.031844
2499.1800,0.031759
2501.0437,0.031783
2502.9074,0.031753
2504.7710,0.031504
2506.6347,0.031776
2508.4984,0.031897
2510.3620,0.032102
2512.2257,0.032654
2514.0894,0.032913
2515.9530,0.032770
2517.8167,0.032656
2519.6804,0.033128
2521.5440,0.033294
2523.4077,0.033174
2525.2714,0.033352
2527.1351,0.033341
2528.9987,0.033057
2530.8624,0.033313
2532.7261,0.033654
2534.5897,0.033706
2536.4534,0.033860
2538.3171,0.033717
2540.1807,0.033630
2542.0444,0.033860
2543.9081,0.033756
2545.7717,0.033690
2547.6354,0.033801
2549.4991,0.034123
2551.3627,0.034325
2553.2264,0.034416
2555.0901,0.034411
2556.9538,0.034589
2558.8174,0.034916
2560.6811,0.034949
2562.5448,0.034598
2564.4084,0.035089
2566.2721,0.035532
2568.1358,0.035303
2569.9994,0.035228
2571.8631,0.035603
2573.7268,0.035789
2575.5904,0.035832
2577.4541,0.036412
2579.3178,0.036913
2581.1815,0.036837
2583.0451,0.036702
2584.9088,0.036923
2586.7725,0.037224
2588.6361,0.037488
2590.4998,0.037718
2592.3635,0.038082
2594.2271,0.038298
2596.0908,0.038376
2597.9545,0.038433
2599.8181,0.038533
2601.6818,0.038843
2603.5455,0.039278
2605.4091,0.039661
2607.2728,0.040195
2609.1365,0.040455
2611.0002,0.040201
2612.8638,0.040214
2614.7275,0.040677
2616.5912,0.040806
2618.4548,0.040657
2620.3185,0.040941
2622.1822,0.041293
2624.0458,0.041538
2625.9095,0.042148
2627.7732,0.042552
2629.6368,0.042704
2631.5005,0.043077
2633.3642,0.043424
2635.2279,0.043546
2637.0915,0.043916
2638.9552,0.044344
2640.8189,0.044628
2642.6825,0.044901
2644.5462,0.045180
2646.4099,0.045377
2648.2735,0.045448
2650.1372,0.045640
2652.0009,0.045816
2653.8645,0.046102
2655.7282,0.046039
2657.5919,0.046163
2659.4555,0.046561
2661.3192,0.046669
2663.1829,0.046727
2665.0466,0.046889
2666.9102,0.046949
2668.7739,0.047217
2670.6376,0.047371
2672.5012,0.047536
2674.3649,0.048004
2676.2286,0.048171
2678.0922,0.048530
2679.9559,0.049126
2681.8196,0.049555
2683.6832,0.049799
2685.5469,0.049913
2687.4106,0.050155
2689.2742,0.050469
2691.1379,0.050770
2693.0016,0.051051
2694.8653,0.051381
2696.7289,0.051757
2698.5926,0.052241
2700.4563,0.052793
2702.3199,0.053151
2704.1836,0.053442
2706.0473,0.053821
2707.9109,0.054454
2709.7746,0.054916
2711.6383,0.055275
2713.5019,0.055633
2715.3656,0.056136
2717.2293,0.056686
2719.0930,0.057079
2720.9566,0.057466
2722.8203,0.057893
2724.6840,0.058401
2726.5476,0.059119
2728.4113,0.059723
2730.2750,0.060244
2732.1386,0.060905
2734.0023,0.061566
2735.8660,0.062179
2737.7296,0.062906
2739.5933,0.063850
2741.4570,0.064593
2743.3206,0.065145
2745.1843,0.065863
2747.0480,0.066795
2748.9117,0.067994
2750.7753,0.069185
2752.6390,0.070023
2754.5027,0.070370
2756.3663,0.070884
2758.2300,0.071640
2760.0937,0.072394
2761.9573,0.073204
2763.8210,0.073939
2765.6847,0.074866
2767.5483,0.076005
2769.4120,0.076797
2771.2757,0.077424
2773.1394,0.078055
2775.0030,0.079339
2776.8667,0.080648
2778.7304,0.081168
2780.5940,0.081492
2782.4577,0.081833
2784.3214,0.082022
2786.1850,0.081900
2788.0487,0.081406
2789.9124,0.081350
2791.7760,0.080980
2793.6397,0.079922
2795.5034,0.078817
2797.3670,0.078174
2799.2307,0.077735
2801.0944,0.077255
2802.9581,0.076733
2804.8217,0.076055
2806.6854,0.075075
2808.5491,0.074741
2810.4127,0.074910
2812.2764,0.074988
2814.1401,0.074554
2816.0037,0.074194
2817.8674,0.074209
2819.7311,0.074616
2821.5947,0.074945
2823.4584,0.075115
2825.3221,0.075148
2827.1857,0.075105
2829.0494,0.074485
2830.9131,0.073812
2832.7768,0.073573
2834.6404,0.073505
2836.5041,0.073577
2838.3678,0.073974
2840.2314,0.074581
2842.0951,0.074980
2843.9588,0.075037
2845.8224,0.075611
2847.6861,0.076388
2849.5498,0.077564
2851.4134,0.078734
2853.2771,0.079501
2855.1408,0.080253
2857.0045,0.081438
2858.8681,0.082300
2860.7318,0.083000
2862.5955,0.083619
2864.4591,0.084023
2866.3228,0.084258
2868.1865,0.084526
2870.0501,0.084763
2871.9138,0.085293
2873.7775,0.085988
2875.6411,0.086676
2877.5048,0.087331
2879.3685,0.087804
2881.2321,0.088502
2883.0958,0.089536
2884.9595,0.090266
2886.8232,0.091138
2888.6868,0.091836
2890.5505,0.092736
2892.4142,0.093907
2894.2778,0.094867
2896.1415,0.095568
2898.0052,0.096130
2899.8688,0.096151
2901.7325,0.096133
2903.5962,0.096248
2905.4598,0.096452
2907.3235,0.096490
2909.1872,0.096820
2911.0509,0.097586
2912.9145,0.098792
2914.7782,0.100030
2916.6419,0.101097
2918.5055,0.102179
2920.3692,0.103278
2922.2329,0.103936
2924.0965,0.104963
2925.9602,0.105807
2927.8239,0.106607
2929.6875,0.107749
2931.5512,0.109132
2933.4149,0.110015
2935.2785,0.110863
2937.1422,0.111459
2939.0059,0.111974
2940.8696,0.112387
2942.7332,0.112825
2944.5969,0.113134
2946.4606,0.113781
2948.3242,0.114003
2950.1879,0.114247
2952.0516,0.114726
2953.9152,0.115541
2955.7789,0.116236
2957.6426,0.116638
2959.5062,0.117197
2961.3699,0.118607
2963.2336,0.120085
2965.0972,0.121489
2966.9609,0.122690
2968.8246,0.124017
2970.6883,0.125021
2972.5519,0.125821
2974.4156,0.126273
2976.2793,0.126799
2978.1429,0.127562
2980.0066,0.128695
2981.8703,0.129276
2983.7339,0.129347
2985.5976,0.129177
2987.4613,0.129708
2989.3249,0.130818
2991.1886,0.131994
2993.0523,0.132945
2994.9160,0.133890
2996.7796,0.134906
2998.6433,0.136219
3000.5070,0.137153
3002.3706,0.138088
3004.2343,0.139120
3006.0980,0.140672
3007.9616,0.142166
3009.8253,0.143591
3011.6890,0.144580
3013.5526,0.145635
3015.4163,0.146774
3017.2800,0.147924
3019.1436,0.148701
3021.0073,0.149405
3022.8710,0.149898
3024.7347,0.150774
3026.5983,0.151167
3028.4620,0.151332
3030.3257,0.151828
3032.1893,0.152637
3034.0530,0.153101
3035.9167,0.153623
3037.7803,0.153967
3039.6440,0.154479
3041.5077,0.154954
3043.3713,0.155573
3045.2350,0.155771
3047.0987,0.156390
3048.9624,0.156768
3050.8260,0.157018
3052.6897,0.156925
3054.5534,0.156951
3056.4170,0.157190
3058.2807,0.157510
3060.1444,0.157382
3062.0080,0.157557
3063.8717,0.157707
3065.7354,0.157839
3067.5990,0.157598
3069.4627,0.157622
3071.3264,0.157531
3073.1900,0.157457
3075.0537,0.156569
3076.9174,0.155963
3078.7811,0.155954
3080.6447,0.155873
3082.5084,0.155229
3084.3721,0.154404
3086.2357,0.153525
3088.0994,0.152820
3089.9631,0.151600
3091.8267,0.150821
3093.6904,0.150170
3095.5541,0.149090
3097.4177,0.147538
3099.2814,0.146629
3101.1451,0.145568
3103.0087,0.144528
3104.8724,0.143092
3106.7361,0.141434
3108.5998,0.139835
3110.4634,0.138604
3112.3271,0.137646
3114.1908,0.136300
3116.0544,0.134515
3117.9181,0.133919
3119.7818,0.133076
3121.6454,0.131694
3123.5091,0.130561
3125.3728,0.129221
3127.2364,0.127521
3129.1001,0.126572
3130.9638,0.125857
3132.8275,0.125081
3134.6911,0.123541
3136.5548,0.122260
3138.4185,0.121895
3140.2821,0.122113
3142.1458,0.121829
3144.0095,0.120660
3145.8731,0.119396
3147.7368,0.118646
3149.6005,0.117523
3151.4641,0.116837
3153.3278,0.116898
3155.1915,0.116817
3157.0551,0.115516
3158.9188,0.113906
3160.7825,0.113110
3162.6462,0.112688
3164.5098,0.111789
3166.3735,0.110873
3168.2372,0.110080
3170.1008,0.109570
3171.9645,0.109556
3173.8282,0.109729
3175.6918,0.108679
3177.5555,0.108113
3179.4192,0.108244
3181.2828,0.107719
3183.1465,0.106672
3185.0102,0.106710
3186.8739,0.107055
3188.7375,0.106601
3190.6012,0.105910
3192.4649,0.105272
3194.3285,0.104844
3196.1922,0.105089
3198.0559,0.105613
3199.9195,0.105698
3201.7832,0.105198
3203.6469,0.105187
3205.5105,0.105289
3207.3742,0.105146
3209.2379,0.105301
3211.1015,0.105895
3212.9652,0.105855
3214.8289,0.105679
3216.6926,0.104961
3218.5562,0.104804
3220.4199,0.105394
3222.2836,0.105274
3224.1472,0.104948
3226.0109,0.105321
3227.8746,0.104956
3229.7382,0.104389
3231.6019,0.104421
3233.4656,0.105437
3235.3292,0.106177
3237.1929,0.106328
3239.0566,0.106101
3240.9202,0.106214
3242.7839,0.106432
3244.6476,0.106857
3246.5113,0.106813
3248.3749,0.106876
3250.2386,0.107375
3252.1023,0.107887
3253.9659,0.108462
3255.8296,0.108721
3257.6933,0.108628
3259.5569,0.109315
3261.4206,0.110084
3263.2843,0.109936
3265.1479,0.110305
3267.0116,0.111558
3268.8753,0.111321
3270.7390,0.110714
3272.6026,0.110830
3274.4663,0.110875
3276.3300,0.110326
3278.1936,0.110254
3280.0573,0.110158
3281.9210,0.109658
3283.7846,0.108944
3285.6483,0.107999
3287.5120,0.106999
3289.3756,0.106531
3291.2393,0.105893
3293.1030,0.104480
3294.9666,0.103261
3296.8303,0.102450
3298.6940,0.100883
3300.5577,0.099825
3302.4213,0.099058
3304.2850,0.098763
3306.1487,0.097833
3308.0123,0.096331
3309.8760,0.095604
3311.7397,0.095012
3313.6033,0.094504
3315.4670,0.094773
3317.3307,0.094487
3319.1943,0.094915
3321.0580,0.095634
3322.9217,0.095699
3324.7854,0.096092
3326.6490,0.096748
3328.5127,0.096816
3330.3764,0.096970
3332.2400,0.096808
3334.1037,0.096451
3335.9674,0.095300
3337.8310,0.094211
3339.6947,0.093885
3341.5584,0.093137
3343.4220,0.091374
3345.2857,0.089955
3347.1494,0.088431
3349.0130,0.086085
3350.8767,0.084044
3352.7404,0.082801
3354.6041,0.081449
3356.4677,0.080378
3358.3314,0.078541
3360.1951,0.076841
3362.0587,0.075836
3363.9224,0.074778
3365.7861,0.074105
3367.6497,0.074579
3369.5134,0.074490
3371.3771,0.073603
3373.2407,0.072659
3375.1044,0.072579
3376.9681,0.072958
3378.8317,0.073335
3380.6954,0.073405
3382.5591,0.073828
3384.4228,0.074418
3386.2864,0.074880
3388.1501,0.075157
3390.0138,0.075910
3391.8774,0.077215
3393.7411,0.078078
3395.6048,0.077781
3397.4684,0.077654
3399.3321,0.077403
3401.1958,0.076906
3403.0594,0.076331
3404.9231,0.075136
3406.7868,0.073068
3408.6505,0.071895
3410.5141,0.070736
3412.3778,0.068194
3414.2415,0.065337
3416.1051,0.063022
3417.9688,0.060737
3419.8325,0.058587
3421.6961,0.056948
3423.5598,0.055454
3425.4235,0.053385
3427.2871,0.051232
3429.1508,0.049315
3431.0145,0.047917
3432.8781,0.047080
3434.7418,0.045854
3436.6055,0.044036
3438.4692,0.043125
3440.3328,0.042133
3442.1965,0.039827
3444.0602,0.038046
3445.9238,0.037641
3447.7875,0.037342
3449.6512,0.037009
3451.5148,0.035762
3453.3785,0.034798
3455.2422,0.035432
3457.1058,0.035627
3458.9695,0.034862
3460.8332,0.033788
3462.6969,0.032602
3464.5605,0.032610
3466.4242,0.032306
3468.2879,0.031261
3470.1515,0.030678
3472.0152,0.029409
3473.8789,0.028228
3475.7425,0.028784
3477.6062,0.029866
3479.4699,0.029519
3481.3335,0.027710
3483.1972,0.026008
3485.0609,0.025370
3486.9245,0.025947
3488.7882,0.026222
3490.6519,0.024768
3492.5156,0.023504
3494.3792,0.023543
3496.2429,0.023278
3498.1066,0.022146
3499.9702,0.021070
3501.8339,0.020886
3503.6976,0.020473
3505.5612,0.019970
3507.4249,0.020091
3509.2886,0.019819
3511.1522,0.018854
3513.0159,0.018282
3514.8796,0.018267
3516.7432,0.018165
3518.6069,0.017714
3520.4706,0.017327
3522.3343,0.016895
3524.1979,0.016606
3526.0616,0.016899
3527.9253,0.016077
3529.7889,0.013780
3531.6526,0.013582
3533.5163,0.015193
3535.3799,0.015042
3537.2436,0.013966
3539.1073,0.013995
3540.9709,0.014524
3542.8346,0.014363
3544.6983,0.013375
3546.5620,0.012738
3548.4256,0.012576
3550.2893,0.012830
3552.1530,0.013578
3554.0166,0.013379
3555.8803,0.012710
3557.7440,0.012441
3559.6076,0.012308
3561.4713,0.011629
3563.3350,0.010307
3565.1986,0.010056
3567.0623,0.009504
3568.9260,0.008308
3570.7896,0.009539
3572.6533,0.011099
3574.5170,0.011186
3576.3807,0.010734
3578.2443,0.010358
3580.1080,0.010421
3581.9717,0.010764
3583.8353,0.010511
3585.6990,0.009968
3587.5627,0.009430
3589.4263,0.009761
3591.2900,0.010317
3593.1537,0.010473
3595.0173,0.009768
3596.8810,0.008599
3598.7447,0.008930
3600.6084,0.009897
3602.4720,0.009905
3604.3357,0.009852
3606.1994,0.010468
3608.0630,0.011216
3609.9267,0.011215
3611.7904,0.009882
3613.6540,0.008730
3615.5177,0.009075
3617.3814,0.010222
3619.2450,0.010149
3621.1087,0.009897
3622.9724,0.009993
3624.8360,0.010055
3626.6997,0.010324
3628.5634,0.009734
3630.4271,0.008368
3632.2907,0.009310
3634.1544,0.010175
3636.0181,0.009976
3637.8817,0.010329
3639.7454,0.010957
3641.6091,0.010980
3643.4727,0.010397
3645.3364,0.009914
3647.2001,0.009688
3649.0637,0.008635
3650.9274,0.007247
3652.7911,0.009015
3654.6547,0.010754
3656.5184,0.010819
3658.3821,0.010901
3660.2458,0.011031
3662.1094,0.011039
3663.9731,0.011594
3665.8368,0.011739
3667.7004,0.011175
3669.5641,0.011062
3671.4278,0.011398
3673.2914,0.012434
3675.1551,0.013713
3677.0188,0.013777
3678.8824,0.011670
3680.7461,0.010056
3682.6098,0.009778
3684.4735,0.010400
3686.3371,0.010773
3688.2008,0.009986
3690.0645,0.009140
3691.9281,0.009417
3693.7918,0.009638
3695.6555,0.010501
3697.5191,0.010748
3699.3828,0.010201
3701.2465,0.010845
3703.1101,0.011711
3704.9738,0.012007
3706.8375,0.012030
3708.7011,0.011535
3710.5648,0.009945
3712.4285,0.008934
3714.2922,0.010547
3716.1558,0.011459
3718.0195,0.011351
3719.8832,0.010989
3721.7468,0.010852
3723.6105,0.011021
3725.4742,0.010865
3727.3378,0.011005
3729.2015,0.011171
3731.0652,0.010787
3732.9288,0.010287
3734.7925,0.009591
3736.6562,0.009109
3738.5199,0.009513
3740.3835,0.010095
3742.2472,0.010599
3744.1109,0.010185
3745.9745,0.009069
3747.8382,0.009302
3749.7019,0.009620
3751.5655,0.009999
3753.4292,0.010786
3755.2929,0.011565
3757.1565,0.012279
3759.0202,0.012517
3760.8839,0.012303
3762.7475,0.012430
3764.6112,0.012488
3766.4749,0.012355
3768.3386,0.012890
3770.2022,0.013272
3772.0659,0.012570
3773.9296,0.012210
3775.7932,0.012926
3777.6569,0.013634
3779.5206,0.013351
3781.3842,0.012891
3783.2479,0.013052
3785.1116,0.013183
3786.9752,0.013204
3788.8389,0.013086
3790.7026,0.013026
3792.5662,0.013298
3794.4299,0.012994
3796.2936,0.012432
3798.1573,0.012431
3800.0209,0.012223
3801.8846,0.011926
3803.7483,0.012133
3805.6119,0.012494
3807.4756,0.012739
3809.3393,0.012701
3811.2029,0.012548
3813.0666,0.012896
3814.9303,0.013244
3816.7939,0.013062
3818.6576,0.012881
3820.5213,0.013171
3822.3850,0.012821
3824.2486,0.012520
3826.1123,0.013040
3827.9760,0.013135
3829.8396,0.012985
3831.7033,0.012792
3833.5670,0.012543
3835.4306,0.012522
3837.2943,0.012447
3839.1580,0.012246
3841.0216,0.012407
3842.8853,0.012563
3844.7490,0.012672
3846.6126,0.013250
3848.4763,0.013597
3850.3400,0.013081
3852.2037,0.012057
3854.0673,0.011584
3855.9310,0.012812
3857.7947,0.013726
3859.6583,0.013387
3861.5220,0.013171
3863.3857,0.013218
3865.2493,0.012959
3867.1130,0.013144
3868.9767,0.013435
3870.8403,0.013680
3872.7040,0.014068
3874.5677,0.013786
3876.4314,0.013548
3878.2950,0.013721
3880.1587,0.013854
3882.0224,0.013554
3883.8860,0.013443
3885.7497,0.013599
3887.6134,0.013932
3889.4770,0.014310
3891.3407,0.014334
3893.2044,0.014365
3895.0680,0.014395
3896.9317,0.014144
3898.7954,0.014057
3900.6590,0.014333
3902.5227,0.014776
3904.3864,0.014487
3906.2501,0.014449
3908.1137,0.015117
3909.9774,0.015035
3911.8411,0.014550
3913.7047,0.014192
3915.5684,0.014436
3917.4321,0.015162
3919.2957,0.015471
3921.1594,0.015564
3923.0231,0.015382
3924.8867,0.015105
3926.7504,0.015205
3928.6141,0.015174
3930.4777,0.015109
3932.3414,0.015337
3934.2051,0.015162
3936.0688,0.014980
3937.9324,0.015154
3939.7961,0.015323
3941.6598,0.015497
3943.5234,0.016041
3945.3871,0.016323
3947.2508,0.015537
3949.1144,0.015151
3950.9781,0.015351
3952.8418,0.015507
3954.7054,0.015949
3956.5691,0.016265
3958.4328,0.015986
3960.2965,0.015478
3962.1601,0.015352
3964.0238,0.015883
3965.8875,0.016468
3967.7511,0.016129
3969.6148,0.015494
3971.4785,0.015857
3973.3421,0.016499
3975.2058,0.016405
3977.0695,0.016111
3978.9331,0.016463
3980.7968,0.016576
3982.6605,0.015870
3984.5241,0.015846
3986.3878,0.016383
3988.2515,0.015995
3990.1152,0.016061
3991.9788,0.016697
3993.8425,0.016631
3995.7062,0.016498
3997.5698,0.016358
3999.4335,0.016595
