Wavenumber,Intensity
650.4205,0.124114
652.2841,0.126003
654.1478,0.125852
656.0115,0.123267
657.8751,0.121799
659.7388,0.121332
661.6025,0.120638
663.4661,0.118561
665.3298,0.118553
667.1935,0.119823
669.0571,0.119142
670.9208,0.116445
672.7845,0.115833
674.6481,0.115213
676.5118,0.115332
678.3755,0.115012
680.2392,0.114790
682.1028,0.114041
683.9665,0.114167
685.8302,0.114494
687.6938,0.115101
689.5575,0.114859
691.4212,0.113788
693.2848,0.113966
695.1485,0.115567
697.0122,0.116131
698.8758,0.117190
700.7395,0.118211
702.6032,0.117860
704.4669,0.117592
706.3305,0.116068
708.1942,0.113570
710.0579,0.111609
711.9215,0.109531
713.7852,0.107036
715.6489,0.103656
717.5125,0.100462
719.3762,0.097486
721.2399,0.094943
723.1035,0.092823
724.9672,0.091505
726.8309,0.089252
728.6945,0.086985
730.5582,0.085401
732.4219,0.084867
734.2856,0.083859
736.1492,0.081915
738.0129,0.080982
739.8766,0.082094
741.7402,0.083285
743.6039,0.083886
745.4676,0.084394
747.3312,0.085097
749.1949,0.085997
751.0586,0.086849
752.9222,0.086997
754.7859,0.087829
756.6496,0.088862
758.5132,0.089318
760.3769,0.089250
762.2406,0.089147
764.1043,0.088248
765.9679,0.086792
767.8316,0.085604
769.6953,0.084211
771.5589,0.082556
773.4226,0.080543
775.2863,0.078607
777.1499,0.077283
779.0136,0.075929
780.8773,0.074871
782.7409,0.074058
784.6046,0.073742
786.4683,0.073898
788.3320,0.073899
790.1956,0.073472
792.0593,0.073607
793.9230,0.074081
795.7866,0.074128
797.6503,0.073659
799.5140,0.073294
801.3776,0.072984
803.2413,0.072891
805.1050,0.072837
806.9686,0.072580
808.8323,0.072090
810.6960,0.071514
812.5596,0.071178
814.4233,0.070758
816.2870,0.070085
818.1507,0.069590
820.0143,0.069302
821.8780,0.069712
823.7417,0.070119
825.6053,0.070666
827.4690,0.071920
829.3327,0.073045
831.1963,0.073000
833.0600,0.071719
834.9237,0.070353
836.7873,0.070216
838.6510,0.070451
840.5147,0.070941
842.3784,0.071702
844.2420,0.072487
846.1057,0.073123
847.9694,0.073559
849.8330,0.073817
851.6967,0.074087
853.5604,0.074702
855.4240,0.075612
857.2877,0.076228
859.1514,0.076397
861.0150,0.075867
862.8787,0.074780
864.7424,0.073278
866.6060,0.071564
868.4697,0.069607
870.3334,0.067657
872.1971,0.066065
874.0607,0.064984
875.9244,0.064363
877.7881,0.064305
879.6517,0.064627
881.5154,0.065195
883.3791,0.066077
885.2427,0.067289
887.1064,0.068750
888.9701,0.070215
890.8337,0.071447
892.6974,0.072812
894.5611,0.074110
896.4247,0.075287
898.2884,0.076519
900.1521,0.077880
902.0158,0.079267
903.8794,0.080926
905.7431,0.082872
907.6068,0.085209
909.4704,0.087823
911.3341,0.090764
913.1978,0.093746
915.0614,0.095960
916.9251,0.096105
918.7888,0.094415
920.6524,0.092914
922.5161,0.092651
924.3798,0.092847
926.2435,0.093043
928.1071,0.093153
929.9708,0.093191
931.8345,0.093035
933.6981,0.092806
935.5618,0.092485
937.4255,0.091777
939.2891,0.090971
941.1528,0.090399
943.0165,0.089847
944.8801,0.089822
946.7438,0.090590
948.6075,0.092048
950.4711,0.094096
952.3348,0.096672
954.1985,0.099688
956.0622,0.103041
957.9258,0.106620
959.7895,0.110478
961.6532,0.114595
963.5168,0.119053
965.3805,0.123932
967.2442,0.129267
969.1078,0.135018
970.9715,0.141153
972.8352,0.147726
974.6988,0.155223
976.5625,0.163744
978.4262,0.173629
980.2899,0.184259
982.1535,0.191049
984.0172,0.189730
985.8809,0.186144
987.7445,0.186181
989.6082,0.188427
991.4719,0.190274
993.3355,0.191231
995.1992,0.191277
997.0629,0.190642
998.9265,0.189461
1000.7902,0.187911
1002.6539,0.186025
1004.5175,0.184364
1006.3812,0.183201
1008.2449,0.182481
1010.1086,0.181649
1011.9722,0.180608
1013.8359,0.179257
1015.6996,0.177187
1017.5632,0.173987
1019.4269,0.170150
1021.2906,0.166009
1023.1542,0.161450
1025.0179,0.156449
1026.8816,0.151617
1028.7452,0.147104
1030.6089,0.142940
1032.4726,0.139343
1034.3362,0.136577
1036.1999,0.134644
1038.0636,0.133358
1039.9273,0.132332
1041.7909,0.131286
1043.6546,0.129800
1045.5183,0.127720
1047.3819,0.124879
1049.2456,0.120893
1051.1093,0.115359
1052.9729,0.108721
1054.8366,0.102099
1056.7003,0.096427
1058.5639,0.091823
1060.4276,0.088152
1062.2913,0.085350
1064.1550,0.083871
1066.0186,0.084349
1067.8823,0.087281
1069.7460,0.092742
1071.6096,0.099605
1073.4733,0.105605
1075.3370,0.108996
1077.2006,0.109277
1079.0643,0.107249
1080.9280,0.104037
1082.7916,0.100229
1084.6553,0.096168
1086.5190,0.092287
1088.3826,0.088893
1090.2463,0.086305
1092.1100,0.084578
1093.9737,0.083725
1095.8373,0.083744
1097.7010,0.084588
1099.5647,0.085899
1101.4283,0.087241
1103.2920,0.088088
1105.1557,0.088015
1107.0193,0.086773
1108.8830,0.084471
1110.7467,0.081437
1112.6103,0.078133
1114.4740,0.075078
1116.3377,0.072637
1118.2014,0.070892
1120.0650,0.069753
1121.9287,0.069018
1123.7924,0.068465
1125.6560,0.067850
1127.5197,0.067054
1129.3834,0.066264
1131.2470,0.065670
1133.1107,0.065587
1134.9744,0.066447
1136.8380,0.068134
1138.7017,0.070533
1140.5654,0.073298
1142.4290,0.075904
1144.2927,0.078148
1146.1564,0.079626
1148.0201,0.080089
1149.8837,0.079752
1151.7474,0.078423
1153.6111,0.076066
1155.4747,0.073007
1157.3384,0.069400
1159.2021,0.065381
1161.0657,0.061164
1162.9294,0.057008
1164.7931,0.053004
1166.6567,0.049286
1168.5204,0.046236
1170.3841,0.043800
1172.2477,0.041717
1174.1114,0.039752
1175.9751,0.037630
1177.8388,0.035585
1179.7024,0.034131
1181.5661,0.033367
1183.4298,0.033061
1185.2934,0.033110
1187.1571,0.033504
1189.0208,0.034068
1190.8844,0.034696
1192.7481,0.035386
1194.6118,0.036107
1196.4754,0.036833
1198.3391,0.037484
1200.2028,0.038056
1202.0665,0.038582
1203.9301,0.038946
1205.7938,0.039123
1207.6575,0.039188
1209.5211,0.039167
1211.3848,0.039181
1213.2485,0.039219
1215.1121,0.039307
1216.9758,0.039524
1218.8395,0.039801
1220.7031,0.040287
1222.5668,0.040896
1224.4305,0.041554
1226.2941,0.042310
1228.1578,0.042976
1230.0215,0.043573
1231.8852,0.044162
1233.7488,0.044714
1235.6125,0.045266
1237.4762,0.045785
1239.3398,0.046128
1241.2035,0.046264
1243.0672,0.046361
1244.9308,0.046458
1246.7945,0.046483
1248.6582,0.046440
1250.5218,0.046378
1252.3855,0.046396
1254.2492,0.046543
1256.1129,0.046774
1257.9765,0.047058
1259.8402,0.047405
1261.7039,0.047742
1263.5675,0.047954
1265.4312,0.048118
1267.2949,0.048245
1269.1585,0.048256
1271.0222,0.048331
1272.8859,0.048577
1274.7495,0.048909
1276.6132,0.049438
1278.4769,0.050138
1280.3405,0.050866
1282.2042,0.051590
1284.0679,0.052314
1285.9316,0.053116
1287.7952,0.054004
1289.6589,0.054843
1291.5226,0.055779
1293.3862,0.056823
1295.2499,0.057964
1297.1136,0.059241
1298.9772,0.060704
1300.8409,0.062429
1302.7046,0.064235
1304.5682,0.065708
1306.4319,0.065987
1308.2956,0.063986
1310.1592,0.060012
1312.0229,0.056127
1313.8866,0.053806
1315.7503,0.053101
1317.6139,0.053572
1319.4776,0.054636
1321.3413,0.055628
1323.2049,0.056600
1325.0686,0.057789
1326.9323,0.058961
1328.7959,0.060024
1330.6596,0.060920
1332.5233,0.061453
1334.3869,0.061607
1336.2506,0.061648
1338.1143,0.061965
1339.9780,0.062418
1341.8416,0.062144
1343.7053,0.061600
1345.5690,0.061391
1347.4326,0.061374
1349.2963,0.061542
1351.1600,0.061731
1353.0236,0.061936
1354.8873,0.062358
1356.7510,0.062660
1358.6146,0.062713
1360.4783,0.062941
1362.3420,0.063787
1364.2056,0.064307
1366.0693,0.064123
1367.9330,0.064293
1369.7967,0.064510
1371.6603,0.064539
1373.5240,0.065120
1375.3877,0.065775
1377.2513,0.065908
1379.1150,0.066279
1380.9787,0.066797
1382.8423,0.067048
1384.7060,0.067438
1386.5697,0.068740
1388.4333,0.070343
1390.2970,0.070798
1392.1607,0.071295
1394.0244,0.072345
1395.8880,0.072281
1397.7517,0.070919
1399.6154,0.069470
1401.4790,0.067606
1403.3427,0.065957
1405.2064,0.064096
1407.0700,0.061002
1408.9337,0.057334
1410.7974,0.053909
1412.6610,0.051336
1414.5247,0.049788
1416.3884,0.049427
1418.2520,0.050827
1420.1157,0.052730
1421.9794,0.052823
1423.8431,0.052171
1425.7067,0.050204
1427.5704,0.047838
1429.4341,0.046397
1431.2977,0.045529
1433.1614,0.044772
1435.0251,0.044875
1436.8887,0.046197
1438.7524,0.046385
1440.6161,0.045943
1442.4797,0.045972
1444.3434,0.045988
1446.2071,0.046244
1448.0707,0.046731
1449.9344,0.046403
1451.7981,0.045483
1453.6618,0.044539
1455.5254,0.044565
1457.3891,0.046463
1459.2528,0.046260
1461.1164,0.044702
1462.9801,0.044028
1464.8438,0.043764
1466.7074,0.042423
1468.5711,0.040554
1470.4348,0.039276
1472.2984,0.038880
1474.1621,0.038492
1476.0258,0.037848
1477.8895,0.037161
1479.7531,0.036662
1481.6168,0.036478
1483.4805,0.036081
1485.3441,0.035735
1487.2078,0.035964
1489.0715,0.036801
1490.9351,0.037174
1492.7988,0.036522
1494.6625,0.036446
1496.5261,0.037366
1498.3898,0.038021
1500.2535,0.037820
1502.1171,0.037227
1503.9808,0.036793
1505.8445,0.037857
1507.7082,0.040532
1509.5718,0.039796
1511.4355,0.039335
1513.2992,0.039472
1515.1628,0.039640
1517.0265,0.039954
1518.8902,0.040033
1520.7538,0.040558
1522.6175,0.041327
1524.4812,0.041436
1526.3448,0.041965
1528.2085,0.041996
1530.0722,0.041502
1531.9359,0.041905
1533.7995,0.042913
1535.6632,0.042351
1537.5269,0.041765
1539.3905,0.043014
1541.2542,0.045468
1543.1179,0.045716
1544.9815,0.045958
1546.8452,0.046057
1548.7089,0.046341
1550.5725,0.046940
1552.4362,0.046973
1554.2999,0.046881
1556.1635,0.047199
1558.0272,0.049879
1559.8909,0.054324
1561.7546,0.051841
1563.6182,0.051024
1565.4819,0.051481
1567.3456,0.052074
1569.2092,0.053573
1571.0729,0.054612
1572.9366,0.054012
1574.8002,0.054808
1576.6639,0.057428
1578.5276,0.058066
1580.3912,0.057869
1582.2549,0.058498
1584.1186,0.059223
1585.9822,0.059906
1587.8459,0.060551
1589.7096,0.061018
1591.5733,0.061390
1593.4369,0.061710
1595.3006,0.061893
1597.1643,0.061884
1599.0279,0.061741
1600.8916,0.061640
1602.7553,0.061603
1604.6189,0.061550
1606.4826,0.061357
1608.3463,0.061159
1610.2099,0.060888
1612.0736,0.060344
1613.9373,0.059852
1615.8010,0.060071
1617.6646,0.059658
1619.5283,0.057728
1621.3920,0.056785
1623.2556,0.056292
1625.1193,0.054929
1626.9830,0.053740
1628.8466,0.052198
1630.7103,0.049548
1632.5740,0.047389
1634.4376,0.046589
1636.3013,0.045988
1638.1650,0.043991
1640.0286,0.042805
1641.8923,0.042007
1643.7560,0.041533
1645.6197,0.042077
1647.4833,0.042713
1649.3470,0.041709
1651.2107,0.041858
1653.0743,0.044882
1654.9380,0.045652
1656.8017,0.043661
1658.6653,0.043165
1660.5290,0.043251
1662.3927,0.043451
1664.2563,0.042772
1666.1200,0.041583
1667.9837,0.041170
1669.8474,0.041211
1671.7110,0.040724
1673.5747,0.040731
1675.4384,0.041382
1677.3020,0.041218
1679.1657,0.041054
1681.0294,0.041590
1682.8930,0.042755
1684.7567,0.044898
1686.6204,0.044503
1688.4840,0.043751
1690.3477,0.043260
1692.2114,0.042157
1694.0750,0.041260
1695.9387,0.040417
1697.8024,0.039112
1699.6661,0.038881
1701.5297,0.037558
1703.3934,0.035356
1705.2571,0.034017
1707.1207,0.032103
1708.9844,0.030244
1710.8481,0.028858
1712.7117,0.027623
1714.5754,0.026878
1716.4391,0.026997
1718.3027,0.027353
1720.1664,0.026506
1722.0301,0.025792
1723.8937,0.025449
1725.7574,0.024927
1727.6211,0.024344
1729.4848,0.023844
1731.3484,0.023422
1733.2121,0.023637
1735.0758,0.023806
1736.9394,0.022944
1738.8031,0.022855
1740.6668,0.022990
1742.5304,0.022709
1744.3941,0.022493
1746.2578,0.022175
1748.1214,0.022345
1749.9851,0.022736
1751.8488,0.022668
1753.7125,0.022343
1755.5761,0.022375
1757.4398,0.022601
1759.3035,0.022253
1761.1671,0.022154
1763.0308,0.022358
1764.8945,0.022079
1766.7581,0.021964
1768.6218,0.022120
1770.4855,0.022239
1772.3491,0.022564
1774.2128,0.022512
1776.0765,0.022194
1777.9401,0.022177
1779.8038,0.022224
1781.6675,0.022303
1783.5312,0.022313
1785.3948,0.022431
1787.2585,0.022332
1789.1222,0.022135
1790.9858,0.022414
1792.8495,0.022992
1794.7132,0.022646
1796.5768,0.022186
1798.4405,0.022167
1800.3042,0.022422
1802.1678,0.022663
1804.0315,0.022503
1805.8952,0.022364
1807.7589,0.022438
1809.6225,0.022531
1811.4862,0.022678
1813.3499,0.022769
1815.2135,0.022578
1817.0772,0.022250
1818.9409,0.022191
1820.8045,0.022393
1822.6682,0.022735
1824.5319,0.022754
1826.3955,0.022360
1828.2592,0.022400
1830.1229,0.022618
1831.9865,0.022350
1833.8502,0.022277
1835.7139,0.022400
1837.5776,0.022264
1839.4412,0.022053
1841.3049,0.022131
1843.1686,0.022687
1845.0322,0.022967
1846.8959,0.022445
1848.7596,0.022366
1850.6232,0.022559
1852.4869,0.022621
1854.3506,0.022646
1856.2142,0.022760
1858.0779,0.022800
1859.9416,0.022568
1861.8052,0.022425
1863.6689,0.022025
1865.5326,0.021801
1867.3963,0.022486
1869.2599,0.023024
1871.1236,0.022720
1872.9873,0.022487
1874.8509,0.022419
1876.7146,0.022250
1878.5783,0.022206
1880.4419,0.022303
1882.3056,0.022223
1884.1693,0.022038
1886.0329,0.021976
1887.8966,0.022128
1889.7603,0.022571
1891.6240,0.022668
1893.4876,0.022212
1895.3513,0.021820
1897.2150,0.021977
1899.0786,0.022285
1900.9423,0.022128
1902.8060,0.021978
1904.6696,0.021939
1906.5333,0.021937
1908.3970,0.022147
1910.2606,0.022074
1912.1243,0.021576
1913.9880,0.021461
1915.8516,0.021673
1917.7153,0.021807
1919.5790,0.021508
1921.4427,0.021235
1923.3063,0.021414
1925.1700,0.021138
1927.0337,0.021061
1928.8973,0.021222
1930.7610,0.021183
1932.6247,0.021202
1934.4883,0.021171
1936.3520,0.020903
1938.2157,0.020852
1940.0793,0.020902
1941.9430,0.020631
1943.8067,0.019614
1945.6704,0.018859
1947.5340,0.018944
1949.3977,0.018944
1951.2614,0.018831
1953.1250,0.018425
1954.9887,0.018089
1956.8524,0.018191
1958.7160,0.017612
1960.5797,0.016486
1962.4434,0.015420
1964.3070,0.014251
1966.1707,0.013481
1968.0344,0.014013
1969.8980,0.014803
1971.7617,0.014310
1973.6254,0.013035
1975.4891,0.012591
1977.3527,0.013180
1979.2164,0.013898
1981.0801,0.013643
1982.9437,0.013739
1984.8074,0.014082
1986.6711,0.014882
1988.5347,0.015427
1990.3984,0.015192
1992.2621,0.015027
1994.1257,0.015358
1995.9894,0.016121
1997.8531,0.016398
1999.7167,0.016256
2001.5804,0.015855
2003.4441,0.014085
2005.3078,0.012807
2007.1714,0.012483
2009.0351,0.012597
2010.8988,0.013023
2012.7624,0.012968
2014.6261,0.012864
2016.4898,0.013412
2018.3534,0.013453
2020.2171,0.011963
2022.0808,0.010805
2023.9444,0.011235
2025.8081,0.011893
2027.6718,0.011881
2029.5355,0.011346
2031.3991,0.011917
2033.2628,0.013328
2035.1265,0.014092
2036.9901,0.013588
2038.8538,0.013486
2040.7175,0.014606
2042.5811,0.015813
2044.4448,0.015956
2046.3085,0.016106
2048.1721,0.016270
2050.0358,0.016923
2051.8995,0.018219
2053.7631,0.018498
2055.6268,0.018732
2057.4905,0.019869
2059.3542,0.020368
2061.2178,0.020776
2063.0815,0.021015
2064.9452,0.020671
2066.8088,0.020404
2068.6725,0.020929
2070.5362,0.021544
2072.3998,0.021369
2074.2635,0.021848
2076.1272,0.022471
2077.9908,0.022498
2079.8545,0.022454
2081.7182,0.022440
2083.5819,0.022339
2085.4455,0.021998
2087.3092,0.021697
2089.1729,0.022268
2091.0365,0.022917
2092.9002,0.022853
2094.7639,0.022893
2096.6275,0.022790
2098.4912,0.022677
2100.3549,0.023332
2102.2185,0.023486
2104.0822,0.022738
2105.9459,0.022775
2107.8095,0.023332
2109.6732,0.023394
2111.5369,0.023379
2113.4006,0.023444
2115.2642,0.023352
2117.1279,0.023187
2118.9916,0.023200
2120.8552,0.023027
2122.7189,0.022340
2124.5826,0.022177
2126.4462,0.022899
2128.3099,0.023000
2130.1736,0.022390
2132.0372,0.021242
2133.9009,0.020092
2135.7646,0.020356
2137.6282,0.021040
2139.4919,0.020696
2141.3556,0.018725
2143.2193,0.017473
2145.0829,0.017650
2146.9466,0.016834
2148.8103,0.015138
2150.6739,0.015107
2152.5376,0.014502
2154.4013,0.013114
2156.2649,0.011224
2158.1286,0.010011
2159.9923,0.010771
2161.8559,0.012713
2163.7196,0.014267
2165.5833,0.014649
2167.4470,0.014965
2169.3106,0.015540
2171.1743,0.016019
2173.0380,0.015193
2174.9016,0.014137
2176.7653,0.014913
2178.6290,0.015969
2180.4926,0.017084
2182.3563,0.017734
2184.2200,0.017877
2186.0836,0.017779
2187.9473,0.018249
2189.8110,0.018975
2191.6746,0.019706
2193.5383,0.019732
2195.4020,0.018831
2197.2657,0.018000
2199.1293,0.018001
2200.9930,0.019301
2202.8567,0.020741
2204.7203,0.020126
2206.5840,0.019285
2208.4477,0.020094
2210.3113,0.020334
2212.1750,0.020262
2214.0387,0.020508
2215.9023,0.020889
2217.7660,0.021937
2219.6297,0.022235
2221.4934,0.022505
2223.3570,0.021870
2225.2207,0.021319
2227.0844,0.021433
2228.9480,0.022127
2230.8117,0.022774
2232.6754,0.022587
2234.5390,0.022526
2236.4027,0.022249
2238.2664,0.022792
2240.1300,0.023538
2241.9937,0.023988
2243.8574,0.024431
2245.7210,0.024570
2247.5847,0.024687
2249.4484,0.024573
2251.3121,0.024245
2253.1757,0.024317
2255.0394,0.024511
2256.9031,0.024750
2258.7667,0.024919
2260.6304,0.024993
2262.4941,0.025709
2264.3577,0.026160
2266.2214,0.025686
2268.0851,0.025764
2269.9487,0.026340
2271.8124,0.026376
2273.6761,0.026287
2275.5397,0.026679
2277.4034,0.026979
2279.2671,0.027313
2281.1308,0.027426
2282.9944,0.027296
2284.8581,0.027607
2286.7218,0.028041
2288.5854,0.028054
2290.4491,0.028251
2292.3128,0.028311
2294.1764,0.028158
2296.0401,0.028095
2297.9038,0.028433
2299.7674,0.028645
2301.6311,0.028648
2303.4948,0.028585
2305.3585,0.028446
2307.2221,0.028412
2309.0858,0.028598
2310.9495,0.028677
2312.8131,0.028954
2314.6768,0.029185
2316.5405,0.029155
2318.4041,0.029227
2320.2678,0.029445
2322.1315,0.029889
2323.9951,0.029943
2325.8588,0.029583
2327.7225,0.029307
2329.5861,0.029440
2331.4498,0.029260
2333.3135,0.029096
2335.1772,0.029262
2337.0408,0.029345
2338.9045,0.029435
2340.7682,0.029775
2342.6318,0.029921
2344.4955,0.029915
2346.3592,0.030009
2348.2228,0.029380
2350.0865,0.028824
2351.9502,0.028880
2353.8138,0.029038
2355.6775,0.029006
2357.5412,0.028983
2359.4049,0.029104
2361.2685,0.029529
2363.1322,0.029758
2364.9959,0.029527
2366.8595,0.029265
2368.7232,0.029938
2370.5869,0.030162
2372.4505,0.029920
2374.3142,0.030236
2376.1779,0.030586
2378.0415,0.030451
2379.9052,0.030199
2381.7689,0.030143
2383.6325,0.030185
2385.4962,0.030124
2387.3599,0.030017
2389.2236,0.029762
2391.0872,0.029516
2392.9509,0.029525
2394.8146,0.029912
2396.6782,0.030146
2398.5419,0.029939
2400.4056,0.029817
2402.2692,0.030043
2404.1329,0.030150
2405.9966,0.030322
2407.8602,0.030343
2409.7239,0.030067
2411.5876,0.030069
2413.4512,0.030371
2415.3149,0.030378
2417.1786,0.030044
2419.0423,0.030155
2420.9059,0.030631
2422.7696,0.030515
2424.6333,0.030317
2426.4969,0.030550
2428.3606,0.030946
2430.2243,0.030792
2432.0879,0.030787
2433.9516,0.030968
2435.8153,0.030815
2437.6789,0.030760
2439.5426,0.031033
2441.4063,0.031109
2443.2700,0.031032
2445.1336,0.030919
2446.9973,0.030936
2448.8610,0.031351
2450.7246,0.031854
2452.5883,0.031573
2454.4520,0.031311
2456.3156,0.031478
2458.1793,0.031614
2460.0430,0.031360
2461.9066,0.031157
2463.7703,0.031375
2465.6340,0.031398
2467.4976,0.031337
2469.3613,0.031465
2471.2250,0.031438
2473.0887,0.031348
2474.9523,0.031953
2476.8160,0.032187
2478.6797,0.031779
2480.5433,0.031914
2482.4070,0.032115
2484.2707,0.031808
2486.1343,0.031823
2487.9980,0.032152
2489.8617,0.032006
2491.7253,0.031743
2493.5890,0.031518
2495.4527,0.031743
2497.3164,0.032164
2499.1800,0.032382
2501.0437,0.032347
2502.9074,0.032002
2504.7710,0.032197
2506.6347,0.032687
2508.4984,0.032711
2510.3620,0.032653
2512.2257,0.032524
2514.0894,0.032583
2515.9530,0.032494
2517.8167,0.032586
2519.6804,0.033005
2521.5440,0.033124
2523.4077,0.033080
2525.2714,0.032999
2527.1351,0.033018
2528.9987,0.033391
2530.8624,0.033312
2532.7261,0.032939
2534.5897,0.032971
2536.4534,0.033743
2538.3171,0.034303
2540.1807,0.033971
2542.0444,0.033557
2543.9081,0.033860
2545.7717,0.033515
2547.6354,0.032705
2549.4991,0.032980
2551.3627,0.033877
2553.2264,0.034084
2555.0901,0.034003
2556.9538,0.033751
2558.8174,0.033545
2560.6811,0.033578
2562.5448,0.033771
2564.4084,0.033631
2566.2721,0.033805
2568.1358,0.034066
2569.9994,0.034380
2571.8631,0.034483
2573.7268,0.034702
2575.5904,0.034815
2577.4541,0.034720
2579.3178,0.034709
2581.1815,0.034921
2583.0451,0.035265
2584.9088,0.035474
2586.7725,0.035235
2588.6361,0.035136
2590.4998,0.035609
2592.3635,0.035918
2594.2271,0.035730
2596.0908,0.035533
2597.9545,0.035883
2599.8181,0.036216
2601.6818,0.036058
2603.5455,0.036228
2605.4091,0.036478
2607.2728,0.036332
2609.1365,0.036240
2611.0002,0.036349
2612.8638,0.036558
2614.7275,0.036785
2616.5912,0.036733
2618.4548,0.036762
2620.3185,0.036919
2622.1822,0.037113
2624.0458,0.037323
2625.9095,0.037455
2627.7732,0.037610
2629.6368,0.038109
2631.5005,0.038202
2633.3642,0.038078
2635.2279,0.038214
2637.0915,0.038245
2638.9552,0.038402
2640.8189,0.038790
2642.6825,0.039011
2644.5462,0.039007
2646.4099,0.039044
2648.2735,0.039230
2650.1372,0.039324
2652.0009,0.039328
2653.8645,0.039308
2655.7282,0.039413
2657.5919,0.039601
2659.4555,0.039680
2661.3192,0.039568
2663.1829,0.039564
2665.0466,0.039494
2666.9102,0.039505
2668.7739,0.039648
2670.6376,0.039827
2672.5012,0.039668
2674.3649,0.039582
2676.2286,0.039771
2678.0922,0.040096
2679.9559,0.040158
2681.8196,0.040169
2683.6832,0.040144
2685.5469,0.040315
2687.4106,0.040600
2689.2742,0.040536
2691.1379,0.040590
2693.0016,0.040941
2694.8653,0.041020
2696.7289,0.040955
2698.5926,0.041186
2700.4563,0.041293
2702.3199,0.041283
2704.1836,0.041665
2706.0473,0.041934
2707.9109,0.041838
2709.7746,0.041945
2711.6383,0.042261
2713.5019,0.042265
2715.3656,0.042150
2717.2293,0.042206
2719.0930,0.042411
2720.9566,0.042578
2722.8203,0.042754
2724.6840,0.043105
2726.5476,0.043267
2728.4113,0.043167
2730.2750,0.043281
2732.1386,0.043672
2734.0023,0.043831
2735.8660,0.043922
2737.7296,0.044123
2739.5933,0.044086
2741.4570,0.044090
2743.3206,0.044315
2745.1843,0.044422
2747.0480,0.044399
2748.9117,0.044796
2750.7753,0.045105
2752.6390,0.044998
2754.5027,0.045097
2756.3663,0.045384
2758.2300,0.045435
2760.0937,0.045544
2761.9573,0.045797
2763.8210,0.046013
2765.6847,0.046077
2767.5483,0.046533
2769.4120,0.046769
2771.2757,0.046908
2773.1394,0.047262
2775.0030,0.047413
2776.8667,0.047518
2778.7304,0.047561
2780.5940,0.047554
2782.4577,0.047740
2784.3214,0.048036
2786.1850,0.048080
2788.0487,0.047928
2789.9124,0.047932
2791.7760,0.048186
2793.6397,0.048363
2795.5034,0.048254
2797.3670,0.047987
2799.2307,0.047996
2801.0944,0.048333
2802.9581,0.048298
2804.8217,0.048209
2806.6854,0.048223
2808.5491,0.048053
2810.4127,0.048100
2812.2764,0.048259
2814.1401,0.048587
2816.0037,0.048793
2817.8674,0.048703
2819.7311,0.048785
2821.5947,0.049060
2823.4584,0.049332
2825.3221,0.049447
2827.1857,0.049360
2829.0494,0.049427
2830.9131,0.049869
2832.7768,0.049877
2834.6404,0.049907
2836.5041,0.050174
2838.3678,0.050555
2840.2314,0.050890
2842.0951,0.051105
2843.9588,0.051288
2845.8224,0.051519
2847.6861,0.051743
2849.5498,0.051963
2851.4134,0.052531
2853.2771,0.053106
2855.1408,0.053399
2857.0045,0.053892
2858.8681,0.054226
2860.7318,0.054329
2862.5955,0.054306
2864.4591,0.054689
2866.3228,0.055186
2868.1865,0.055521
2870.0501,0.055717
2871.9138,0.056203
2873.7775,0.056389
2875.6411,0.056549
2877.5048,0.057113
2879.3685,0.057569
2881.2321,0.057648
2883.0958,0.057951
2884.9595,0.058614
2886.8232,0.059193
2888.6868,0.059133
2890.5505,0.059148
2892.4142,0.059312
2894.2778,0.059451
2896.1415,0.059336
2898.0052,0.059199
2899.8688,0.059176
2901.7325,0.059172
2903.5962,0.059299
2905.4598,0.059520
2907.3235,0.059684
2909.1872,0.059833
2911.0509,0.059858
2912.9145,0.060015
2914.7782,0.060292
2916.6419,0.060516
2918.5055,0.060973
2920.3692,0.061527
2922.2329,0.061801
2924.0965,0.061908
2925.9602,0.062112
2927.8239,0.062207
2929.6875,0.062054
2931.5512,0.061836
2933.4149,0.061364
2935.2785,0.061049
2937.1422,0.060702
2939.0059,0.060640
2940.8696,0.060255
2942.7332,0.059657
2944.5969,0.058832
2946.4606,0.058083
2948.3242,0.057788
2950.1879,0.057751
2952.0516,0.057135
2953.9152,0.056647
2955.7789,0.056161
2957.6426,0.055802
2959.5062,0.055442
2961.3699,0.055508
2963.2336,0.055457
2965.0972,0.055369
2966.9609,0.055532
2968.8246,0.055843
2970.6883,0.055809
2972.5519,0.055351
2974.4156,0.055382
2976.2793,0.055807
2978.1429,0.056019
2980.0066,0.056078
2981.8703,0.056130
2983.7339,0.056128
2985.5976,0.055863
2987.4613,0.055628
2989.3249,0.055909
2991.1886,0.056647
2993.0523,0.056629
2994.9160,0.056308
2996.7796,0.056571
2998.6433,0.057150
3000.5070,0.057546
3002.3706,0.057761
3004.2343,0.058236
3006.0980,0.058454
3007.9616,0.058449
3009.8253,0.058586
3011.6890,0.058856
3013.5526,0.059266
3015.4163,0.059596
3017.2800,0.059882
3019.1436,0.059963
3021.0073,0.060281
3022.8710,0.060956
3024.7347,0.061629
3026.5983,0.061616
3028.4620,0.061502
3030.3257,0.061697
3032.1893,0.061990
3034.0530,0.062033
3035.9167,0.062351
3037.7803,0.062731
3039.6440,0.063052
3041.5077,0.063294
3043.3713,0.063807
3045.2350,0.064145
3047.0987,0.064176
3048.9624,0.064232
3050.8260,0.064501
3052.6897,0.064804
3054.5534,0.064974
3056.4170,0.065187
3058.2807,0.065835
3060.1444,0.065996
3062.0080,0.066237
3063.8717,0.066686
3065.7354,0.067018
3067.5990,0.067353
3069.4627,0.067529
3071.3264,0.067439
3073.1900,0.067840
3075.0537,0.068075
3076.9174,0.068002
3078.7811,0.068071
3080.6447,0.068299
3082.5084,0.067906
3084.3721,0.068221
3086.2357,0.068612
3088.0994,0.068888
3089.9631,0.068955
3091.8267,0.068729
3093.6904,0.068964
3095.5541,0.069272
3097.4177,0.069131
3099.2814,0.069353
3101.1451,0.069243
3103.0087,0.069321
3104.8724,0.069564
3106.7361,0.069845
3108.5998,0.069912
3110.4634,0.069680
3112.3271,0.069473
3114.1908,0.069635
3116.0544,0.069484
3117.9181,0.069406
3119.7818,0.069610
3121.6454,0.069914
3123.5091,0.070255
3125.3728,0.070335
3127.2364,0.069733
3129.1001,0.069830
3130.9638,0.070059
3132.8275,0.070404
3134.6911,0.070630
3136.5548,0.070928
3138.4185,0.071011
3140.2821,0.071098
3142.1458,0.071142
3144.0095,0.071074
3145.8731,0.071197
3147.7368,0.071456
3149.6005,0.071637
3151.4641,0.071941
3153.3278,0.072260
3155.1915,0.072353
3157.0551,0.072081
3158.9188,0.072230
3160.7825,0.072146
3162.6462,0.072059
3164.5098,0.072096
3166.3735,0.072870
3168.2372,0.072850
3170.1008,0.072613
3171.9645,0.072930
3173.8282,0.072849
3175.6918,0.072469
3177.5555,0.072994
3179.4192,0.073331
3181.2828,0.073693
3183.1465,0.073821
3185.0102,0.073739
3186.8739,0.073233
3188.7375,0.072910
3190.6012,0.073482
3192.4649,0.074624
3194.3285,0.074836
3196.1922,0.074603
3198.0559,0.075030
3199.9195,0.075035
3201.7832,0.075066
3203.6469,0.075345
3205.5105,0.074960
3207.3742,0.075467
3209.2379,0.075948
3211.1015,0.075971
3212.9652,0.075569
3214.8289,0.075708
3216.6926,0.075971
3218.5562,0.076410
3220.4199,0.076647
3222.2836,0.077116
3224.1472,0.076573
3226.0109,0.076053
3227.8746,0.076962
3229.7382,0.077571
3231.6019,0.076630
3233.4656,0.076636
3235.3292,0.077313
3237.1929,0.077971
3239.0566,0.077863
3240.9202,0.077772
3242.7839,0.077849
3244.6476,0.078106
3246.5113,0.078335
3248.3749,0.078418
3250.2386,0.078731
3252.1023,0.078666
3253.9659,0.077877
3255.8296,0.078076
3257.6933,0.078797
3259.5569,0.079104
3261.4206,0.078209
3263.2843,0.078017
3265.1479,0.078348
3267.0116,0.078717
3268.8753,0.078643
3270.7390,0.078478
3272.6026,0.078404
3274.4663,0.078116
3276.3300,0.078037
3278.1936,0.078366
3280.0573,0.078119
3281.9210,0.078433
3283.7846,0.078331
3285.6483,0.077424
3287.5120,0.076763
3289.3756,0.077287
3291.2393,0.077206
3293.1030,0.077361
3294.9666,0.077153
3296.8303,0.076506
3298.6940,0.075841
3300.5577,0.075851
3302.4213,0.075517
3304.2850,0.074814
3306.1487,0.074596
3308.0123,0.074694
3309.8760,0.074361
3311.7397,0.074611
3313.6033,0.074308
3315.4670,0.074076
3317.3307,0.073945
3319.1943,0.073780
3321.0580,0.073444
3322.9217,0.073971
3324.7854,0.073748
3326.6490,0.073123
3328.5127,0.073100
3330.3764,0.073603
3332.2400,0.073528
3334.1037,0.073348
3335.9674,0.073400
3337.8310,0.072905
3339.6947,0.071599
3341.5584,0.071540
3343.4220,0.071040
3345.2857,0.070329
3347.1494,0.069522
3349.0130,0.069458
3350.8767,0.069730
3352.7404,0.069200
3354.6041,0.067498
3356.4677,0.066551
3358.3314,0.067341
3360.1951,0.067281
3362.0587,0.066865
3363.9224,0.066654
3365.7861,0.065466
3367.6497,0.064959
3369.5134,0.065044
3371.3771,0.064634
3373.2407,0.064371
3375.1044,0.064525
3376.9681,0.063507
3378.8317,0.063102
3380.6954,0.062794
3382.5591,0.062735
3384.4228,0.063428
3386.2864,0.063305
3388.1501,0.062156
3390.0138,0.061775
3391.8774,0.061910
3393.7411,0.062485
3395.6048,0.061714
3397.4684,0.060958
3399.3321,0.060872
3401.1958,0.060967
3403.0594,0.060196
3404.9231,0.059374
3406.7868,0.058607
3408.6505,0.058111
3410.5141,0.057528
3412.3778,0.057003
3414.2415,0.056582
3416.1051,0.055558
3417.9688,0.054323
3419.8325,0.054313
3421.6961,0.054065
3423.5598,0.054029
3425.4235,0.051884
3427.2871,0.050139
3429.1508,0.050336
3431.0145,0.050680
3432.8781,0.050256
3434.7418,0.050202
3436.6055,0.049673
3438.4692,0.048549
3440.3328,0.048052
3442.1965,0.047688
3444.0602,0.046613
3445.9238,0.046394
3447.7875,0.045794
3449.6512,0.045594
3451.5148,0.045773
3453.3785,0.044779
3455.2422,0.043933
3457.1058,0.043737
3458.9695,0.043675
3460.8332,0.043303
3462.6969,0.042535
3464.5605,0.041960
3466.4242,0.042215
3468.2879,0.041756
3470.1515,0.040569
3472.0152,0.040012
3473.8789,0.039205
3475.7425,0.038631
3477.6062,0.038637
3479.4699,0.038323
3481.3335,0.038491
3483.1972,0.038653
3485.0609,0.037286
3486.9245,0.036501
3488.7882,0.036521
3490.6519,0.036421
3492.5156,0.036222
3494.3792,0.035791
3496.2429,0.034460
3498.1066,0.034109
3499.9702,0.034233
3501.8339,0.033239
3503.6976,0.032831
3505.5612,0.032531
3507.4249,0.032148
3509.2886,0.032754
3511.1522,0.032573
3513.0159,0.030942
3514.8796,0.030021
3516.7432,0.030039
3518.6069,0.030278
3520.4706,0.029765
3522.3343,0.028666
3524.1979,0.028926
3526.0616,0.028259
3527.9253,0.027572
3529.7889,0.028158
3531.6526,0.027597
3533.5163,0.027747
3535.3799,0.027358
3537.2436,0.025195
3539.1073,0.024540
3540.9709,0.025334
3542.8346,0.025455
3544.6983,0.025066
3546.5620,0.025384
3548.4256,0.024415
3550.2893,0.023080
3552.1530,0.023327
3554.0166,0.023402
3555.8803,0.023330
3557.7440,0.023502
3559.6076,0.022720
3561.4713,0.022162
3563.3350,0.021475
3565.1986,0.020859
3567.0623,0.020889
3568.9260,0.020038
3570.7896,0.020369
3572.6533,0.020425
3574.5170,0.019769
3576.3807,0.020080
3578.2443,0.020323
3580.1080,0.019273
3581.9717,0.018023
3583.8353,0.017447
3585.6990,0.017797
3587.5627,0.018235
3589.4263,0.017787
3591.2900,0.017052
3593.1537,0.017414
3595.0173,0.017623
3596.8810,0.016785
3598.7447,0.016380
3600.6084,0.016757
3602.4720,0.016591
3604.3357,0.015986
3606.1994,0.015523
3608.0630,0.015137
3609.9267,0.015052
3611.7904,0.015624
3613.6540,0.015975
3615.5177,0.015337
3617.3814,0.014865
3619.2450,0.015496
3621.1087,0.015039
3622.9724,0.015004
3624.8360,0.014815
3626.6997,0.014513
3628.5634,0.015191
3630.4271,0.016214
3632.2907,0.014383
3634.1544,0.013690
3636.0181,0.014293
3637.8817,0.014531
3639.7454,0.014378
3641.6091,0.014288
3643.4727,0.013977
3645.3364,0.013568
3647.2001,0.013937
3649.0637,0.014807
3650.9274,0.014130
3652.7911,0.013336
3654.6547,0.013560
3656.5184,0.014160
3658.3821,0.014559
3660.2458,0.014248
3662.1094,0.013606
3663.9731,0.013104
3665.8368,0.013162
3667.7004,0.013198
3669.5641,0.013190
3671.4278,0.012956
3673.2914,0.012898
3675.1551,0.013586
3677.0188,0.015028
3678.8824,0.014155
3680.7461,0.013339
3682.6098,0.013016
3684.4735,0.012825
3686.3371,0.013287
3688.2008,0.013936
3690.0645,0.014500
3691.9281,0.014831
3693.7918,0.014047
3695.6555,0.013921
3697.5191,0.014150
3699.3828,0.014239
3701.2465,0.014257
3703.1101,0.014372
3704.9738,0.014312
3706.8375,0.014161
3708.7011,0.014113
3710.5648,0.013965
3712.4285,0.013555
3714.2922,0.013878
3716.1558,0.014057
3718.0195,0.013849
3719.8832,0.014317
3721.7468,0.014234
3723.6105,0.013676
3725.4742,0.013556
3727.3378,0.013987
3729.2015,0.014140
3731.0652,0.014290
3732.9288,0.014957
3734.7925,0.014141
3736.6562,0.012884
3738.5199,0.012895
3740.3835,0.013542
3742.2472,0.014095
3744.1109,0.014367
3745.9745,0.013977
3747.8382,0.013407
3749.7019,0.014765
3751.5655,0.015786
3753.4292,0.015542
3755.2929,0.015310
3757.1565,0.015634
3759.0202,0.015867
3760.8839,0.015801
3762.7475,0.016236
3764.6112,0.016282
3766.4749,0.016430
3768.3386,0.016533
3770.2022,0.016567
3772.0659,0.016492
3773.9296,0.016428
3775.7932,0.016229
3777.6569,0.015986
3779.5206,0.016122
3781.3842,0.016477
3783.2479,0.016602
3785.1116,0.016681
3786.9752,0.016640
3788.8389,0.016410
3790.7026,0.016531
3792.5662,0.016430
3794.4299,0.016192
3796.2936,0.016542
3798.1573,0.016767
3800.0209,0.016327
3801.8846,0.016808
3803.7483,0.016901
3805.6119,0.016028
3807.4756,0.016655
3809.3393,0.016911
3811.2029,0.016300
3813.0666,0.016166
3814.9303,0.016401
3816.7939,0.016883
3818.6576,0.016310
3820.5213,0.016125
3822.3850,0.017368
3824.2486,0.017280
3826.1123,0.016574
3827.9760,0.016984
3829.8396,0.017228
3831.7033,0.016674
3833.5670,0.016272
3835.4306,0.016207
3837.2943,0.015971
3839.1580,0.015648
3841.0216,0.016538
3842.8853,0.016795
3844.7490,0.016339
3846.6126,0.015765
3848.4763,0.016011
3850.3400,0.016738
3852.2037,0.017664
3854.0673,0.018271
3855.9310,0.017311
3857.7947,0.016653
3859.6583,0.017069
3861.5220,0.017055
3863.3857,0.016533
3865.2493,0.017014
3867.1130,0.018036
3868.9767,0.017484
3870.8403,0.017190
3872.7040,0.017507
3874.5677,0.017505
3876.4314,0.017330
3878.2950,0.017031
3880.1587,0.017158
3882.0224,0.017430
3883.8860,0.016871
3885.7497,0.017397
3887.6134,0.018791
3889.4770,0.018582
3891.3407,0.018103
3893.2044,0.018054
3895.0680,0.017875
3896.9317,0.017872
3898.7954,0.018398
3900.6590,0.019766
3902.5227,0.019800
3904.3864,0.019183
3906.2501,0.019272
3908.1137,0.018527
3909.9774,0.017876
3911.8411,0.018163
3913.7047,0.018407
3915.5684,0.018299
3917.4321,0.018628
3919.2957,0.019357
3921.1594,0.019155
3923.0231,0.018383
3924.8867,0.018318
3926.7504,0.018396
3928.6141,0.018093
3930.4777,0.018766
3932.3414,0.019372
3934.2051,0.019493
3936.0688,0.019315
3937.9324,0.019333
3939.7961,0.019023
3941.6598,0.018488
3943.5234,0.018663
3945.3871,0.018730
3947.2508,0.018715
3949.1144,0.019226
3950.9781,0.019259
3952.8418,0.019431
3954.7054,0.019620
3956.5691,0.019434
3958.4328,0.019421
3960.2965,0.019941
3962.1601,0.019848
3964.0238,0.019374
3965.8875,0.019329
3967.7511,0.019338
3969.6148,0.019159
3971.4785,0.018932
3973.3421,0.018985
3975.2058,0.019681
3977.0695,0.020011
3978.9331,0.019626
3980.7968,0.019582
3982.6605,0.019441
3984.5241,0.019361
3986.3878,0.019633
3988.2515,0.019299
3990.1152,0.019254
3991.9788,0.019827
3993.8425,0.020389
3995.7062,0.019848
3997.5698,0.019162
3999.4335,0.019648
