Wavenumber,Intensity
650.4205,0.163232
652.2841,0.159757
654.1478,0.157494
656.0115,0.155937
657.8751,0.154255
659.7388,0.153276
661.6025,0.153040
663.4661,0.151967
665.3298,0.151265
667.1935,0.149642
669.0571,0.150981
670.9208,0.151175
672.7845,0.149897
674.6481,0.148852
676.5118,0.149424
678.3755,0.148118
680.2392,0.146746
682.1028,0.146263
683.9665,0.147131
685.8302,0.147520
687.6938,0.147565
689.5575,0.147854
691.4212,0.148607
693.2848,0.147468
695.1485,0.147020
697.0122,0.147993
698.8758,0.149819
700.7395,0.151534
702.6032,0.151872
704.4669,0.150468
706.3305,0.148932
708.1942,0.146336
710.0579,0.143473
711.9215,0.140367
713.7852,0.136797
715.6489,0.132232
717.5125,0.127794
719.3762,0.124061
721.2399,0.120929
723.1035,0.117426
724.9672,0.114408
726.8309,0.111687
728.6945,0.109466
730.5582,0.107326
732.4219,0.105185
734.2856,0.103244
736.1492,0.101839
738.0129,0.101054
739.8766,0.101084
741.7402,0.102170
743.6039,0.103687
745.4676,0.104562
747.3312,0.105338
749.1949,0.105899
751.0586,0.106900
752.9222,0.108169
754.7859,0.108834
756.6496,0.109061
758.5132,0.109251
760.3769,0.109050
762.2406,0.108631
764.1043,0.107806
765.9679,0.106863
767.8316,0.105411
769.6953,0.103353
771.5589,0.101448
773.4226,0.100002
775.2863,0.097882
777.1499,0.096009
779.0136,0.094683
780.8773,0.093527
782.7409,0.093195
784.6046,0.093492
786.4683,0.093339
788.3320,0.092907
790.1956,0.092865
792.0593,0.093303
793.9230,0.093462
795.7866,0.093492
797.6503,0.093680
799.5140,0.093862
801.3776,0.093282
803.2413,0.092836
805.1050,0.092883
806.9686,0.092821
808.8323,0.092173
810.6960,0.091162
812.5596,0.089969
814.4233,0.089197
816.2870,0.088456
818.1507,0.087687
820.0143,0.087159
821.8780,0.086902
823.7417,0.087008
825.6053,0.087681
827.4690,0.089352
829.3327,0.090924
831.1963,0.090176
833.0600,0.087169
834.9237,0.084423
836.7873,0.083566
838.6510,0.084113
840.5147,0.084953
842.3784,0.085655
844.2420,0.086524
846.1057,0.087072
847.9694,0.087339
849.8330,0.087849
851.6967,0.088373
853.5604,0.088829
855.4240,0.089410
857.2877,0.089978
859.1514,0.090340
861.0150,0.089930
862.8787,0.088688
864.7424,0.086992
866.6060,0.085159
868.4697,0.083020
870.3334,0.080769
872.1971,0.079072
874.0607,0.078043
875.9244,0.077358
877.7881,0.077242
879.6517,0.077806
881.5154,0.078742
883.3791,0.079862
885.2427,0.081172
887.1064,0.082620
888.9701,0.084240
890.8337,0.085932
892.6974,0.087636
894.5611,0.089150
896.4247,0.090595
898.2884,0.092111
900.1521,0.093743
902.0158,0.095715
903.8794,0.098101
905.7431,0.100912
907.6068,0.104171
909.4704,0.107867
911.3341,0.111780
913.1978,0.115744
915.0614,0.118609
916.9251,0.117657
918.7888,0.113671
920.6524,0.110599
922.5161,0.109601
924.3798,0.109427
926.2435,0.109576
928.1071,0.109754
929.9708,0.109725
931.8345,0.109551
933.6981,0.109307
935.5618,0.108755
937.4255,0.107998
939.2891,0.107271
941.1528,0.106697
943.0165,0.106313
944.8801,0.106534
946.7438,0.107465
948.6075,0.108976
950.4711,0.111186
952.3348,0.114200
954.1985,0.117711
956.0622,0.121629
957.9258,0.125974
959.7895,0.130571
961.6532,0.135418
963.5168,0.140814
965.3805,0.146629
967.2442,0.152807
969.1078,0.159762
970.9715,0.167510
972.8352,0.175690
974.6988,0.184943
976.5625,0.196030
978.4262,0.209788
980.2899,0.225477
982.1535,0.235089
984.0172,0.230186
985.8809,0.220531
987.7445,0.217449
989.6082,0.219171
991.4719,0.221200
993.3355,0.222287
995.1992,0.222353
997.0629,0.221675
998.9265,0.220259
1000.7902,0.218510
1002.6539,0.216566
1004.5175,0.214919
1006.3812,0.213745
1008.2449,0.212911
1010.1086,0.212159
1011.9722,0.211310
1013.8359,0.209893
1015.6996,0.207701
1017.5632,0.204517
1019.4269,0.200672
1021.2906,0.196191
1023.1542,0.191044
1025.0179,0.185588
1026.8816,0.180353
1028.7452,0.175418
1030.6089,0.170955
1032.4726,0.167098
1034.3362,0.164201
1036.1999,0.162345
1038.0636,0.161213
1039.9273,0.160306
1041.7909,0.159389
1043.6546,0.158198
1045.5183,0.156367
1047.3819,0.153508
1049.2456,0.149029
1051.1093,0.142240
1052.9729,0.133778
1054.8366,0.125359
1056.7003,0.118249
1058.5639,0.112523
1060.4276,0.108222
1062.2913,0.105197
1064.1550,0.103597
1066.0186,0.104289
1067.8823,0.108054
1069.7460,0.114660
1071.6096,0.122565
1073.4733,0.129508
1075.3370,0.133572
1077.2006,0.134077
1079.0643,0.131862
1080.9280,0.128297
1082.7916,0.124253
1084.6553,0.120093
1086.5190,0.116217
1088.3826,0.112964
1090.2463,0.110446
1092.1100,0.108914
1093.9737,0.108566
1095.8373,0.109449
1097.7010,0.111369
1099.5647,0.113621
1101.4283,0.115712
1103.2920,0.117229
1105.1557,0.117561
1107.0193,0.116142
1108.8830,0.112856
1110.7467,0.108207
1112.6103,0.103032
1114.4740,0.097955
1116.3377,0.093741
1118.2014,0.090638
1120.0650,0.088585
1121.9287,0.087318
1123.7924,0.086329
1125.6560,0.085326
1127.5197,0.084118
1129.3834,0.082877
1131.2470,0.082013
1133.1107,0.081884
1134.9744,0.082820
1136.8380,0.084781
1138.7017,0.087549
1140.5654,0.090701
1142.4290,0.093723
1144.2927,0.096123
1146.1564,0.097632
1148.0201,0.098212
1149.8837,0.097751
1151.7474,0.096063
1153.6111,0.093361
1155.4747,0.089887
1157.3384,0.085742
1159.2021,0.081240
1161.0657,0.076601
1162.9294,0.071977
1164.7931,0.067710
1166.6567,0.063993
1168.5204,0.061017
1170.3841,0.058736
1172.2477,0.056676
1174.1114,0.054330
1175.9751,0.051505
1177.8388,0.048670
1179.7024,0.046568
1181.5661,0.045433
1183.4298,0.044980
1185.2934,0.044968
1187.1571,0.045356
1189.0208,0.045983
1190.8844,0.046686
1192.7481,0.047437
1194.6118,0.048254
1196.4754,0.049077
1198.3391,0.049872
1200.2028,0.050621
1202.0665,0.051175
1203.9301,0.051539
1205.7938,0.051870
1207.6575,0.052128
1209.5211,0.052247
1211.3848,0.052310
1213.2485,0.052395
1215.1121,0.052525
1216.9758,0.052836
1218.8395,0.053325
1220.7031,0.053891
1222.5668,0.054622
1224.4305,0.055532
1226.2941,0.056397
1228.1578,0.057157
1230.0215,0.057945
1231.8852,0.058679
1233.7488,0.059286
1235.6125,0.059821
1237.4762,0.060302
1239.3398,0.060739
1241.2035,0.061069
1243.0672,0.061278
1244.9308,0.061527
1246.7945,0.061724
1248.6582,0.061719
1250.5218,0.061712
1252.3855,0.061871
1254.2492,0.062087
1256.1129,0.062386
1257.9765,0.062828
1259.8402,0.063273
1261.7039,0.063738
1263.5675,0.064205
1265.4312,0.064518
1267.2949,0.064720
1269.1585,0.064818
1271.0222,0.064955
1272.8859,0.065275
1274.7495,0.065666
1276.6132,0.066304
1278.4769,0.067155
1280.3405,0.068068
1282.2042,0.069116
1284.0679,0.070262
1285.9316,0.071441
1287.7952,0.072787
1289.6589,0.074204
1291.5226,0.075641
1293.3862,0.077328
1295.2499,0.079266
1297.1136,0.081399
1298.9772,0.083804
1300.8409,0.086630
1302.7046,0.089505
1304.5682,0.091359
1306.4319,0.090887
1308.2956,0.086920
1310.1592,0.080059
1312.0229,0.073339
1313.8866,0.069213
1315.7503,0.067895
1317.6139,0.068414
1319.4776,0.069808
1321.3413,0.071247
1323.2049,0.072642
1325.0686,0.074236
1326.9323,0.075920
1328.7959,0.077533
1330.6596,0.078933
1332.5233,0.079903
1334.3869,0.080279
1336.2506,0.080370
1338.1143,0.080942
1339.9780,0.081832
1341.8416,0.081645
1343.7053,0.081009
1345.5690,0.080826
1347.4326,0.080959
1349.2963,0.081347
1351.1600,0.081783
1353.0236,0.082276
1354.8873,0.083041
1356.7510,0.083662
1358.6146,0.083994
1360.4783,0.084808
1362.3420,0.086705
1364.2056,0.087961
1366.0693,0.087837
1367.9330,0.088291
1369.7967,0.088948
1371.6603,0.089266
1373.5240,0.090606
1375.3877,0.091992
1377.2513,0.092314
1379.1150,0.093137
1380.9787,0.094398
1382.8423,0.095422
1384.7060,0.096565
1386.5697,0.098961
1388.4333,0.101728
1390.2970,0.102550
1392.1607,0.103017
1394.0244,0.103965
1395.8880,0.103479
1397.7517,0.101167
1399.6154,0.098339
1401.4790,0.094948
1403.3427,0.092196
1405.2064,0.088812
1407.0700,0.083050
1408.9337,0.076803
1410.7974,0.071295
1412.6610,0.067230
1414.5247,0.064958
1416.3884,0.064538
1418.2520,0.066820
1420.1157,0.070209
1421.9794,0.070700
1423.8431,0.069760
1425.7067,0.066513
1427.5704,0.062570
1429.4341,0.060176
1431.2977,0.058751
1433.1614,0.057759
1435.0251,0.058083
1436.8887,0.060172
1438.7524,0.060553
1440.6161,0.059892
1442.4797,0.060043
1444.3434,0.060278
1446.2071,0.060684
1448.0707,0.061364
1449.9344,0.061035
1451.7981,0.059607
1453.6618,0.057965
1455.5254,0.057899
1457.3891,0.061106
1459.2528,0.061219
1461.1164,0.058857
1462.9801,0.057803
1464.8438,0.057683
1466.7074,0.056194
1468.5711,0.053678
1470.4348,0.052039
1472.2984,0.051886
1474.1621,0.051728
1476.0258,0.050844
1477.8895,0.049965
1479.7531,0.049222
1481.6168,0.049013
1483.4805,0.048693
1485.3441,0.048303
1487.2078,0.048693
1489.0715,0.050116
1490.9351,0.050802
1492.7988,0.049705
1494.6625,0.049379
1496.5261,0.050860
1498.3898,0.052102
1500.2535,0.051732
1502.1171,0.050828
1503.9808,0.050301
1505.8445,0.052293
1507.7082,0.057041
1509.5718,0.055838
1511.4355,0.054652
1513.2992,0.054465
1515.1628,0.054765
1517.0265,0.055586
1518.8902,0.055865
1520.7538,0.057030
1522.6175,0.058726
1524.4812,0.058273
1526.3448,0.058660
1528.2085,0.058984
1530.0722,0.058529
1531.9359,0.059012
1533.7995,0.060503
1535.6632,0.059850
1537.5269,0.059025
1539.3905,0.061747
1541.2542,0.065989
1543.1179,0.065528
1544.9815,0.065523
1546.8452,0.065279
1548.7089,0.065418
1550.5725,0.066537
1552.4362,0.067018
1554.2999,0.067333
1556.1635,0.067862
1558.0272,0.071067
1559.8909,0.078559
1561.7546,0.075198
1563.6182,0.073424
1565.4819,0.074144
1567.3456,0.075057
1569.2092,0.076986
1571.0729,0.078730
1572.9366,0.078240
1574.8002,0.079680
1576.6639,0.083751
1578.5276,0.084484
1580.3912,0.083928
1582.2549,0.084905
1584.1186,0.086099
1585.9822,0.086941
1587.8459,0.087618
1589.7096,0.088274
1591.5733,0.088563
1593.4369,0.088716
1595.3006,0.088776
1597.1643,0.088523
1599.0279,0.088110
1600.8916,0.087801
1602.7553,0.087410
1604.6189,0.086862
1606.4826,0.086508
1608.3463,0.086390
1610.2099,0.085796
1612.0736,0.084519
1613.9373,0.083338
1615.8010,0.083363
1617.6646,0.082652
1619.5283,0.079195
1621.3920,0.077165
1623.2556,0.076384
1625.1193,0.074151
1626.9830,0.071437
1628.8466,0.068714
1630.7103,0.065137
1632.5740,0.061981
1634.4376,0.060186
1636.3013,0.059058
1638.1650,0.056655
1640.0286,0.054794
1641.8923,0.053454
1643.7560,0.052925
1645.6197,0.054020
1647.4833,0.055530
1649.3470,0.054465
1651.2107,0.054376
1653.0743,0.058743
1654.9380,0.060880
1656.8017,0.057908
1658.6653,0.056966
1660.5290,0.056957
1662.3927,0.057228
1664.2563,0.056422
1666.1200,0.054806
1667.9837,0.054303
1669.8474,0.054624
1671.7110,0.053729
1673.5747,0.053312
1675.4384,0.054474
1677.3020,0.054920
1679.1657,0.054462
1681.0294,0.055074
1682.8930,0.057099
1684.7567,0.061113
1686.6204,0.060942
1688.4840,0.059444
1690.3477,0.058681
1692.2114,0.057096
1694.0750,0.055585
1695.9387,0.054706
1697.8024,0.053401
1699.6661,0.052790
1701.5297,0.051083
1703.3934,0.047647
1705.2571,0.044995
1707.1207,0.041953
1708.9844,0.039172
1710.8481,0.036912
1712.7117,0.035030
1714.5754,0.033974
1716.4391,0.033965
1718.3027,0.034451
1720.1664,0.033367
1722.0301,0.032193
1723.8937,0.031513
1725.7574,0.030553
1727.6211,0.029601
1729.4848,0.028987
1731.3484,0.028475
1733.2121,0.028642
1735.0758,0.029040
1736.9394,0.028011
1738.8031,0.027572
1740.6668,0.027778
1742.5304,0.027634
1744.3941,0.027308
1746.2578,0.026848
1748.1214,0.026924
1749.9851,0.027315
1751.8488,0.027142
1753.7125,0.026607
1755.5761,0.026401
1757.4398,0.026526
1759.3035,0.026362
1761.1671,0.026566
1763.0308,0.027006
1764.8945,0.026567
1766.7581,0.026186
1768.6218,0.026136
1770.4855,0.026215
1772.3491,0.026791
1774.2128,0.026920
1776.0765,0.026367
1777.9401,0.026290
1779.8038,0.026392
1781.6675,0.026538
1783.5312,0.026545
1785.3948,0.026604
1787.2585,0.026280
1789.1222,0.026003
1790.9858,0.026473
1792.8495,0.027144
1794.7132,0.026809
1796.5768,0.026414
1798.4405,0.026264
1800.3042,0.026572
1802.1678,0.026939
1804.0315,0.026763
1805.8952,0.026458
1807.7589,0.026448
1809.6225,0.026620
1811.4862,0.026869
1813.3499,0.026695
1815.2135,0.026315
1817.0772,0.026205
1818.9409,0.026358
1820.8045,0.026319
1822.6682,0.026398
1824.5319,0.026504
1826.3955,0.026399
1828.2592,0.026184
1830.1229,0.026551
1831.9865,0.026684
1833.8502,0.026335
1835.7139,0.026204
1837.5776,0.026133
1839.4412,0.025882
1841.3049,0.025782
1843.1686,0.026374
1845.0322,0.026957
1846.8959,0.026692
1848.7596,0.026689
1850.6232,0.026616
1852.4869,0.026444
1854.3506,0.026401
1856.2142,0.026434
1858.0779,0.026504
1859.9416,0.026300
1861.8052,0.026168
1863.6689,0.026248
1865.5326,0.026334
1867.3963,0.026568
1869.2599,0.026714
1871.1236,0.026488
1872.9873,0.026432
1874.8509,0.026526
1876.7146,0.026201
1878.5783,0.026113
1880.4419,0.026517
1882.3056,0.026337
1884.1693,0.026063
1886.0329,0.026019
1887.8966,0.026059
1889.7603,0.026286
1891.6240,0.025958
1893.4876,0.025750
1895.3513,0.025862
1897.2150,0.025922
1899.0786,0.026066
1900.9423,0.026064
1902.8060,0.026035
1904.6696,0.026148
1906.5333,0.025844
1908.3970,0.025910
1910.2606,0.025936
1912.1243,0.025720
1913.9880,0.025902
1915.8516,0.025766
1917.7153,0.025495
1919.5790,0.025539
1921.4427,0.025274
1923.3063,0.025143
1925.1700,0.024736
1927.0337,0.024352
1928.8973,0.024082
1930.7610,0.024359
1932.6247,0.024844
1934.4883,0.024339
1936.3520,0.023823
1938.2157,0.024146
1940.0793,0.024455
1941.9430,0.024661
1943.8067,0.024238
1945.6704,0.023653
1947.5340,0.022923
1949.3977,0.022142
1951.2614,0.021859
1953.1250,0.021984
1954.9887,0.022127
1956.8524,0.021867
1958.7160,0.020260
1960.5797,0.019141
1962.4434,0.019633
1964.3070,0.019737
1966.1707,0.018372
1968.0344,0.017316
1969.8980,0.015583
1971.7617,0.014575
1973.6254,0.015189
1975.4891,0.015985
1977.3527,0.015663
1979.2164,0.015449
1981.0801,0.016921
1982.9437,0.018241
1984.8074,0.017478
1986.6711,0.017075
1988.5347,0.018709
1990.3984,0.020114
1992.2621,0.019764
1994.1257,0.018936
1995.9894,0.018328
1997.8531,0.018490
1999.7167,0.018866
2001.5804,0.018665
2003.4441,0.017524
2005.3078,0.017250
2007.1714,0.016977
2009.0351,0.016306
2010.8988,0.015317
2012.7624,0.015039
2014.6261,0.015132
2016.4898,0.014377
2018.3534,0.014078
2020.2171,0.014849
2022.0808,0.015025
2023.9444,0.014793
2025.8081,0.014317
2027.6718,0.014465
2029.5355,0.014097
2031.3991,0.014613
2033.2628,0.016238
2035.1265,0.016834
2036.9901,0.017148
2038.8538,0.017351
2040.7175,0.017358
2042.5811,0.018395
2044.4448,0.018806
2046.3085,0.019159
2048.1721,0.019928
2050.0358,0.021111
2051.8995,0.021912
2053.7631,0.022010
2055.6268,0.022537
2057.4905,0.023438
2059.3542,0.023562
2061.2178,0.023973
2063.0815,0.025007
2064.9452,0.025192
2066.8088,0.024701
2068.6725,0.024633
2070.5362,0.025583
2072.3998,0.025863
2074.2635,0.025383
2076.1272,0.025886
2077.9908,0.026663
2079.8545,0.026575
2081.7182,0.026963
2083.5819,0.026985
2085.4455,0.026400
2087.3092,0.026763
2089.1729,0.027283
2091.0365,0.027230
2092.9002,0.027494
2094.7639,0.028062
2096.6275,0.027976
2098.4912,0.027632
2100.3549,0.027793
2102.2185,0.028131
2104.0822,0.027891
2105.9459,0.027994
2107.8095,0.028236
2109.6732,0.028098
2111.5369,0.027609
2113.4006,0.027414
2115.2642,0.028035
2117.1279,0.028419
2118.9916,0.027724
2120.8552,0.027227
2122.7189,0.027177
2124.5826,0.027412
2126.4462,0.027657
2128.3099,0.026820
2130.1736,0.026254
2132.0372,0.026198
2133.9009,0.025857
2135.7646,0.025344
2137.6282,0.024906
2139.4919,0.024445
2141.3556,0.024269
2143.2193,0.023258
2145.0829,0.021199
2146.9466,0.020573
2148.8103,0.020634
2150.6739,0.019394
2152.5376,0.018842
2154.4013,0.018494
2156.2649,0.017266
2158.1286,0.015581
2159.9923,0.014371
2161.8559,0.015454
2163.7196,0.016416
2165.5833,0.016008
2167.4470,0.016245
2169.3106,0.017700
2171.1743,0.018262
2173.0380,0.018811
2174.9016,0.019867
2176.7653,0.020731
2178.6290,0.021084
2180.4926,0.020183
2182.3563,0.019954
2184.2200,0.020378
2186.0836,0.021315
2187.9473,0.021930
2189.8110,0.021681
2191.6746,0.021894
2193.5383,0.022189
2195.4020,0.023294
2197.2657,0.024118
2199.1293,0.024590
2200.9930,0.024185
2202.8567,0.024175
2204.7203,0.024509
2206.5840,0.024049
2208.4477,0.024368
2210.3113,0.025472
2212.1750,0.025636
2214.0387,0.024992
2215.9023,0.025045
2217.7660,0.024864
2219.6297,0.025124
2221.4934,0.026118
2223.3570,0.026590
2225.2207,0.026884
2227.0844,0.027344
2228.9480,0.027032
2230.8117,0.026473
2232.6754,0.027151
2234.5390,0.027915
2236.4027,0.028138
2238.2664,0.028615
2240.1300,0.028852
2241.9937,0.028928
2243.8574,0.029007
2245.7210,0.029250
2247.5847,0.029507
2249.4484,0.029760
2251.3121,0.029469
2253.1757,0.028824
2255.0394,0.028740
2256.9031,0.029544
2258.7667,0.030130
2260.6304,0.030353
2262.4941,0.030490
2264.3577,0.030823
2266.2214,0.031406
2268.0851,0.031715
2269.9487,0.031408
2271.8124,0.031369
2273.6761,0.031805
2275.5397,0.032028
2277.4034,0.032056
2279.2671,0.032243
2281.1308,0.032928
2282.9944,0.033504
2284.8581,0.033811
2286.7218,0.033929
2288.5854,0.033806
2290.4491,0.033789
2292.3128,0.033849
2294.1764,0.034121
2296.0401,0.034352
2297.9038,0.034361
2299.7674,0.034345
2301.6311,0.034369
2303.4948,0.034280
2305.3585,0.034285
2307.2221,0.034538
2309.0858,0.034533
2310.9495,0.034473
2312.8131,0.034608
2314.6768,0.034912
2316.5405,0.035029
2318.4041,0.035053
2320.2678,0.035388
2322.1315,0.035806
2323.9951,0.035966
2325.8588,0.035774
2327.7225,0.035234
2329.5861,0.034860
2331.4498,0.034904
2333.3135,0.034868
2335.1772,0.034795
2337.0408,0.035040
2338.9045,0.035388
2340.7682,0.035690
2342.6318,0.036165
2344.4955,0.036193
2346.3592,0.035622
2348.2228,0.034969
2350.0865,0.034550
2351.9502,0.034767
2353.8138,0.035066
2355.6775,0.035085
2357.5412,0.034998
2359.4049,0.034947
2361.2685,0.035019
2363.1322,0.035163
2364.9959,0.035382
2366.8595,0.035336
2368.7232,0.035786
2370.5869,0.036046
2372.4505,0.036307
2374.3142,0.036453
2376.1779,0.036233
2378.0415,0.035967
2379.9052,0.036081
2381.7689,0.036027
2383.6325,0.035974
2385.4962,0.035798
2387.3599,0.035777
2389.2236,0.035801
2391.0872,0.035933
2392.9509,0.036221
2394.8146,0.036216
2396.6782,0.035945
2398.5419,0.035761
2400.4056,0.035795
2402.2692,0.035896
2404.1329,0.035741
2405.9966,0.035834
2407.8602,0.035967
2409.7239,0.036133
2411.5876,0.036224
2413.4512,0.036256
2415.3149,0.036181
2417.1786,0.036413
2419.0423,0.036680
2420.9059,0.036580
2422.7696,0.036389
2424.6333,0.036384
2426.4969,0.036669
2428.3606,0.036910
2430.2243,0.036791
2432.0879,0.036685
2433.9516,0.036871
2435.8153,0.037049
2437.6789,0.037035
2439.5426,0.036786
2441.4063,0.036907
2443.2700,0.037317
2445.1336,0.037207
2446.9973,0.037057
2448.8610,0.037002
2450.7246,0.037397
2452.5883,0.037528
2454.4520,0.037381
2456.3156,0.037489
2458.1793,0.037622
2460.0430,0.037688
2461.9066,0.037444
2463.7703,0.037259
2465.6340,0.037353
2467.4976,0.037295
2469.3613,0.037510
2471.2250,0.037657
2473.0887,0.037462
2474.9523,0.037348
2476.8160,0.037778
2478.6797,0.037953
2480.5433,0.037671
2482.4070,0.037449
2484.2707,0.037674
2486.1343,0.037775
2487.9980,0.038072
2489.8617,0.038454
2491.7253,0.038035
2493.5890,0.037860
2495.4527,0.038297
2497.3164,0.038252
2499.1800,0.038298
2501.0437,0.038259
2502.9074,0.038330
2504.7710,0.038661
2506.6347,0.038701
2508.4984,0.038359
2510.3620,0.038503
2512.2257,0.038974
2514.0894,0.039193
2515.9530,0.039038
2517.8167,0.038992
2519.6804,0.039020
2521.5440,0.039090
2523.4077,0.039142
2525.2714,0.039084
2527.1351,0.038944
2528.9987,0.039060
2530.8624,0.039147
2532.7261,0.039438
2534.5897,0.039675
2536.4534,0.039486
2538.3171,0.039301
2540.1807,0.039620
2542.0444,0.039706
2543.9081,0.039839
2545.7717,0.040174
2547.6354,0.039992
2549.4991,0.039863
2551.3627,0.040301
2553.2264,0.040334
2555.0901,0.040228
2556.9538,0.040077
2558.8174,0.040378
2560.6811,0.040713
2562.5448,0.040807
2564.4084,0.040954
2566.2721,0.040712
2568.1358,0.040505
2569.9994,0.040997
2571.8631,0.041315
2573.7268,0.041117
2575.5904,0.041349
2577.4541,0.041582
2579.3178,0.041462
2581.1815,0.041181
2583.0451,0.040845
2584.9088,0.041446
2586.7725,0.041822
2588.6361,0.041879
2590.4998,0.042013
2592.3635,0.042259
2594.2271,0.042644
2596.0908,0.042777
2597.9545,0.042685
2599.8181,0.042604
2601.6818,0.042898
2603.5455,0.042988
2605.4091,0.042892
2607.2728,0.042989
2609.1365,0.043088
2611.0002,0.043360
2612.8638,0.043667
2614.7275,0.043680
2616.5912,0.043758
2618.4548,0.043869
2620.3185,0.044042
2622.1822,0.044430
2624.0458,0.044582
2625.9095,0.044667
2627.7732,0.044857
2629.6368,0.045094
2631.5005,0.045256
2633.3642,0.045405
2635.2279,0.045555
2637.0915,0.045938
2638.9552,0.046103
2640.8189,0.046009
2642.6825,0.046247
2644.5462,0.046495
2646.4099,0.046611
2648.2735,0.046780
2650.1372,0.046802
2652.0009,0.047023
2653.8645,0.047117
2655.7282,0.047012
2657.5919,0.047135
2659.4555,0.047257
2661.3192,0.047348
2663.1829,0.047306
2665.0466,0.047237
2666.9102,0.047318
2668.7739,0.047397
2670.6376,0.047457
2672.5012,0.047536
2674.3649,0.047739
2676.2286,0.047829
2678.0922,0.048017
2679.9559,0.048233
2681.8196,0.048395
2683.6832,0.048651
2685.5469,0.048696
2687.4106,0.048355
2689.2742,0.048253
2691.1379,0.048589
2693.0016,0.048908
2694.8653,0.048992
2696.7289,0.049247
2698.5926,0.049566
2700.4563,0.049714
2702.3199,0.049824
2704.1836,0.049942
2706.0473,0.049920
2707.9109,0.050126
2709.7746,0.050304
2711.6383,0.050333
2713.5019,0.050560
2715.3656,0.050736
2717.2293,0.050984
2719.0930,0.051321
2720.9566,0.051350
2722.8203,0.051723
2724.6840,0.052134
2726.5476,0.052211
2728.4113,0.052264
2730.2750,0.052375
2732.1386,0.052636
2734.0023,0.053060
2735.8660,0.053072
2737.7296,0.053132
2739.5933,0.053355
2741.4570,0.053575
2743.3206,0.053764
2745.1843,0.054009
2747.0480,0.054264
2748.9117,0.054757
2750.7753,0.055056
2752.6390,0.055271
2754.5027,0.055371
2756.3663,0.055396
2758.2300,0.055664
2760.0937,0.055926
2761.9573,0.056054
2763.8210,0.056451
2765.6847,0.056701
2767.5483,0.056887
2769.4120,0.057154
2771.2757,0.057548
2773.1394,0.057807
2775.0030,0.058262
2776.8667,0.058845
2778.7304,0.059163
2780.5940,0.059031
2782.4577,0.059003
2784.3214,0.059061
2786.1850,0.059238
2788.0487,0.059194
2789.9124,0.059107
2791.7760,0.059107
2793.6397,0.059089
2795.5034,0.058737
2797.3670,0.058913
2799.2307,0.058990
2801.0944,0.058896
2802.9581,0.058854
2804.8217,0.058946
2806.6854,0.058741
2808.5491,0.058503
2810.4127,0.058391
2812.2764,0.058508
2814.1401,0.058765
2816.0037,0.058980
2817.8674,0.058995
2819.7311,0.059168
2821.5947,0.059450
2823.4584,0.059757
2825.3221,0.059886
2827.1857,0.059869
2829.0494,0.059857
2830.9131,0.059794
2832.7768,0.060011
2834.6404,0.060434
2836.5041,0.060614
2838.3678,0.060679
2840.2314,0.060826
2842.0951,0.061424
2843.9588,0.061897
2845.8224,0.062020
2847.6861,0.062329
2849.5498,0.062996
2851.4134,0.063358
2853.2771,0.063846
2855.1408,0.064353
2857.0045,0.064700
2858.8681,0.065053
2860.7318,0.065599
2862.5955,0.066326
2864.4591,0.066613
2866.3228,0.066786
2868.1865,0.067220
2870.0501,0.067444
2871.9138,0.067814
2873.7775,0.068507
2875.6411,0.069012
2877.5048,0.069322
2879.3685,0.069683
2881.2321,0.070051
2883.0958,0.070699
2884.9595,0.071218
2886.8232,0.071667
2888.6868,0.071606
2890.5505,0.071473
2892.4142,0.071489
2894.2778,0.071833
2896.1415,0.072265
2898.0052,0.072150
2899.8688,0.071856
2901.7325,0.071977
2903.5962,0.072132
2905.4598,0.072405
2907.3235,0.072546
2909.1872,0.072832
2911.0509,0.073002
2912.9145,0.073247
2914.7782,0.073908
2916.6419,0.074593
2918.5055,0.074807
2920.3692,0.075190
2922.2329,0.075633
2924.0965,0.076025
2925.9602,0.076263
2927.8239,0.076202
2929.6875,0.075852
2931.5512,0.075726
2933.4149,0.075562
2935.2785,0.075498
2937.1422,0.074901
2939.0059,0.074197
2940.8696,0.073636
2942.7332,0.072931
2944.5969,0.072282
2946.4606,0.072041
2948.3242,0.071829
2950.1879,0.071683
2952.0516,0.071209
2953.9152,0.070715
2955.7789,0.069967
2957.6426,0.069575
2959.5062,0.069442
2961.3699,0.069492
2963.2336,0.069431
2965.0972,0.069663
2966.9609,0.069825
2968.8246,0.069748
2970.6883,0.069730
2972.5519,0.070008
2974.4156,0.070315
2976.2793,0.070495
2978.1429,0.070485
2980.0066,0.070832
2981.8703,0.070907
2983.7339,0.070625
2985.5976,0.070347
2987.4613,0.070625
2989.3249,0.071121
2991.1886,0.071437
2993.0523,0.071445
2994.9160,0.072084
2996.7796,0.072579
2998.6433,0.072952
3000.5070,0.073176
3002.3706,0.073578
3004.2343,0.074055
3006.0980,0.074510
3007.9616,0.075064
3009.8253,0.075457
3011.6890,0.075388
3013.5526,0.075766
3015.4163,0.076062
3017.2800,0.076395
3019.1436,0.076814
3021.0073,0.077293
3022.8710,0.077628
3024.7347,0.078379
3026.5983,0.078900
3028.4620,0.079070
3030.3257,0.079102
3032.1893,0.079522
3034.0530,0.079768
3035.9167,0.080218
3037.7803,0.080726
3039.6440,0.080814
3041.5077,0.081027
3043.3713,0.081321
3045.2350,0.081373
3047.0987,0.081786
3048.9624,0.082240
3050.8260,0.082707
3052.6897,0.083173
3054.5534,0.083608
3056.4170,0.083637
3058.2807,0.083995
3060.1444,0.084306
3062.0080,0.084646
3063.8717,0.085007
3065.7354,0.085081
3067.5990,0.084983
3069.4627,0.085426
3071.3264,0.085896
3073.1900,0.086061
3075.0537,0.086012
3076.9174,0.086389
3078.7811,0.086479
3080.6447,0.086570
3082.5084,0.086789
3084.3721,0.086873
3086.2357,0.087112
3088.0994,0.087358
3089.9631,0.087083
3091.8267,0.086735
3093.6904,0.086697
3095.5541,0.086867
3097.4177,0.086795
3099.2814,0.086668
3101.1451,0.086348
3103.0087,0.086514
3104.8724,0.086537
3106.7361,0.086951
3108.5998,0.087524
3110.4634,0.087364
3112.3271,0.086881
3114.1908,0.086829
3116.0544,0.086571
3117.9181,0.086656
3119.7818,0.086725
3121.6454,0.086702
3123.5091,0.086484
3125.3728,0.086555
3127.2364,0.086670
3129.1001,0.086522
3130.9638,0.086536
3132.8275,0.086743
3134.6911,0.086502
3136.5548,0.086661
3138.4185,0.086921
3140.2821,0.087166
3142.1458,0.087468
3144.0095,0.087428
3145.8731,0.087296
3147.7368,0.087621
3149.6005,0.087713
3151.4641,0.087473
3153.3278,0.087208
3155.1915,0.087353
3157.0551,0.087164
3158.9188,0.086809
3160.7825,0.086709
3162.6462,0.087097
3164.5098,0.087348
3166.3735,0.087481
3168.2372,0.087705
3170.1008,0.087775
3171.9645,0.087614
3173.8282,0.087876
3175.6918,0.088213
3177.5555,0.088310
3179.4192,0.088478
3181.2828,0.088621
3183.1465,0.088332
3185.0102,0.088626
3186.8739,0.088768
3188.7375,0.088607
3190.6012,0.088697
3192.4649,0.088837
3194.3285,0.088625
3196.1922,0.088890
3198.0559,0.089189
3199.9195,0.089174
3201.7832,0.089146
3203.6469,0.089785
3205.5105,0.090264
3207.3742,0.090668
3209.2379,0.090605
3211.1015,0.090690
3212.9652,0.090707
3214.8289,0.090831
3216.6926,0.091134
3218.5562,0.091464
3220.4199,0.091535
3222.2836,0.091658
3224.1472,0.091774
3226.0109,0.091940
3227.8746,0.091491
3229.7382,0.091742
3231.6019,0.092497
3233.4656,0.092810
3235.3292,0.092660
3237.1929,0.092604
3239.0566,0.092802
3240.9202,0.093549
3242.7839,0.093613
3244.6476,0.093521
3246.5113,0.093790
3248.3749,0.093697
3250.2386,0.093174
3252.1023,0.093445
3253.9659,0.093387
3255.8296,0.093459
3257.6933,0.093624
3259.5569,0.094490
3261.4206,0.094562
3263.2843,0.094335
3265.1479,0.094392
3267.0116,0.095001
3268.8753,0.094553
3270.7390,0.093964
3272.6026,0.093865
3274.4663,0.094272
3276.3300,0.094172
3278.1936,0.094035
3280.0573,0.093739
3281.9210,0.093245
3283.7846,0.092737
3285.6483,0.092834
3287.5120,0.093155
3289.3756,0.092468
3291.2393,0.092055
3293.1030,0.092378
3294.9666,0.092078
3296.8303,0.091669
3298.6940,0.091479
3300.5577,0.090609
3302.4213,0.089469
3304.2850,0.089411
3306.1487,0.089668
3308.0123,0.089758
3309.8760,0.089128
3311.7397,0.088507
3313.6033,0.088246
3315.4670,0.088457
3317.3307,0.088273
3319.1943,0.087925
3321.0580,0.087457
3322.9217,0.087540
3324.7854,0.088056
3326.6490,0.088251
3328.5127,0.088026
3330.3764,0.088566
3332.2400,0.088130
3334.1037,0.086732
3335.9674,0.086098
3337.8310,0.086012
3339.6947,0.085906
3341.5584,0.085963
3343.4220,0.084812
3345.2857,0.083564
3347.1494,0.083235
3349.0130,0.082981
3350.8767,0.081946
3352.7404,0.080832
3354.6041,0.079971
3356.4677,0.079906
3358.3314,0.079690
3360.1951,0.078851
3362.0587,0.078429
3363.9224,0.078613
3365.7861,0.078642
3367.6497,0.077508
3369.5134,0.076457
3371.3771,0.076098
3373.2407,0.075101
3375.1044,0.075074
3376.9681,0.075846
3378.8317,0.074762
3380.6954,0.073674
3382.5591,0.073823
3384.4228,0.073961
3386.2864,0.074499
3388.1501,0.075087
3390.0138,0.074502
3391.8774,0.072735
3393.7411,0.072237
3395.6048,0.072323
3397.4684,0.072463
3399.3321,0.072100
3401.1958,0.071003
3403.0594,0.070470
3404.9231,0.070290
3406.7868,0.069279
3408.6505,0.068446
3410.5141,0.067642
3412.3778,0.066461
3414.2415,0.065529
3416.1051,0.065439
3417.9688,0.064818
3419.8325,0.063318
3421.6961,0.062374
3423.5598,0.062214
3425.4235,0.061481
3427.2871,0.060532
3429.1508,0.059709
3431.0145,0.058566
3432.8781,0.057535
3434.7418,0.057436
3436.6055,0.056129
3438.4692,0.054910
3440.3328,0.054349
3442.1965,0.054685
3444.0602,0.054697
3445.9238,0.053727
3447.7875,0.052948
3449.6512,0.052861
3451.5148,0.052367
3453.3785,0.051026
3455.2422,0.050044
3457.1058,0.050080
3458.9695,0.049664
3460.8332,0.049274
3462.6969,0.049266
3464.5605,0.048853
3466.4242,0.048134
3468.2879,0.047589
3470.1515,0.047058
3472.0152,0.046259
3473.8789,0.045622
3475.7425,0.045367
3477.6062,0.045074
3479.4699,0.044855
3481.3335,0.043734
3483.1972,0.042376
3485.0609,0.042273
3486.9245,0.043157
3488.7882,0.042566
3490.6519,0.041538
3492.5156,0.041176
3494.3792,0.040676
3496.2429,0.039613
3498.1066,0.039218
3499.9702,0.039568
3501.8339,0.039387
3503.6976,0.038304
3505.5612,0.036480
3507.4249,0.035773
3509.2886,0.036796
3511.1522,0.036254
3513.0159,0.034701
3514.8796,0.034578
3516.7432,0.035076
3518.6069,0.034897
3520.4706,0.034066
3522.3343,0.033564
3524.1979,0.033218
3526.0616,0.032397
3527.9253,0.033194
3529.7889,0.033175
3531.6526,0.031915
3533.5163,0.031944
3535.3799,0.031561
3537.2436,0.030113
3539.1073,0.029782
3540.9709,0.029653
3542.8346,0.028522
3544.6983,0.027775
3546.5620,0.027976
3548.4256,0.029043
3550.2893,0.028972
3552.1530,0.027641
3554.0166,0.026723
3555.8803,0.026565
3557.7440,0.025861
3559.6076,0.024614
3561.4713,0.024138
3563.3350,0.024077
3565.1986,0.024220
3567.0623,0.024363
3568.9260,0.023834
3570.7896,0.023025
3572.6533,0.022996
3574.5170,0.023275
3576.3807,0.022813
3578.2443,0.023094
3580.1080,0.023507
3581.9717,0.022658
3583.8353,0.021506
3585.6990,0.020170
3587.5627,0.020237
3589.4263,0.021145
3591.2900,0.020608
3593.1537,0.020079
3595.0173,0.020357
3596.8810,0.020039
3598.7447,0.019003
3600.6084,0.019245
3602.4720,0.020013
3604.3357,0.020023
3606.1994,0.019389
3608.0630,0.019396
3609.9267,0.019686
3611.7904,0.019236
3613.6540,0.018375
3615.5177,0.017663
3617.3814,0.018015
3619.2450,0.018148
3621.1087,0.017733
3622.9724,0.017409
3624.8360,0.017423
3626.6997,0.017086
3628.5634,0.017273
3630.4271,0.018611
3632.2907,0.018542
3634.1544,0.018068
3636.0181,0.018270
3637.8817,0.017705
3639.7454,0.017286
3641.6091,0.017237
3643.4727,0.017104
3645.3364,0.016160
3647.2001,0.015187
3649.0637,0.015505
3650.9274,0.016199
3652.7911,0.016132
3654.6547,0.016487
3656.5184,0.016960
3658.3821,0.017036
3660.2458,0.017059
3662.1094,0.016763
3663.9731,0.016552
3665.8368,0.016365
3667.7004,0.015867
3669.5641,0.016321
3671.4278,0.016850
3673.2914,0.016041
3675.1551,0.016215
3677.0188,0.017201
3678.8824,0.017104
3680.7461,0.016605
3682.6098,0.016241
3684.4735,0.016447
3686.3371,0.016693
3688.2008,0.016964
3690.0645,0.017672
3691.9281,0.017231
3693.7918,0.016939
3695.6555,0.017198
3697.5191,0.017335
3699.3828,0.017380
3701.2465,0.017500
3703.1101,0.017690
3704.9738,0.017412
3706.8375,0.017330
3708.7011,0.017507
3710.5648,0.017893
3712.4285,0.018814
3714.2922,0.018256
3716.1558,0.017097
3718.0195,0.017129
3719.8832,0.017757
3721.7468,0.017941
3723.6105,0.017182
3725.4742,0.016839
3727.3378,0.017260
3729.2015,0.017201
3731.0652,0.016945
3732.9288,0.017256
3734.7925,0.017594
3736.6562,0.018036
3738.5199,0.018377
3740.3835,0.017599
3742.2472,0.016767
3744.1109,0.016580
3745.9745,0.017839
3747.8382,0.018259
3749.7019,0.017672
3751.5655,0.018372
3753.4292,0.019146
3755.2929,0.018887
3757.1565,0.018970
3759.0202,0.019085
3760.8839,0.018975
3762.7475,0.018662
3764.6112,0.018551
3766.4749,0.018986
3768.3386,0.018801
3770.2022,0.018682
3772.0659,0.019370
3773.9296,0.020004
3775.7932,0.019928
3777.6569,0.019646
3779.5206,0.020049
3781.3842,0.020535
3783.2479,0.020104
3785.1116,0.019768
3786.9752,0.019733
3788.8389,0.019960
3790.7026,0.019519
3792.5662,0.018867
3794.4299,0.019088
3796.2936,0.019188
3798.1573,0.018932
3800.0209,0.018952
3801.8846,0.019558
3803.7483,0.020247
3805.6119,0.019462
3807.4756,0.019238
3809.3393,0.020253
3811.2029,0.020390
3813.0666,0.019650
3814.9303,0.019288
3816.7939,0.019493
3818.6576,0.020143
3820.5213,0.020941
3822.3850,0.021639
3824.2486,0.021510
3826.1123,0.020418
3827.9760,0.019759
3829.8396,0.019841
3831.7033,0.019557
3833.5670,0.019203
3835.4306,0.019207
3837.2943,0.019658
3839.1580,0.020902
3841.0216,0.021724
3842.8853,0.020925
3844.7490,0.020453
3846.6126,0.020384
3848.4763,0.020005
3850.3400,0.019635
3852.2037,0.019558
3854.0673,0.020196
3855.9310,0.022125
3857.7947,0.021699
3859.6583,0.020109
3861.5220,0.019669
3863.3857,0.020044
3865.2493,0.020460
3867.1130,0.021275
3868.9767,0.021066
3870.8403,0.021105
3872.7040,0.021741
3874.5677,0.021205
3876.4314,0.020816
3878.2950,0.020800
3880.1587,0.020973
3882.0224,0.021703
3883.8860,0.021694
3885.7497,0.021374
3887.6134,0.021166
3889.4770,0.020538
3891.3407,0.020703
3893.2044,0.021702
3895.0680,0.021437
3896.9317,0.020831
3898.7954,0.021242
3900.6590,0.021545
3902.5227,0.021850
3904.3864,0.022173
3906.2501,0.022312
3908.1137,0.022321
3909.9774,0.022089
3911.8411,0.021835
3913.7047,0.021560
3915.5684,0.021467
3917.4321,0.021600
3919.2957,0.022138
3921.1594,0.022160
3923.0231,0.021484
3924.8867,0.021316
3926.7504,0.021624
3928.6141,0.021701
3930.4777,0.021999
3932.3414,0.022694
3934.2051,0.023104
3936.0688,0.022517
3937.9324,0.021914
3939.7961,0.022182
3941.6598,0.022406
3943.5234,0.022051
3945.3871,0.022037
3947.2508,0.022382
3949.1144,0.022875
3950.9781,0.023006
3952.8418,0.022589
3954.7054,0.022480
3956.5691,0.022758
3958.4328,0.022438
3960.2965,0.021937
3962.1601,0.022342
3964.0238,0.022660
3965.8875,0.022541
3967.7511,0.022594
3969.6148,0.022561
3971.4785,0.022575
3973.3421,0.022684
3975.2058,0.022271
3977.0695,0.022126
3978.9331,0.022553
3980.7968,0.022750
3982.6605,0.022678
3984.5241,0.022547
3986.3878,0.022463
3988.2515,0.022361
3990.1152,0.022545
3991.9788,0.023009
3993.8425,0.023107
3995.7062,0.022863
3997.5698,0.022929
3999.4335,0.022825
