Wavenumber,Intensity
650.4205,0.181838
652.2841,0.176928
654.1478,0.176046
656.0115,0.175807
657.8751,0.174972
659.7388,0.170893
661.6025,0.171331
663.4661,0.170214
665.3298,0.166394
667.1935,0.165430
669.0571,0.168091
670.9208,0.166804
672.7845,0.165199
674.6481,0.164799
676.5118,0.165267
678.3755,0.164411
680.2392,0.164049
682.1028,0.163060
683.9665,0.164931
685.8302,0.164198
687.6938,0.163045
689.5575,0.163452
691.4212,0.164003
693.2848,0.163884
695.1485,0.165028
697.0122,0.166409
698.8758,0.167592
700.7395,0.168006
702.6032,0.168579
704.4669,0.167810
706.3305,0.166033
708.1942,0.162791
710.0579,0.159262
711.9215,0.154118
713.7852,0.149923
715.6489,0.146710
717.5125,0.142224
719.3762,0.137307
721.2399,0.133777
723.1035,0.130870
724.9672,0.127808
726.8309,0.124261
728.6945,0.121218
730.5582,0.119081
732.4219,0.118152
734.2856,0.116427
736.1492,0.114541
738.0129,0.113706
739.8766,0.113774
741.7402,0.114613
743.6039,0.116333
745.4676,0.117866
747.3312,0.118709
749.1949,0.119681
751.0586,0.121085
752.9222,0.122048
754.7859,0.122813
756.6496,0.123473
758.5132,0.123738
760.3769,0.123611
762.2406,0.123180
764.1043,0.122091
765.9679,0.120947
767.8316,0.119140
769.6953,0.116579
771.5589,0.113614
773.4226,0.110991
775.2863,0.108457
777.1499,0.106490
779.0136,0.105343
780.8773,0.104512
782.7409,0.103474
784.6046,0.102921
786.4683,0.102728
788.3320,0.102616
790.1956,0.102654
792.0593,0.102716
793.9230,0.102901
795.7866,0.103058
797.6503,0.102925
799.5140,0.102463
801.3776,0.102158
803.2413,0.102112
805.1050,0.101723
806.9686,0.101166
808.8323,0.100133
810.6960,0.099015
812.5596,0.098344
814.4233,0.097773
816.2870,0.097044
818.1507,0.096544
820.0143,0.096012
821.8780,0.095889
823.7417,0.096013
825.6053,0.096839
827.4690,0.098580
829.3327,0.100413
831.1963,0.100033
833.0600,0.097415
834.9237,0.095179
836.7873,0.094709
838.6510,0.095124
840.5147,0.095976
842.3784,0.097035
844.2420,0.098022
846.1057,0.098683
847.9694,0.099306
849.8330,0.099734
851.6967,0.100283
853.5604,0.100837
855.4240,0.101430
857.2877,0.102288
859.1514,0.102807
861.0150,0.102212
862.8787,0.100765
864.7424,0.098565
866.6060,0.096005
868.4697,0.093340
870.3334,0.090697
872.1971,0.088463
874.0607,0.086993
875.9244,0.086155
877.7881,0.085844
879.6517,0.086320
881.5154,0.087397
883.3791,0.088853
885.2427,0.090731
887.1064,0.092566
888.9701,0.094467
890.8337,0.096438
892.6974,0.098442
894.5611,0.100237
896.4247,0.102011
898.2884,0.103850
900.1521,0.105815
902.0158,0.107959
903.8794,0.110441
905.7431,0.113467
907.6068,0.117239
909.4704,0.121315
911.3341,0.125841
913.1978,0.130792
915.0614,0.134464
916.9251,0.134052
918.7888,0.130539
920.6524,0.127502
922.5161,0.126370
924.3798,0.126226
926.2435,0.126463
928.1071,0.126681
929.9708,0.126658
931.8345,0.126437
933.6981,0.126000
935.5618,0.125363
937.4255,0.124590
939.2891,0.123550
941.1528,0.122536
943.0165,0.121941
944.8801,0.122168
946.7438,0.123318
948.6075,0.125412
950.4711,0.128318
952.3348,0.132159
954.1985,0.136705
956.0622,0.141603
957.9258,0.146762
959.7895,0.152511
961.6532,0.158671
963.5168,0.165362
965.3805,0.172632
967.2442,0.180612
969.1078,0.189384
970.9715,0.198795
972.8352,0.208762
974.6988,0.220063
976.5625,0.233259
978.4262,0.249041
980.2899,0.266365
982.1535,0.276882
984.0172,0.271794
985.8809,0.262222
987.7445,0.259895
989.6082,0.262294
991.4719,0.264486
993.3355,0.265551
995.1992,0.265542
997.0629,0.264439
998.9265,0.262445
1000.7902,0.260173
1002.6539,0.257782
1004.5175,0.255745
1006.3812,0.253997
1008.2449,0.252610
1010.1086,0.251225
1011.9722,0.249407
1013.8359,0.246665
1015.6996,0.243075
1017.5632,0.238491
1019.4269,0.233109
1021.2906,0.227209
1023.1542,0.220986
1025.0179,0.214408
1026.8816,0.207898
1028.7452,0.201871
1030.6089,0.196630
1032.4726,0.191968
1034.3362,0.188342
1036.1999,0.185946
1038.0636,0.184394
1039.9273,0.183051
1041.7909,0.181542
1043.6546,0.179480
1045.5183,0.176738
1047.3819,0.172727
1049.2456,0.166837
1051.1093,0.158648
1052.9729,0.148890
1054.8366,0.139454
1056.7003,0.131666
1058.5639,0.125452
1060.4276,0.120534
1062.2913,0.116912
1064.1550,0.115104
1066.0186,0.116126
1067.8823,0.120673
1069.7460,0.128419
1071.6096,0.137843
1073.4733,0.146153
1075.3370,0.150718
1077.2006,0.151075
1079.0643,0.148510
1080.9280,0.143930
1082.7916,0.138650
1084.6553,0.133496
1086.5190,0.128673
1088.3826,0.124454
1090.2463,0.121191
1092.1100,0.119117
1093.9737,0.118337
1095.8373,0.118795
1097.7010,0.120574
1099.5647,0.123104
1101.4283,0.125479
1103.2920,0.127016
1105.1557,0.127014
1107.0193,0.125248
1108.8830,0.121848
1110.7467,0.117025
1112.6103,0.111674
1114.4740,0.106732
1116.3377,0.102586
1118.2014,0.099556
1120.0650,0.097687
1121.9287,0.096437
1123.7924,0.095466
1125.6560,0.094378
1127.5197,0.093088
1129.3834,0.091853
1131.2470,0.091024
1133.1107,0.091048
1134.9744,0.092267
1136.8380,0.094649
1138.7017,0.097805
1140.5654,0.101437
1142.4290,0.105048
1144.2927,0.108071
1146.1564,0.110080
1148.0201,0.110670
1149.8837,0.109896
1151.7474,0.107878
1153.6111,0.104784
1155.4747,0.100733
1157.3384,0.095803
1159.2021,0.090318
1161.0657,0.084570
1162.9294,0.078867
1164.7931,0.073615
1166.6567,0.068979
1168.5204,0.065034
1170.3841,0.061977
1172.2477,0.059428
1174.1114,0.056605
1175.9751,0.053468
1177.8388,0.050464
1179.7024,0.048187
1181.5661,0.046917
1183.4298,0.046426
1185.2934,0.046464
1187.1571,0.046890
1189.0208,0.047594
1190.8844,0.048485
1192.7481,0.049409
1194.6118,0.050339
1196.4754,0.051297
1198.3391,0.052138
1200.2028,0.052819
1202.0665,0.053403
1203.9301,0.053899
1205.7938,0.054212
1207.6575,0.054345
1209.5211,0.054360
1211.3848,0.054339
1213.2485,0.054387
1215.1121,0.054583
1216.9758,0.054943
1218.8395,0.055403
1220.7031,0.056010
1222.5668,0.056802
1224.4305,0.057706
1226.2941,0.058716
1228.1578,0.059664
1230.0215,0.060550
1231.8852,0.061446
1233.7488,0.062247
1235.6125,0.062875
1237.4762,0.063430
1239.3398,0.063964
1241.2035,0.064363
1243.0672,0.064583
1244.9308,0.064624
1246.7945,0.064552
1248.6582,0.064607
1250.5218,0.064728
1252.3855,0.064856
1254.2492,0.065037
1256.1129,0.065194
1257.9765,0.065419
1259.8402,0.065871
1261.7039,0.066467
1263.5675,0.066979
1265.4312,0.067408
1267.2949,0.067631
1269.1585,0.067652
1271.0222,0.067774
1272.8859,0.068097
1274.7495,0.068646
1276.6132,0.069455
1278.4769,0.070355
1280.3405,0.071329
1282.2042,0.072457
1284.0679,0.073667
1285.9316,0.074986
1287.7952,0.076473
1289.6589,0.077873
1291.5226,0.079261
1293.3862,0.080945
1295.2499,0.082864
1297.1136,0.085050
1298.9772,0.087548
1300.8409,0.090420
1302.7046,0.093366
1304.5682,0.095531
1306.4319,0.095550
1308.2956,0.092007
1310.1592,0.085379
1312.0229,0.078743
1313.8866,0.074758
1315.7503,0.073543
1317.6139,0.074114
1319.4776,0.075716
1321.3413,0.077372
1323.2049,0.078918
1325.0686,0.080672
1326.9323,0.082527
1328.7959,0.084210
1330.6596,0.085546
1332.5233,0.086448
1334.3869,0.086754
1336.2506,0.086773
1338.1143,0.087422
1339.9780,0.088665
1341.8416,0.088514
1343.7053,0.087433
1345.5690,0.087033
1347.4326,0.087129
1349.2963,0.087519
1351.1600,0.088038
1353.0236,0.088520
1354.8873,0.089338
1356.7510,0.089929
1358.6146,0.089875
1360.4783,0.090244
1362.3420,0.092157
1364.2056,0.093591
1366.0693,0.093081
1367.9330,0.093235
1369.7967,0.093977
1371.6603,0.093990
1373.5240,0.095019
1375.3877,0.096839
1377.2513,0.097175
1379.1150,0.097707
1380.9787,0.098735
1382.8423,0.099362
1384.7060,0.100047
1386.5697,0.102179
1388.4333,0.105413
1390.2970,0.106105
1392.1607,0.106139
1394.0244,0.107182
1395.8880,0.107277
1397.7517,0.104984
1399.6154,0.102381
1401.4790,0.099269
1403.3427,0.096311
1405.2064,0.093629
1407.0700,0.088870
1408.9337,0.082675
1410.7974,0.076940
1412.6610,0.072697
1414.5247,0.069881
1416.3884,0.068801
1418.2520,0.070995
1420.1157,0.075415
1421.9794,0.075657
1423.8431,0.074048
1425.7067,0.070893
1427.5704,0.066635
1429.4341,0.064084
1431.2977,0.063018
1433.1614,0.061890
1435.0251,0.061664
1436.8887,0.064139
1438.7524,0.065264
1440.6161,0.064020
1442.4797,0.063904
1444.3434,0.064080
1446.2071,0.064344
1448.0707,0.065235
1449.9344,0.065040
1451.7981,0.063251
1453.6618,0.061349
1455.5254,0.060567
1457.3891,0.064503
1459.2528,0.065965
1461.1164,0.062965
1462.9801,0.061074
1464.8438,0.060858
1466.7074,0.059706
1468.5711,0.056496
1470.4348,0.053771
1472.2984,0.053195
1474.1621,0.053904
1476.0258,0.052936
1477.8895,0.051932
1479.7531,0.050874
1481.6168,0.050382
1483.4805,0.049932
1485.3441,0.049154
1487.2078,0.049285
1489.0715,0.050789
1490.9351,0.052392
1492.7988,0.051472
1494.6625,0.050260
1496.5261,0.051605
1498.3898,0.053836
1500.2535,0.053665
1502.1171,0.052250
1503.9808,0.050665
1505.8445,0.051382
1507.7082,0.058332
1509.5718,0.058186
1511.4355,0.056218
1513.2992,0.055632
1515.1628,0.055287
1517.0265,0.056331
1518.8902,0.056928
1520.7538,0.057247
1522.6175,0.060062
1524.4812,0.059744
1526.3448,0.059671
1528.2085,0.060330
1530.0722,0.059625
1531.9359,0.059295
1533.7995,0.061034
1535.6632,0.061107
1537.5269,0.058853
1539.3905,0.060333
1541.2542,0.066897
1543.1179,0.067274
1544.9815,0.067294
1546.8452,0.067073
1548.7089,0.066534
1550.5725,0.067683
1552.4362,0.067972
1554.2999,0.067549
1556.1635,0.068069
1558.0272,0.070880
1559.8909,0.081678
1561.7546,0.078806
1563.6182,0.075713
1565.4819,0.076037
1567.3456,0.076849
1569.2092,0.078855
1571.0729,0.081509
1572.9366,0.080479
1574.8002,0.081017
1576.6639,0.086053
1578.5276,0.087950
1580.3912,0.086858
1582.2549,0.087468
1584.1186,0.088651
1585.9822,0.089739
1587.8459,0.090495
1589.7096,0.091109
1591.5733,0.091798
1593.4369,0.092386
1595.3006,0.092828
1597.1643,0.092904
1599.0279,0.092352
1600.8916,0.091843
1602.7553,0.091767
1604.6189,0.091531
1606.4826,0.090995
1608.3463,0.090792
1610.2099,0.090431
1612.0736,0.089189
1613.9373,0.087551
1615.8010,0.087076
1617.6646,0.087629
1619.5283,0.084716
1621.3920,0.081807
1623.2556,0.080813
1625.1193,0.079380
1626.9830,0.076751
1628.8466,0.074167
1630.7103,0.070430
1632.5740,0.066457
1634.4376,0.064137
1636.3013,0.064315
1638.1650,0.062637
1640.0286,0.060035
1641.8923,0.058460
1643.7560,0.057515
1645.6197,0.057919
1647.4833,0.060419
1649.3470,0.059710
1651.2107,0.057881
1653.0743,0.061952
1654.9380,0.066883
1656.8017,0.063090
1658.6653,0.061396
1660.5290,0.060986
1662.3927,0.061254
1664.2563,0.061002
1666.1200,0.058836
1667.9837,0.057598
1669.8474,0.058446
1671.7110,0.058320
1673.5747,0.057325
1675.4384,0.058349
1677.3020,0.059346
1679.1657,0.058278
1681.0294,0.058356
1682.8930,0.059609
1684.7567,0.064789
1686.6204,0.065946
1688.4840,0.063359
1690.3477,0.062324
1692.2114,0.060475
1694.0750,0.058080
1695.9387,0.056877
1697.8024,0.056116
1699.6661,0.054346
1701.5297,0.053736
1703.3934,0.050276
1705.2571,0.046924
1707.1207,0.044245
1708.9844,0.041250
1710.8481,0.038421
1712.7117,0.036145
1714.5754,0.034839
1716.4391,0.034991
1718.3027,0.036112
1720.1664,0.035669
1722.0301,0.033889
1723.8937,0.033108
1725.7574,0.032383
1727.6211,0.031072
1729.4848,0.029955
1731.3484,0.029343
1733.2121,0.029097
1735.0758,0.030736
1736.9394,0.029921
1738.8031,0.028452
1740.6668,0.028905
1742.5304,0.028645
1744.3941,0.028131
1746.2578,0.027870
1748.1214,0.027739
1749.9851,0.028172
1751.8488,0.028645
1753.7125,0.028228
1755.5761,0.027269
1757.4398,0.027469
1759.3035,0.027529
1761.1671,0.027244
1763.0308,0.027856
1764.8945,0.027460
1766.7581,0.026681
1768.6218,0.026755
1770.4855,0.026860
1772.3491,0.027511
1774.2128,0.028458
1776.0765,0.027798
1777.9401,0.027472
1779.8038,0.027265
1781.6675,0.027605
1783.5312,0.027627
1785.3948,0.027547
1787.2585,0.027392
1789.1222,0.026822
1790.9858,0.026732
1792.8495,0.027831
1794.7132,0.028126
1796.5768,0.027431
1798.4405,0.027152
1800.3042,0.027369
1802.1678,0.027828
1804.0315,0.027867
1805.8952,0.027638
1807.7589,0.027557
1809.6225,0.027617
1811.4862,0.027805
1813.3499,0.027665
1815.2135,0.027141
1817.0772,0.027084
1818.9409,0.027388
1820.8045,0.027433
1822.6682,0.027185
1824.5319,0.027044
1826.3955,0.027339
1828.2592,0.027108
1830.1229,0.027503
1831.9865,0.028003
1833.8502,0.027417
1835.7139,0.027234
1837.5776,0.027211
1839.4412,0.027022
1841.3049,0.026604
1843.1686,0.026554
1845.0322,0.027757
1846.8959,0.028237
1848.7596,0.027666
1850.6232,0.027500
1852.4869,0.027213
1854.3506,0.027325
1856.2142,0.027490
1858.0779,0.027574
1859.9416,0.027564
1861.8052,0.027550
1863.6689,0.027238
1865.5326,0.027133
1867.3963,0.027212
1869.2599,0.027677
1871.1236,0.027875
1872.9873,0.027524
1874.8509,0.027444
1876.7146,0.027425
1878.5783,0.026937
1880.4419,0.026758
1882.3056,0.027138
1884.1693,0.027531
1886.0329,0.027350
1887.8966,0.026746
1889.7603,0.026967
1891.6240,0.027380
1893.4876,0.027017
1895.3513,0.027223
1897.2150,0.027413
1899.0786,0.027024
1900.9423,0.026535
1902.8060,0.026757
1904.6696,0.027042
1906.5333,0.027088
1908.3970,0.027050
1910.2606,0.026898
1912.1243,0.026266
1913.9880,0.025834
1915.8516,0.026294
1917.7153,0.026737
1919.5790,0.026367
1921.4427,0.025595
1923.3063,0.025963
1925.1700,0.026433
1927.0337,0.025909
1928.8973,0.025307
1930.7610,0.025314
1932.6247,0.025477
1934.4883,0.025017
1936.3520,0.024938
1938.2157,0.024983
1940.0793,0.024980
1941.9430,0.024592
1943.8067,0.024117
1945.6704,0.023378
1947.5340,0.022746
1949.3977,0.022632
1951.2614,0.022769
1953.1250,0.022316
1954.9887,0.021116
1956.8524,0.020207
1958.7160,0.019714
1960.5797,0.019492
1962.4434,0.019789
1964.3070,0.019478
1966.1707,0.018368
1968.0344,0.016480
1969.8980,0.015318
1971.7617,0.015678
1973.6254,0.015272
1975.4891,0.014388
1977.3527,0.014411
1979.2164,0.015885
1981.0801,0.017806
1982.9437,0.018063
1984.8074,0.018232
1986.6711,0.018533
1988.5347,0.018574
1990.3984,0.018604
1992.2621,0.018703
1994.1257,0.019125
1995.9894,0.019050
1997.8531,0.018485
1999.7167,0.018730
2001.5804,0.018831
2003.4441,0.018757
2005.3078,0.018432
2007.1714,0.017782
2009.0351,0.017473
2010.8988,0.016545
2012.7624,0.016372
2014.6261,0.017727
2016.4898,0.017483
2018.3534,0.014805
2020.2171,0.013093
2022.0808,0.014316
2023.9444,0.016428
2025.8081,0.016530
2027.6718,0.015497
2029.5355,0.016576
2031.3991,0.016910
2033.2628,0.015695
2035.1265,0.015405
2036.9901,0.015830
2038.8538,0.018218
2040.7175,0.020067
2042.5811,0.019634
2044.4448,0.020086
2046.3085,0.021462
2048.1721,0.022133
2050.0358,0.022654
2051.8995,0.023446
2053.7631,0.023550
2055.6268,0.023890
2057.4905,0.024833
2059.3542,0.024986
2061.2178,0.025382
2063.0815,0.026023
2064.9452,0.026220
2066.8088,0.026552
2068.6725,0.027179
2070.5362,0.027311
2072.3998,0.026914
2074.2635,0.027260
2076.1272,0.027607
2077.9908,0.027811
2079.8545,0.028147
2081.7182,0.028553
2083.5819,0.028209
2085.4455,0.027768
2087.3092,0.028297
2089.1729,0.028619
2091.0365,0.028452
2092.9002,0.028291
2094.7639,0.028111
2096.6275,0.028691
2098.4912,0.029021
2100.3549,0.028532
2102.2185,0.028445
2104.0822,0.028767
2105.9459,0.028895
2107.8095,0.029117
2109.6732,0.028835
2111.5369,0.028792
2113.4006,0.028893
2115.2642,0.028898
2117.1279,0.029712
2118.9916,0.030070
2120.8552,0.029471
2122.7189,0.029130
2124.5826,0.028514
2126.4462,0.028587
2128.3099,0.028051
2130.1736,0.026765
2132.0372,0.026239
2133.9009,0.025886
2135.7646,0.025331
2137.6282,0.025559
2139.4919,0.025279
2141.3556,0.024514
2143.2193,0.023532
2145.0829,0.022740
2146.9466,0.022311
2148.8103,0.021475
2150.6739,0.020392
2152.5376,0.019173
2154.4013,0.017471
2156.2649,0.015987
2158.1286,0.014252
2159.9923,0.012948
2161.8559,0.014214
2163.7196,0.017065
2165.5833,0.019118
2167.4470,0.019943
2169.3106,0.019879
2171.1743,0.019796
2173.0380,0.019819
2174.9016,0.019757
2176.7653,0.020466
2178.6290,0.020968
2180.4926,0.020684
2182.3563,0.020390
2184.2200,0.020730
2186.0836,0.022068
2187.9473,0.023324
2189.8110,0.023819
2191.6746,0.023916
2193.5383,0.023672
2195.4020,0.024141
2197.2657,0.024818
2199.1293,0.024083
2200.9930,0.023896
2202.8567,0.025232
2204.7203,0.026359
2206.5840,0.026536
2208.4477,0.026156
2210.3113,0.025519
2212.1750,0.026105
2214.0387,0.026514
2215.9023,0.026749
2217.7660,0.027122
2219.6297,0.027537
2221.4934,0.027479
2223.3570,0.027881
2225.2207,0.028590
2227.0844,0.028539
2228.9480,0.028313
2230.8117,0.028830
2232.6754,0.028621
2234.5390,0.028524
2236.4027,0.029236
2238.2664,0.029474
2240.1300,0.029245
2241.9937,0.029565
2243.8574,0.029442
2245.7210,0.029200
2247.5847,0.030140
2249.4484,0.030987
2251.3121,0.030989
2253.1757,0.030732
2255.0394,0.031211
2256.9031,0.031757
2258.7667,0.031534
2260.6304,0.031536
2262.4941,0.031673
2264.3577,0.031969
2266.2214,0.032471
2268.0851,0.032899
2269.9487,0.033225
2271.8124,0.033369
2273.6761,0.033292
2275.5397,0.033782
2277.4034,0.034408
2279.2671,0.035023
2281.1308,0.035409
2282.9944,0.034955
2284.8581,0.034714
2286.7218,0.034898
2288.5854,0.034872
2290.4491,0.035134
2292.3128,0.035712
2294.1764,0.035903
2296.0401,0.035809
2297.9038,0.036041
2299.7674,0.035972
2301.6311,0.035973
2303.4948,0.036291
2305.3585,0.036457
2307.2221,0.036366
2309.0858,0.036281
2310.9495,0.036104
2312.8131,0.036077
2314.6768,0.036181
2316.5405,0.036380
2318.4041,0.036731
2320.2678,0.037322
2322.1315,0.037536
2323.9951,0.037725
2325.8588,0.037286
2327.7225,0.036146
2329.5861,0.035866
2331.4498,0.036368
2333.3135,0.036626
2335.1772,0.036444
2337.0408,0.036224
2338.9045,0.036370
2340.7682,0.036867
2342.6318,0.037477
2344.4955,0.037659
2346.3592,0.037699
2348.2228,0.037230
2350.0865,0.036147
2351.9502,0.035607
2353.8138,0.035722
2355.6775,0.035700
2357.5412,0.035865
2359.4049,0.036236
2361.2685,0.036683
2363.1322,0.036920
2364.9959,0.037154
2366.8595,0.037250
2368.7232,0.037590
2370.5869,0.038137
2372.4505,0.038423
2374.3142,0.038230
2376.1779,0.037871
2378.0415,0.037667
2379.9052,0.037860
2381.7689,0.038022
2383.6325,0.037908
2385.4962,0.037512
2387.3599,0.037369
2389.2236,0.037443
2391.0872,0.037495
2392.9509,0.037710
2394.8146,0.037907
2396.6782,0.037773
2398.5419,0.037589
2400.4056,0.037705
2402.2692,0.038017
2404.1329,0.037979
2405.9966,0.037953
2407.8602,0.037964
2409.7239,0.038175
2411.5876,0.038326
2413.4512,0.038394
2415.3149,0.038549
2417.1786,0.038494
2419.0423,0.038364
2420.9059,0.038412
2422.7696,0.038558
2424.6333,0.038529
2426.4969,0.038529
2428.3606,0.038793
2430.2243,0.038929
2432.0879,0.038936
2433.9516,0.038685
2435.8153,0.038900
2437.6789,0.039540
2439.5426,0.039657
2441.4063,0.039218
2443.2700,0.039426
2445.1336,0.039735
2446.9973,0.039335
2448.8610,0.039105
2450.7246,0.039596
2452.5883,0.039846
2454.4520,0.039773
2456.3156,0.039596
2458.1793,0.039461
2460.0430,0.039504
2461.9066,0.039400
2463.7703,0.039519
2465.6340,0.039863
2467.4976,0.039505
2469.3613,0.039334
2471.2250,0.039753
2473.0887,0.040247
2474.9523,0.040364
2476.8160,0.040150
2478.6797,0.040289
2480.5433,0.040711
2482.4070,0.040532
2484.2707,0.040744
2486.1343,0.040834
2487.9980,0.040333
2489.8617,0.040374
2491.7253,0.041117
2493.5890,0.041074
2495.4527,0.040776
2497.3164,0.040703
2499.1800,0.040777
2501.0437,0.040703
2502.9074,0.040773
2504.7710,0.040816
2506.6347,0.041021
2508.4984,0.041542
2510.3620,0.041713
2512.2257,0.041416
2514.0894,0.041396
2515.9530,0.041456
2517.8167,0.041634
2519.6804,0.041577
2521.5440,0.041436
2523.4077,0.041609
2525.2714,0.042082
2527.1351,0.042213
2528.9987,0.042081
2530.8624,0.042177
2532.7261,0.042106
2534.5897,0.041769
2536.4534,0.041966
2538.3171,0.042185
2540.1807,0.042284
2542.0444,0.042576
2543.9081,0.042862
2545.7717,0.042938
2547.6354,0.042905
2549.4991,0.042771
2551.3627,0.042832
2553.2264,0.042749
2555.0901,0.042815
2556.9538,0.042920
2558.8174,0.043258
2560.6811,0.043644
2562.5448,0.043801
2564.4084,0.044043
2566.2721,0.044427
2568.1358,0.044253
2569.9994,0.044285
2571.8631,0.044012
2573.7268,0.044149
2575.5904,0.044630
2577.4541,0.044777
2579.3178,0.044800
2581.1815,0.044635
2583.0451,0.044632
2584.9088,0.044841
2586.7725,0.045086
2588.6361,0.045625
2590.4998,0.045856
2592.3635,0.045835
2594.2271,0.045785
2596.0908,0.045783
2597.9545,0.045834
2599.8181,0.046217
2601.6818,0.046289
2603.5455,0.046537
2605.4091,0.046675
2607.2728,0.046497
2609.1365,0.046798
2611.0002,0.047304
2612.8638,0.047273
2614.7275,0.047152
2616.5912,0.047311
2618.4548,0.047814
2620.3185,0.048041
2622.1822,0.048294
2624.0458,0.048573
2625.9095,0.048672
2627.7732,0.048654
2629.6368,0.049083
2631.5005,0.049520
2633.3642,0.049794
2635.2279,0.049923
2637.0915,0.049717
2638.9552,0.049827
2640.8189,0.050173
2642.6825,0.050494
2644.5462,0.050666
2646.4099,0.050617
2648.2735,0.050750
2650.1372,0.050882
2652.0009,0.051024
2653.8645,0.051312
2655.7282,0.051465
2657.5919,0.051539
2659.4555,0.051625
2661.3192,0.051477
2663.1829,0.051481
2665.0466,0.051513
2666.9102,0.051544
2668.7739,0.051442
2670.6376,0.051569
2672.5012,0.051854
2674.3649,0.051855
2676.2286,0.051927
2678.0922,0.052122
2679.9559,0.052242
2681.8196,0.052485
2683.6832,0.052608
2685.5469,0.052730
2687.4106,0.053006
2689.2742,0.053265
2691.1379,0.053147
2693.0016,0.053250
2694.8653,0.053582
2696.7289,0.053699
2698.5926,0.053693
2700.4563,0.053969
2702.3199,0.054402
2704.1836,0.054741
2706.0473,0.054712
2707.9109,0.054698
2709.7746,0.055005
2711.6383,0.055413
2713.5019,0.055649
2715.3656,0.055649
2717.2293,0.055768
2719.0930,0.056096
2720.9566,0.056265
2722.8203,0.056518
2724.6840,0.056724
2726.5476,0.056879
2728.4113,0.057394
2730.2750,0.057798
2732.1386,0.057841
2734.0023,0.057938
2735.8660,0.058010
2737.7296,0.058200
2739.5933,0.058336
2741.4570,0.058596
2743.3206,0.058835
2745.1843,0.059111
2747.0480,0.059592
2748.9117,0.060042
2750.7753,0.060314
2752.6390,0.060647
2754.5027,0.060701
2756.3663,0.060932
2758.2300,0.061234
2760.0937,0.061365
2761.9573,0.061518
2763.8210,0.061993
2765.6847,0.062303
2767.5483,0.062552
2769.4120,0.062784
2771.2757,0.062955
2773.1394,0.063345
2775.0030,0.063941
2776.8667,0.064389
2778.7304,0.064616
2780.5940,0.064756
2782.4577,0.064966
2784.3214,0.064970
2786.1850,0.065067
2788.0487,0.065157
2789.9124,0.065351
2791.7760,0.065181
2793.6397,0.064723
2795.5034,0.064485
2797.3670,0.064513
2799.2307,0.064616
2801.0944,0.064677
2802.9581,0.064549
2804.8217,0.064690
2806.6854,0.064749
2808.5491,0.064607
2810.4127,0.064613
2812.2764,0.064889
2814.1401,0.065172
2816.0037,0.065390
2817.8674,0.065387
2819.7311,0.065568
2821.5947,0.065948
2823.4584,0.066343
2825.3221,0.066508
2827.1857,0.066746
2829.0494,0.066774
2830.9131,0.066698
2832.7768,0.066886
2834.6404,0.067273
2836.5041,0.067508
2838.3678,0.067909
2840.2314,0.068426
2842.0951,0.068885
2843.9588,0.068983
2845.8224,0.069242
2847.6861,0.069911
2849.5498,0.070514
2851.4134,0.070903
2853.2771,0.071528
2855.1408,0.072251
2857.0045,0.072976
2858.8681,0.073444
2860.7318,0.074131
2862.5955,0.074399
2864.4591,0.074416
2866.3228,0.074952
2868.1865,0.075739
2870.0501,0.075946
2871.9138,0.076359
2873.7775,0.077180
2875.6411,0.078127
2877.5048,0.078712
2879.3685,0.078920
2881.2321,0.079550
2883.0958,0.080328
2884.9595,0.080781
2886.8232,0.080925
2888.6868,0.080724
2890.5505,0.080880
2892.4142,0.081195
2894.2778,0.081319
2896.1415,0.081581
2898.0052,0.082053
2899.8688,0.081984
2901.7325,0.081593
2903.5962,0.081412
2905.4598,0.081686
2907.3235,0.081958
2909.1872,0.082169
2911.0509,0.082246
2912.9145,0.082807
2914.7782,0.083485
2916.6419,0.084117
2918.5055,0.084803
2920.3692,0.085428
2922.2329,0.085908
2924.0965,0.085997
2925.9602,0.085799
2927.8239,0.086185
2929.6875,0.086145
2931.5512,0.085769
2933.4149,0.085258
2935.2785,0.085116
2937.1422,0.084530
2939.0059,0.083588
2940.8696,0.082947
2942.7332,0.082502
2944.5969,0.081592
2946.4606,0.081037
2948.3242,0.080349
2950.1879,0.079784
2952.0516,0.079445
2953.9152,0.078948
2955.7789,0.078094
2957.6426,0.077575
2959.5062,0.077464
2961.3699,0.077454
2963.2336,0.077431
2965.0972,0.077463
2966.9609,0.077391
2968.8246,0.077369
2970.6883,0.077599
2972.5519,0.077969
2974.4156,0.078179
2976.2793,0.078102
2978.1429,0.078013
2980.0066,0.078352
2981.8703,0.078498
2983.7339,0.078435
2985.5976,0.078330
2987.4613,0.078358
2989.3249,0.078423
2991.1886,0.078472
2993.0523,0.078982
2994.9160,0.079821
2996.7796,0.080388
2998.6433,0.080721
3000.5070,0.081095
3002.3706,0.081181
3004.2343,0.081126
3006.0980,0.081817
3007.9616,0.082492
3009.8253,0.083232
3011.6890,0.083376
3013.5526,0.083847
3015.4163,0.084487
3017.2800,0.084876
3019.1436,0.085154
3021.0073,0.085497
3022.8710,0.085650
3024.7347,0.086114
3026.5983,0.086469
3028.4620,0.087050
3030.3257,0.087575
3032.1893,0.087722
3034.0530,0.088034
3035.9167,0.088448
3037.7803,0.088673
3039.6440,0.089165
3041.5077,0.089589
3043.3713,0.090222
3045.2350,0.090513
3047.0987,0.091118
3048.9624,0.091559
3050.8260,0.092031
3052.6897,0.092489
3054.5534,0.092748
3056.4170,0.092994
3058.2807,0.093395
3060.1444,0.093150
3062.0080,0.093528
3063.8717,0.094555
3065.7354,0.094818
3067.5990,0.094846
3069.4627,0.095366
3071.3264,0.095489
3073.1900,0.095692
3075.0537,0.096183
3076.9174,0.096705
3078.7811,0.096671
3080.6447,0.096655
3082.5084,0.096858
3084.3721,0.097121
3086.2357,0.096880
3088.0994,0.097184
3089.9631,0.097380
3091.8267,0.097282
3093.6904,0.097366
3095.5541,0.097715
3097.4177,0.097803
3099.2814,0.097705
3101.1451,0.097651
3103.0087,0.097815
3104.8724,0.097886
3106.7361,0.098162
3108.5998,0.098168
3110.4634,0.098163
3112.3271,0.098170
3114.1908,0.098417
3116.0544,0.097963
3117.9181,0.098045
3119.7818,0.098054
3121.6454,0.097773
3123.5091,0.098344
3125.3728,0.098520
3127.2364,0.098346
3129.1001,0.098981
3130.9638,0.099242
3132.8275,0.099323
3134.6911,0.099109
3136.5548,0.098926
3138.4185,0.099220
3140.2821,0.099966
3142.1458,0.099996
3144.0095,0.100119
3145.8731,0.100551
3147.7368,0.100888
3149.6005,0.100467
3151.4641,0.100687
3153.3278,0.100816
3155.1915,0.100459
3157.0551,0.100402
3158.9188,0.100899
3160.7825,0.100768
3162.6462,0.100925
3164.5098,0.101355
3166.3735,0.101603
3168.2372,0.101930
3170.1008,0.102197
3171.9645,0.101632
3173.8282,0.101249
3175.6918,0.101339
3177.5555,0.102440
3179.4192,0.102769
3181.2828,0.102710
3183.1465,0.102480
3185.0102,0.102271
3186.8739,0.102188
3188.7375,0.102984
3190.6012,0.103511
3192.4649,0.103491
3194.3285,0.102899
3196.1922,0.103010
3198.0559,0.103406
3199.9195,0.104210
3201.7832,0.104625
3203.6469,0.104326
3205.5105,0.104377
3207.3742,0.105150
3209.2379,0.105467
3211.1015,0.105302
3212.9652,0.105552
3214.8289,0.105975
3216.6926,0.106236
3218.5562,0.106172
3220.4199,0.106363
3222.2836,0.106698
3224.1472,0.106433
3226.0109,0.106786
3227.8746,0.107506
3229.7382,0.107835
3231.6019,0.107427
3233.4656,0.107779
3235.3292,0.108179
3237.1929,0.108506
3239.0566,0.108081
3240.9202,0.107733
3242.7839,0.108675
3244.6476,0.109276
3246.5113,0.108864
3248.3749,0.109457
3250.2386,0.109331
3252.1023,0.109397
3253.9659,0.109369
3255.8296,0.109467
3257.6933,0.109482
3259.5569,0.109882
3261.4206,0.109719
3263.2843,0.109547
3265.1479,0.109929
3267.0116,0.110638
3268.8753,0.110333
3270.7390,0.110116
3272.6026,0.110192
3274.4663,0.109818
3276.3300,0.109845
3278.1936,0.110041
3280.0573,0.109014
3281.9210,0.108502
3283.7846,0.109179
3285.6483,0.109619
3287.5120,0.109149
3289.3756,0.109216
3291.2393,0.108216
3293.1030,0.107445
3294.9666,0.106362
3296.8303,0.105879
3298.6940,0.106348
3300.5577,0.106027
3302.4213,0.105610
3304.2850,0.105041
3306.1487,0.104339
3308.0123,0.104337
3309.8760,0.104271
3311.7397,0.104578
3313.6033,0.104125
3315.4670,0.102538
3317.3307,0.101493
3319.1943,0.102195
3321.0580,0.102195
3322.9217,0.102456
3324.7854,0.102552
3326.6490,0.102378
3328.5127,0.101647
3330.3764,0.101537
3332.2400,0.101402
3334.1037,0.101710
3335.9674,0.101044
3337.8310,0.100974
3339.6947,0.100738
3341.5584,0.100256
3343.4220,0.099974
3345.2857,0.099443
3347.1494,0.097506
3349.0130,0.096607
3350.8767,0.096140
3352.7404,0.095376
3354.6041,0.095117
3356.4677,0.095693
3358.3314,0.094551
3360.1951,0.092480
3362.0587,0.090810
3363.9224,0.090451
3365.7861,0.090433
3367.6497,0.090842
3369.5134,0.089953
3371.3771,0.088864
3373.2407,0.088764
3375.1044,0.089307
3376.9681,0.088646
3378.8317,0.087188
3380.6954,0.085928
3382.5591,0.086556
3384.4228,0.087426
3386.2864,0.087412
3388.1501,0.086178
3390.0138,0.085326
3391.8774,0.086473
3393.7411,0.086702
3395.6048,0.085185
3397.4684,0.084617
3399.3321,0.084110
3401.1958,0.083752
3403.0594,0.082750
3404.9231,0.081829
3406.7868,0.081153
3408.6505,0.080303
3410.5141,0.078805
3412.3778,0.077292
3414.2415,0.075877
3416.1051,0.075898
3417.9688,0.075250
3419.8325,0.073416
3421.6961,0.071991
3423.5598,0.071646
3425.4235,0.071174
3427.2871,0.070612
3429.1508,0.070343
3431.0145,0.069805
3432.8781,0.067961
3434.7418,0.066527
3436.6055,0.066160
3438.4692,0.065327
3440.3328,0.063942
3442.1965,0.063678
3444.0602,0.062181
3445.9238,0.061319
3447.7875,0.062072
3449.6512,0.062138
3451.5148,0.061079
3453.3785,0.060339
3455.2422,0.059947
3457.1058,0.059491
3458.9695,0.059179
3460.8332,0.058389
3462.6969,0.057173
3464.5605,0.056086
3466.4242,0.055518
3468.2879,0.054822
3470.1515,0.053420
3472.0152,0.053322
3473.8789,0.053637
3475.7425,0.054024
3477.6062,0.053424
3479.4699,0.051853
3481.3335,0.051230
3483.1972,0.051082
3485.0609,0.050260
3486.9245,0.049567
3488.7882,0.048259
3490.6519,0.047980
3492.5156,0.047802
3494.3792,0.046461
3496.2429,0.045619
3498.1066,0.046695
3499.9702,0.045485
3501.8339,0.043191
3503.6976,0.042760
3505.5612,0.043629
3507.4249,0.043754
3509.2886,0.042565
3511.1522,0.042074
3513.0159,0.041569
3514.8796,0.041283
3516.7432,0.041528
3518.6069,0.039453
3520.4706,0.038487
3522.3343,0.038538
3524.1979,0.038562
3526.0616,0.037793
3527.9253,0.036526
3529.7889,0.036876
3531.6526,0.037592
3533.5163,0.036299
3535.3799,0.034563
3537.2436,0.033787
3539.1073,0.034133
3540.9709,0.034432
3542.8346,0.034879
3544.6983,0.033538
3546.5620,0.031639
3548.4256,0.031953
3550.2893,0.032116
3552.1530,0.031737
3554.0166,0.031598
3555.8803,0.030330
3557.7440,0.029296
3559.6076,0.028980
3561.4713,0.028775
3563.3350,0.027779
3565.1986,0.026713
3567.0623,0.026701
3568.9260,0.027950
3570.7896,0.028187
3572.6533,0.027094
3574.5170,0.026289
3576.3807,0.025350
3578.2443,0.024977
3580.1080,0.025004
3581.9717,0.024806
3583.8353,0.024343
3585.6990,0.023193
3587.5627,0.021988
3589.4263,0.022460
3591.2900,0.023332
3593.1537,0.022634
3595.0173,0.021586
3596.8810,0.021915
3598.7447,0.022195
3600.6084,0.021572
3602.4720,0.021029
3604.3357,0.021455
3606.1994,0.021421
3608.0630,0.020482
3609.9267,0.020832
3611.7904,0.021003
3613.6540,0.019669
3615.5177,0.019422
3617.3814,0.019446
3619.2450,0.018669
3621.1087,0.019442
3622.9724,0.020157
3624.8360,0.019227
3626.6997,0.018333
3628.5634,0.017863
3630.4271,0.017956
3632.2907,0.019419
3634.1544,0.019283
3636.0181,0.018907
3637.8817,0.018956
3639.7454,0.018077
3641.6091,0.017609
3643.4727,0.017495
3645.3364,0.017108
3647.2001,0.016441
3649.0637,0.016109
3650.9274,0.017856
3652.7911,0.018911
3654.6547,0.018230
3656.5184,0.017775
3658.3821,0.018100
3660.2458,0.018025
3662.1094,0.017135
3663.9731,0.016477
3665.8368,0.016723
3667.7004,0.016255
3669.5641,0.015017
3671.4278,0.015574
3673.2914,0.017222
3675.1551,0.016297
3677.0188,0.016531
3678.8824,0.018981
3680.7461,0.018451
3682.6098,0.017200
3684.4735,0.017325
3686.3371,0.017085
3688.2008,0.015735
3690.0645,0.015653
3691.9281,0.018491
3693.7918,0.019201
3695.6555,0.017935
3697.5191,0.017003
3699.3828,0.017451
3701.2465,0.017601
3703.1101,0.017234
3704.9738,0.017739
3706.8375,0.017737
3708.7011,0.017191
3710.5648,0.016977
3712.4285,0.017901
3714.2922,0.019227
3716.1558,0.018641
3718.0195,0.017795
3719.8832,0.017367
3721.7468,0.016761
3723.6105,0.016657
3725.4742,0.017565
3727.3378,0.018719
3729.2015,0.018963
3731.0652,0.017637
3732.9288,0.016099
3734.7925,0.016260
3736.6562,0.017100
3738.5199,0.017811
3740.3835,0.017737
3742.2472,0.016655
3744.1109,0.016027
3745.9745,0.016690
3747.8382,0.019050
3749.7019,0.017557
3751.5655,0.017050
3753.4292,0.020002
3755.2929,0.020254
3757.1565,0.018750
3759.0202,0.018001
3760.8839,0.019212
3762.7475,0.020632
3764.6112,0.020304
3766.4749,0.019340
3768.3386,0.019736
3770.2022,0.020170
3772.0659,0.020551
3773.9296,0.021192
3775.7932,0.020667
3777.6569,0.019890
3779.5206,0.019389
3781.3842,0.020237
3783.2479,0.020923
3785.1116,0.020156
3786.9752,0.020249
3788.8389,0.020552
3790.7026,0.019744
3792.5662,0.019397
3794.4299,0.019537
3796.2936,0.018969
3798.1573,0.018799
3800.0209,0.019020
3801.8846,0.019276
3803.7483,0.021426
3805.6119,0.022227
3807.4756,0.021305
3809.3393,0.021811
3811.2029,0.021650
3813.0666,0.020119
3814.9303,0.019212
3816.7939,0.019190
3818.6576,0.020729
3820.5213,0.020718
3822.3850,0.019923
3824.2486,0.021989
3826.1123,0.021200
3827.9760,0.019763
3829.8396,0.019865
3831.7033,0.019267
3833.5670,0.019152
3835.4306,0.019376
3837.2943,0.018766
3839.1580,0.020486
3841.0216,0.022785
3842.8853,0.022785
3844.7490,0.021555
3846.6126,0.020929
3848.4763,0.020614
3850.3400,0.019790
3852.2037,0.018684
3854.0673,0.018481
3855.9310,0.022193
3857.7947,0.023367
3859.6583,0.021440
3861.5220,0.020259
3863.3857,0.020085
3865.2493,0.020911
3867.1130,0.021840
3868.9767,0.021515
3870.8403,0.021162
3872.7040,0.022777
3874.5677,0.022289
3876.4314,0.021546
3878.2950,0.021620
3880.1587,0.020775
3882.0224,0.021334
3883.8860,0.023339
3885.7497,0.022550
3887.6134,0.022024
3889.4770,0.022820
3891.3407,0.021699
3893.2044,0.021630
3895.0680,0.022650
3896.9317,0.021543
3898.7954,0.020506
3900.6590,0.020745
3902.5227,0.022464
3904.3864,0.023944
3906.2501,0.024189
3908.1137,0.023735
3909.9774,0.022772
3911.8411,0.022163
3913.7047,0.021802
3915.5684,0.021853
3917.4321,0.022392
3919.2957,0.022898
3921.1594,0.023037
3923.0231,0.023048
3924.8867,0.022803
3926.7504,0.022854
3928.6141,0.023236
3930.4777,0.023116
3932.3414,0.022701
3934.2051,0.022820
3936.0688,0.023513
3937.9324,0.023617
3939.7961,0.022939
3941.6598,0.022676
3943.5234,0.023048
3945.3871,0.023359
3947.2508,0.023903
3949.1144,0.023876
3950.9781,0.023844
3952.8418,0.023883
3954.7054,0.023490
3956.5691,0.023071
3958.4328,0.023246
3960.2965,0.023749
3962.1601,0.023875
3964.0238,0.023922
3965.8875,0.023712
3967.7511,0.023246
3969.6148,0.023139
3971.4785,0.023553
3973.3421,0.023734
3975.2058,0.023792
3977.0695,0.023608
3978.9331,0.023908
3980.7968,0.024378
3982.6605,0.023850
3984.5241,0.023748
3986.3878,0.024447
3988.2515,0.024338
3990.1152,0.023897
3991.9788,0.023383
3993.8425,0.023407
3995.7062,0.023952
3997.5698,0.024214
3999.4335,0.024122
