Wavenumber,Intensity
650.4205,0.264177
652.2841,0.269269
654.1478,0.281706
656.0115,0.292300
657.8751,0.305755
659.7388,0.323211
661.6025,0.345108
663.4661,0.364385
665.3298,0.382666
667.1935,0.394216
669.0571,0.382547
670.9208,0.351485
672.7845,0.326787
674.6481,0.302619
676.5118,0.283194
678.3755,0.269984
680.2392,0.262987
682.1028,0.253643
683.9665,0.242245
685.8302,0.231829
687.6938,0.223464
689.5575,0.215116
691.4212,0.208088
693.2848,0.199451
695.1485,0.190284
697.0122,0.183575
698.8758,0.179618
700.7395,0.176444
702.6032,0.173105
704.4669,0.169183
706.3305,0.165356
708.1942,0.159740
710.0579,0.155263
711.9215,0.151461
713.7852,0.147389
715.6489,0.143462
717.5125,0.140218
719.3762,0.136823
721.2399,0.134096
723.1035,0.131996
724.9672,0.130107
726.8309,0.128418
728.6945,0.126692
730.5582,0.124890
732.4219,0.123751
734.2856,0.123182
736.1492,0.122702
738.0129,0.122297
739.8766,0.122764
741.7402,0.124137
743.6039,0.125895
745.4676,0.126862
747.3312,0.126948
749.1949,0.125853
751.0586,0.125091
752.9222,0.124642
754.7859,0.124298
756.6496,0.124299
758.5132,0.124438
760.3769,0.123786
762.2406,0.123179
764.1043,0.122887
765.9679,0.123376
767.8316,0.123641
769.6953,0.124114
771.5589,0.125156
773.4226,0.126345
775.2863,0.127550
777.1499,0.128963
779.0136,0.129840
780.8773,0.130014
782.7409,0.130047
784.6046,0.130294
786.4683,0.130985
788.3320,0.132023
790.1956,0.132538
792.0593,0.133088
793.9230,0.133728
795.7866,0.134598
797.6503,0.135831
799.5140,0.137302
801.3776,0.138196
803.2413,0.138799
805.1050,0.139087
806.9686,0.139673
808.8323,0.140545
810.6960,0.140837
812.5596,0.139798
814.4233,0.137924
816.2870,0.136361
818.1507,0.135540
820.0143,0.135222
821.8780,0.135642
823.7417,0.136635
825.6053,0.138037
827.4690,0.139726
829.3327,0.141479
831.1963,0.141158
833.0600,0.137599
834.9237,0.134032
836.7873,0.132783
838.6510,0.133045
840.5147,0.134228
842.3784,0.135774
844.2420,0.137556
846.1057,0.139445
847.9694,0.141222
849.8330,0.142278
851.6967,0.143006
853.5604,0.143877
855.4240,0.145025
857.2877,0.145924
859.1514,0.146572
861.0150,0.147609
862.8787,0.149014
864.7424,0.150431
866.6060,0.152278
868.4697,0.154088
870.3334,0.155806
872.1971,0.158103
874.0607,0.160620
875.9244,0.162926
877.7881,0.165201
879.6517,0.167488
881.5154,0.169926
883.3791,0.172451
885.2427,0.175071
887.1064,0.177505
888.9701,0.179778
890.8337,0.181815
892.6974,0.183923
894.5611,0.186448
896.4247,0.189244
898.2884,0.191920
900.1521,0.194899
902.0158,0.197925
903.8794,0.201353
905.7431,0.205170
907.6068,0.209592
909.4704,0.214570
911.3341,0.220194
913.1978,0.226631
915.0614,0.231993
916.9251,0.231907
918.7888,0.227004
920.6524,0.223116
922.5161,0.222873
924.3798,0.224916
926.2435,0.227857
928.1071,0.230915
929.9708,0.233920
931.8345,0.236921
933.6981,0.240005
935.5618,0.243179
937.4255,0.246467
939.2891,0.249569
941.1528,0.252704
943.0165,0.255817
944.8801,0.258723
946.7438,0.261478
948.6075,0.264585
950.4711,0.267954
952.3348,0.271491
954.1985,0.275163
956.0622,0.279080
957.9258,0.283302
959.7895,0.288108
961.6532,0.292820
963.5168,0.297819
965.3805,0.303030
967.2442,0.308580
969.1078,0.314443
970.9715,0.320694
972.8352,0.327185
974.6988,0.334840
976.5625,0.344673
978.4262,0.357923
980.2899,0.373551
982.1535,0.381444
984.0172,0.371573
985.8809,0.358906
987.7445,0.357054
989.6082,0.362388
991.4719,0.368862
993.3355,0.375180
995.1992,0.381207
997.0629,0.386919
998.9265,0.392096
1000.7902,0.396728
1002.6539,0.400938
1004.5175,0.405078
1006.3812,0.408468
1008.2449,0.410510
1010.1086,0.410142
1011.9722,0.407015
1013.8359,0.400487
1015.6996,0.390519
1017.5632,0.377442
1019.4269,0.362037
1021.2906,0.345053
1023.1542,0.328031
1025.0179,0.311960
1026.8816,0.297687
1028.7452,0.284738
1030.6089,0.272838
1032.4726,0.262038
1034.3362,0.252201
1036.1999,0.242976
1038.0636,0.234575
1039.9273,0.226970
1041.7909,0.219689
1043.6546,0.212551
1045.5183,0.205823
1047.3819,0.199081
1049.2456,0.191872
1051.1093,0.184163
1052.9729,0.176863
1054.8366,0.170964
1056.7003,0.166831
1058.5639,0.164251
1060.4276,0.162470
1062.2913,0.161052
1064.1550,0.160059
1066.0186,0.159182
1067.8823,0.158612
1069.7460,0.158878
1071.6096,0.159146
1073.4733,0.159130
1075.3370,0.159155
1077.2006,0.158909
1079.0643,0.158123
1080.9280,0.156550
1082.7916,0.154503
1084.6553,0.152482
1086.5190,0.150730
1088.3826,0.149238
1090.2463,0.147998
1092.1100,0.147367
1093.9737,0.147554
1095.8373,0.148295
1097.7010,0.149292
1099.5647,0.150361
1101.4283,0.151427
1103.2920,0.152175
1105.1557,0.152218
1107.0193,0.150820
1108.8830,0.147528
1110.7467,0.142607
1112.6103,0.136900
1114.4740,0.130917
1116.3377,0.125369
1118.2014,0.120732
1120.0650,0.117035
1121.9287,0.114130
1123.7924,0.111866
1125.6560,0.109894
1127.5197,0.107970
1129.3834,0.106142
1131.2470,0.104385
1133.1107,0.102756
1134.9744,0.101300
1136.8380,0.099981
1138.7017,0.099012
1140.5654,0.098344
1142.4290,0.097860
1144.2927,0.097562
1146.1564,0.097291
1148.0201,0.096866
1149.8837,0.096344
1151.7474,0.095754
1153.6111,0.094982
1155.4747,0.094014
1157.3384,0.092986
1159.2021,0.091789
1161.0657,0.090589
1162.9294,0.089580
1164.7931,0.088782
1166.6567,0.088324
1168.5204,0.088046
1170.3841,0.087766
1172.2477,0.087226
1174.1114,0.086000
1175.9751,0.084009
1177.8388,0.081722
1179.7024,0.079925
1181.5661,0.079038
1183.4298,0.078794
1185.2934,0.078953
1187.1571,0.079474
1189.0208,0.079959
1190.8844,0.080303
1192.7481,0.080803
1194.6118,0.081528
1196.4754,0.082345
1198.3391,0.083294
1200.2028,0.084403
1202.0665,0.085499
1203.9301,0.086210
1205.7938,0.086404
1207.6575,0.086589
1209.5211,0.087056
1211.3848,0.087861
1213.2485,0.088891
1215.1121,0.090121
1216.9758,0.091455
1218.8395,0.092566
1220.7031,0.093469
1222.5668,0.094414
1224.4305,0.095455
1226.2941,0.096268
1228.1578,0.096841
1230.0215,0.097296
1231.8852,0.097516
1233.7488,0.097656
1235.6125,0.097679
1237.4762,0.097633
1239.3398,0.097611
1241.2035,0.097460
1243.0672,0.097323
1244.9308,0.097304
1246.7945,0.097260
1248.6582,0.097103
1250.5218,0.097007
1252.3855,0.097112
1254.2492,0.097203
1256.1129,0.097093
1257.9765,0.096860
1259.8402,0.096776
1261.7039,0.096666
1263.5675,0.096452
1265.4312,0.096434
1267.2949,0.096416
1269.1585,0.096356
1271.0222,0.096535
1272.8859,0.096887
1274.7495,0.097240
1276.6132,0.097808
1278.4769,0.098687
1280.3405,0.099781
1282.2042,0.100634
1284.0679,0.101133
1285.9316,0.101657
1287.7952,0.102468
1289.6589,0.103490
1291.5226,0.104693
1293.3862,0.106209
1295.2499,0.108113
1297.1136,0.110418
1298.9772,0.112986
1300.8409,0.115998
1302.7046,0.119371
1304.5682,0.122071
1306.4319,0.122701
1308.2956,0.119348
1310.1592,0.111930
1312.0229,0.104067
1313.8866,0.098699
1315.7503,0.096228
1317.6139,0.095936
1319.4776,0.096365
1321.3413,0.096419
1323.2049,0.096679
1325.0686,0.097563
1326.9323,0.098736
1328.7959,0.100064
1330.6596,0.101485
1332.5233,0.102397
1334.3869,0.102349
1336.2506,0.102077
1338.1143,0.102746
1339.9780,0.104401
1341.8416,0.103889
1343.7053,0.102528
1345.5690,0.102171
1347.4326,0.102492
1349.2963,0.103402
1351.1600,0.104509
1353.0236,0.105679
1354.8873,0.107353
1356.7510,0.108827
1358.6146,0.109547
1360.4783,0.110779
1362.3420,0.114664
1364.2056,0.117693
1366.0693,0.117789
1367.9330,0.119427
1369.7967,0.121743
1371.6603,0.122885
1373.5240,0.126620
1375.3877,0.131353
1377.2513,0.132781
1379.1150,0.135092
1380.9787,0.138195
1382.8423,0.140680
1384.7060,0.143105
1386.5697,0.148089
1388.4333,0.153932
1390.2970,0.154557
1392.1607,0.153946
1394.0244,0.155214
1395.8880,0.155251
1397.7517,0.151867
1399.6154,0.147979
1401.4790,0.142524
1403.3427,0.138366
1405.2064,0.134690
1407.0700,0.127469
1408.9337,0.118848
1410.7974,0.111185
1412.6610,0.105124
1414.5247,0.100919
1416.3884,0.099423
1418.2520,0.102614
1420.1157,0.107493
1421.9794,0.106773
1423.8431,0.105390
1425.7067,0.101364
1427.5704,0.096862
1429.4341,0.095532
1431.2977,0.095622
1433.1614,0.094929
1435.0251,0.096263
1436.8887,0.102558
1438.7524,0.104662
1440.6161,0.103277
1442.4797,0.103636
1444.3434,0.104023
1446.2071,0.104840
1448.0707,0.106894
1449.9344,0.106365
1451.7981,0.103068
1453.6618,0.099086
1455.5254,0.097837
1457.3891,0.105183
1459.2528,0.105465
1461.1164,0.100226
1462.9801,0.098591
1464.8438,0.100963
1466.7074,0.100713
1468.5711,0.096908
1470.4348,0.094449
1472.2984,0.097029
1474.1621,0.100336
1476.0258,0.100209
1477.8895,0.099650
1479.7531,0.099706
1481.6168,0.102093
1483.4805,0.103685
1485.3441,0.104261
1487.2078,0.107608
1489.0715,0.115503
1490.9351,0.122596
1492.7988,0.120789
1494.6625,0.120071
1496.5261,0.126220
1498.3898,0.133257
1500.2535,0.133835
1502.1171,0.131742
1503.9808,0.129959
1505.8445,0.134765
1507.7082,0.155631
1509.5718,0.154049
1511.4355,0.149978
1513.2992,0.148742
1515.1628,0.148597
1517.0265,0.150819
1518.8902,0.150143
1520.7538,0.151334
1522.6175,0.155515
1524.4812,0.154202
1526.3448,0.154927
1528.2085,0.155163
1530.0722,0.152750
1531.9359,0.152101
1533.7995,0.155105
1535.6632,0.152460
1537.5269,0.148348
1539.3905,0.150351
1541.2542,0.157750
1543.1179,0.155925
1544.9815,0.153810
1546.8452,0.149436
1548.7089,0.146479
1550.5725,0.145186
1552.4362,0.142443
1554.2999,0.139949
1556.1635,0.136904
1558.0272,0.139288
1559.8909,0.150245
1561.7546,0.141034
1563.6182,0.136059
1565.4819,0.134583
1567.3456,0.133417
1569.2092,0.134722
1571.0729,0.135146
1572.9366,0.131945
1574.8002,0.131817
1576.6639,0.136566
1578.5276,0.136391
1580.3912,0.134305
1582.2549,0.134363
1584.1186,0.134941
1585.9822,0.135214
1587.8459,0.135486
1589.7096,0.136097
1591.5733,0.136863
1593.4369,0.137735
1595.3006,0.138669
1597.1643,0.139399
1599.0279,0.140167
1600.8916,0.141297
1602.7553,0.142827
1604.6189,0.144459
1606.4826,0.146419
1608.3463,0.149521
1610.2099,0.152343
1612.0736,0.153452
1613.9373,0.153864
1615.8010,0.157480
1617.6646,0.163012
1619.5283,0.161402
1621.3920,0.160173
1623.2556,0.162847
1625.1193,0.163568
1626.9830,0.161429
1628.8466,0.159103
1630.7103,0.154767
1632.5740,0.149657
1634.4376,0.146679
1636.3013,0.146134
1638.1650,0.142434
1640.0286,0.137966
1641.8923,0.134276
1643.7560,0.131335
1645.6197,0.130627
1647.4833,0.131556
1649.3470,0.128506
1651.2107,0.125959
1653.0743,0.128879
1654.9380,0.129263
1656.8017,0.123864
1658.6653,0.120060
1660.5290,0.116849
1662.3927,0.114042
1664.2563,0.109888
1666.1200,0.105202
1667.9837,0.101941
1669.8474,0.099255
1671.7110,0.095626
1673.5747,0.092735
1675.4384,0.091352
1677.3020,0.089250
1679.1657,0.087067
1681.0294,0.085287
1682.8930,0.084414
1684.7567,0.084720
1686.6204,0.081599
1688.4840,0.078143
1690.3477,0.073908
1692.2114,0.068933
1694.0750,0.064586
1695.9387,0.059673
1697.8024,0.054441
1699.6661,0.051607
1701.5297,0.046747
1703.3934,0.042834
1705.2571,0.039540
1707.1207,0.035036
1708.9844,0.031800
1710.8481,0.029295
1712.7117,0.026991
1714.5754,0.025120
1716.4391,0.023639
1718.3027,0.022825
1720.1664,0.022455
1722.0301,0.022075
1723.8937,0.021566
1725.7574,0.020780
1727.6211,0.019897
1729.4848,0.019066
1731.3484,0.018285
1733.2121,0.017848
1735.0758,0.017855
1736.9394,0.017375
1738.8031,0.017124
1740.6668,0.017336
1742.5304,0.017517
1744.3941,0.017273
1746.2578,0.016864
1748.1214,0.016573
1749.9851,0.016468
1751.8488,0.016154
1753.7125,0.015756
1755.5761,0.015490
1757.4398,0.015336
1759.3035,0.015016
1761.1671,0.014861
1763.0308,0.014862
1764.8945,0.014751
1766.7581,0.014505
1768.6218,0.014297
1770.4855,0.014005
1772.3491,0.013949
1774.2128,0.014172
1776.0765,0.014198
1777.9401,0.014181
1779.8038,0.014301
1781.6675,0.014280
1783.5312,0.014116
1785.3948,0.014199
1787.2585,0.014372
1789.1222,0.014227
1790.9858,0.014113
1792.8495,0.014356
1794.7132,0.014320
1796.5768,0.014148
1798.4405,0.014235
1800.3042,0.014424
1802.1678,0.014463
1804.0315,0.014517
1805.8952,0.014730
1807.7589,0.014728
1809.6225,0.014501
1811.4862,0.014391
1813.3499,0.014401
1815.2135,0.014345
1817.0772,0.014506
1818.9409,0.014735
1820.8045,0.014784
1822.6682,0.014855
1824.5319,0.014877
1826.3955,0.014474
1828.2592,0.014064
1830.1229,0.014182
1831.9865,0.014173
1833.8502,0.013891
1835.7139,0.013797
1837.5776,0.013697
1839.4412,0.013659
1841.3049,0.013656
1843.1686,0.013398
1845.0322,0.013255
1846.8959,0.013481
1848.7596,0.013629
1850.6232,0.013847
1852.4869,0.013871
1854.3506,0.013905
1856.2142,0.013982
1858.0779,0.013928
1859.9416,0.013938
1861.8052,0.013969
1863.6689,0.013649
1865.5326,0.013518
1867.3963,0.013545
1869.2599,0.013315
1871.1236,0.013479
1872.9873,0.013754
1874.8509,0.013742
1876.7146,0.013525
1878.5783,0.013430
1880.4419,0.013557
1882.3056,0.013231
1884.1693,0.012718
1886.0329,0.012878
1887.8966,0.013093
1889.7603,0.012731
1891.6240,0.012623
1893.4876,0.012815
1895.3513,0.013068
1897.2150,0.013352
1899.0786,0.013435
1900.9423,0.013105
1902.8060,0.012887
1904.6696,0.012864
1906.5333,0.012652
1908.3970,0.012416
1910.2606,0.012723
1912.1243,0.013409
1913.9880,0.013371
1915.8516,0.012723
1917.7153,0.012121
1919.5790,0.011672
1921.4427,0.011417
1923.3063,0.011270
1925.1700,0.011761
1927.0337,0.011635
1928.8973,0.010813
1930.7610,0.011010
1932.6247,0.011485
1934.4883,0.011561
1936.3520,0.011621
1938.2157,0.011315
1940.0793,0.011180
1941.9430,0.011167
1943.8067,0.009762
1945.6704,0.009194
1947.5340,0.009433
1949.3977,0.008603
1951.2614,0.008216
1953.1250,0.008328
1954.9887,0.008206
1956.8524,0.007541
1958.7160,0.005899
1960.5797,0.004567
1962.4434,0.005106
1964.3070,0.006279
1966.1707,0.006059
1968.0344,0.004633
1969.8980,0.003710
1971.7617,0.003767
1973.6254,0.003598
1975.4891,0.002425
1977.3527,0.001488
1979.2164,0.003216
1981.0801,0.004743
1982.9437,0.004250
1984.8074,0.004278
1986.6711,0.004534
1988.5347,0.004012
1990.3984,0.003892
1992.2621,0.004076
1994.1257,0.003791
1995.9894,0.004135
1997.8531,0.004601
1999.7167,0.004961
2001.5804,0.005796
2003.4441,0.005698
2005.3078,0.004716
2007.1714,0.004069
2009.0351,0.003931
2010.8988,0.003967
2012.7624,0.003845
2014.6261,0.002895
2016.4898,0.002066
2018.3534,0.001286
2020.2171,0.000748
2022.0808,0.001182
2023.9444,0.001075
2025.8081,0.000549
2027.6718,0.000826
2029.5355,0.000979
2031.3991,0.000364
2033.2628,0.001536
2035.1265,0.003156
2036.9901,0.003546
2038.8538,0.004161
2040.7175,0.003975
2042.5811,0.004545
2044.4448,0.006395
2046.3085,0.006755
2048.1721,0.006209
2050.0358,0.007782
2051.8995,0.009879
2053.7631,0.009769
2055.6268,0.009766
2057.4905,0.010588
2059.3542,0.011005
2061.2178,0.011161
2063.0815,0.011398
2064.9452,0.011818
2066.8088,0.011820
2068.6725,0.011611
2070.5362,0.011970
2072.3998,0.012369
2074.2635,0.012788
2076.1272,0.013283
2077.9908,0.014097
2079.8545,0.014263
2081.7182,0.013848
2083.5819,0.013972
2085.4455,0.014104
2087.3092,0.013318
2089.1729,0.013001
2091.0365,0.013739
2092.9002,0.014309
2094.7639,0.014133
2096.6275,0.013848
2098.4912,0.013797
2100.3549,0.014685
2102.2185,0.015275
2104.0822,0.014579
2105.9459,0.014745
2107.8095,0.015318
2109.6732,0.015151
2111.5369,0.015224
2113.4006,0.015276
2115.2642,0.015010
2117.1279,0.015008
2118.9916,0.015474
2120.8552,0.015314
2122.7189,0.014599
2124.5826,0.014175
2126.4462,0.013983
2128.3099,0.014236
2130.1736,0.013638
2132.0372,0.012217
2133.9009,0.011196
2135.7646,0.010497
2137.6282,0.010630
2139.4919,0.010219
2141.3556,0.008893
2143.2193,0.007873
2145.0829,0.007737
2146.9466,0.008421
2148.8103,0.008505
2150.6739,0.007175
2152.5376,0.005180
2154.4013,0.002949
2156.2649,-0.000129
2158.1286,-0.001139
2159.9923,0.000996
2161.8559,0.003125
2163.7196,0.004764
2165.5833,0.005442
2167.4470,0.005460
2169.3106,0.005203
2171.1743,0.004830
2173.0380,0.004889
2174.9016,0.005855
2176.7653,0.006481
2178.6290,0.006974
2180.4926,0.007582
2182.3563,0.008263
2184.2200,0.008718
2186.0836,0.008861
2187.9473,0.008839
2189.8110,0.009318
2191.6746,0.010180
2193.5383,0.010370
2195.4020,0.010629
2197.2657,0.010593
2199.1293,0.010570
2200.9930,0.010991
2202.8567,0.011317
2204.7203,0.011492
2206.5840,0.011329
2208.4477,0.011870
2210.3113,0.012771
2212.1750,0.013510
2214.0387,0.013075
2215.9023,0.012230
2217.7660,0.012663
2219.6297,0.013019
2221.4934,0.013409
2223.3570,0.014361
2225.2207,0.015033
2227.0844,0.015295
2228.9480,0.014723
2230.8117,0.014222
2232.6754,0.014954
2234.5390,0.015821
2236.4027,0.015396
2238.2664,0.014884
2240.1300,0.015837
2241.9937,0.016262
2243.8574,0.015959
2245.7210,0.016470
2247.5847,0.016721
2249.4484,0.016522
2251.3121,0.016740
2253.1757,0.017049
2255.0394,0.017260
2256.9031,0.017577
2258.7667,0.017925
2260.6304,0.018171
2262.4941,0.018286
2264.3577,0.018344
2266.2214,0.018640
2268.0851,0.018572
2269.9487,0.018523
2271.8124,0.019163
2273.6761,0.019995
2275.5397,0.020518
2277.4034,0.020471
2279.2671,0.020565
2281.1308,0.020952
2282.9944,0.021224
2284.8581,0.021955
2286.7218,0.022808
2288.5854,0.022762
2290.4491,0.022502
2292.3128,0.022457
2294.1764,0.022371
2296.0401,0.022510
2297.9038,0.022598
2299.7674,0.022531
2301.6311,0.022550
2303.4948,0.022581
2305.3585,0.022723
2307.2221,0.022985
2309.0858,0.022854
2310.9495,0.022180
2312.8131,0.022120
2314.6768,0.022884
2316.5405,0.023195
2318.4041,0.023180
2320.2678,0.023515
2322.1315,0.024044
2323.9951,0.024205
2325.8588,0.023743
2327.7225,0.023070
2329.5861,0.022563
2331.4498,0.022353
2333.3135,0.022441
2335.1772,0.022376
2337.0408,0.022327
2338.9045,0.022492
2340.7682,0.022833
2342.6318,0.023208
2344.4955,0.023261
2346.3592,0.023012
2348.2228,0.022782
2350.0865,0.022460
2351.9502,0.022099
2353.8138,0.021991
2355.6775,0.021937
2357.5412,0.022115
2359.4049,0.022457
2361.2685,0.022437
2363.1322,0.022203
2364.9959,0.022096
2366.8595,0.022252
2368.7232,0.022595
2370.5869,0.022996
2372.4505,0.023174
2374.3142,0.023511
2376.1779,0.023924
2378.0415,0.023988
2379.9052,0.023948
2381.7689,0.023726
2383.6325,0.023611
2385.4962,0.023825
2387.3599,0.023967
2389.2236,0.023834
2391.0872,0.023672
2392.9509,0.023774
2394.8146,0.023887
2396.6782,0.023900
2398.5419,0.023990
2400.4056,0.024172
2402.2692,0.024351
2404.1329,0.024324
2405.9966,0.024160
2407.8602,0.024234
2409.7239,0.024620
2411.5876,0.024650
2413.4512,0.024228
2415.3149,0.024358
2417.1786,0.024826
2419.0423,0.024947
2420.9059,0.025028
2422.7696,0.025178
2424.6333,0.025259
2426.4969,0.025205
2428.3606,0.024956
2430.2243,0.024854
2432.0879,0.025179
2433.9516,0.025736
2435.8153,0.025709
2437.6789,0.025394
2439.5426,0.025471
2441.4063,0.025518
2443.2700,0.025778
2445.1336,0.026095
2446.9973,0.025959
2448.8610,0.025943
2450.7246,0.026080
2452.5883,0.026106
2454.4520,0.026256
2456.3156,0.026530
2458.1793,0.026574
2460.0430,0.026429
2461.9066,0.026365
2463.7703,0.026374
2465.6340,0.026435
2467.4976,0.026257
2469.3613,0.026007
2471.2250,0.026227
2473.0887,0.026635
2474.9523,0.026750
2476.8160,0.026591
2478.6797,0.026248
2480.5433,0.026351
2482.4070,0.026896
2484.2707,0.027103
2486.1343,0.027163
2487.9980,0.027427
2489.8617,0.027739
2491.7253,0.027951
2493.5890,0.028084
2495.4527,0.028219
2497.3164,0.028141
2499.1800,0.028051
2501.0437,0.028333
2502.9074,0.028639
2504.7710,0.028719
2506.6347,0.028476
2508.4984,0.028118
2510.3620,0.028377
2512.2257,0.028872
2514.0894,0.028865
2515.9530,0.028665
2517.8167,0.028816
2519.6804,0.029163
2521.5440,0.029256
2523.4077,0.029512
2525.2714,0.029893
2527.1351,0.029788
2528.9987,0.029499
2530.8624,0.029906
2532.7261,0.030583
2534.5897,0.030509
2536.4534,0.030031
2538.3171,0.030169
2540.1807,0.030684
2542.0444,0.030489
2543.9081,0.030384
2545.7717,0.030948
2547.6354,0.031014
2549.4991,0.030684
2551.3627,0.030874
2553.2264,0.031295
2555.0901,0.031231
2556.9538,0.030981
2558.8174,0.031309
2560.6811,0.031723
2562.5448,0.031442
2564.4084,0.030902
2566.2721,0.031235
2568.1358,0.032070
2569.9994,0.032050
2571.8631,0.031929
2573.7268,0.032692
2575.5904,0.033400
2577.4541,0.033203
2579.3178,0.032895
2581.1815,0.033219
2583.0451,0.033746
2584.9088,0.034089
2586.7725,0.034069
2588.6361,0.033941
2590.4998,0.034022
2592.3635,0.034313
2594.2271,0.034584
2596.0908,0.034390
2597.9545,0.034367
2599.8181,0.035077
2601.6818,0.035563
2603.5455,0.035722
2605.4091,0.035979
2607.2728,0.035930
2609.1365,0.035717
2611.0002,0.035903
2612.8638,0.036293
2614.7275,0.036819
2616.5912,0.037197
2618.4548,0.037133
2620.3185,0.037095
2622.1822,0.037322
2624.0458,0.037755
2625.9095,0.038174
2627.7732,0.038166
2629.6368,0.038017
2631.5005,0.038146
2633.3642,0.038384
2635.2279,0.038653
2637.0915,0.039019
2638.9552,0.039266
2640.8189,0.039376
2642.6825,0.039495
2644.5462,0.039683
2646.4099,0.040019
2648.2735,0.040108
2650.1372,0.040068
2652.0009,0.040322
2653.8645,0.040367
2655.7282,0.040134
2657.5919,0.040291
2659.4555,0.040570
2661.3192,0.040596
2663.1829,0.040511
2665.0466,0.040242
2666.9102,0.040140
2668.7739,0.040255
2670.6376,0.040444
2672.5012,0.040688
2674.3649,0.040711
2676.2286,0.040737
2678.0922,0.041010
2679.9559,0.041350
2681.8196,0.041619
2683.6832,0.041880
2685.5469,0.041933
2687.4106,0.041866
2689.2742,0.042241
2691.1379,0.042627
2693.0016,0.042740
2694.8653,0.042887
2696.7289,0.043020
2698.5926,0.043173
2700.4563,0.043606
2702.3199,0.043940
2704.1836,0.044011
2706.0473,0.044159
2707.9109,0.044373
2709.7746,0.044611
2711.6383,0.045008
2713.5019,0.045326
2715.3656,0.045424
2717.2293,0.045665
2719.0930,0.045963
2720.9566,0.046207
2722.8203,0.046581
2724.6840,0.046847
2726.5476,0.047025
2728.4113,0.047286
2730.2750,0.047647
2732.1386,0.047995
2734.0023,0.048092
2735.8660,0.048164
2737.7296,0.048634
2739.5933,0.049134
2741.4570,0.049226
2743.3206,0.049253
2745.1843,0.049584
2747.0480,0.049932
2748.9117,0.050400
2750.7753,0.050917
2752.6390,0.050964
2754.5027,0.050900
2756.3663,0.051337
2758.2300,0.051815
2760.0937,0.051997
2761.9573,0.052288
2763.8210,0.052899
2765.6847,0.053283
2767.5483,0.053343
2769.4120,0.053766
2771.2757,0.054416
2773.1394,0.054721
2775.0030,0.054997
2776.8667,0.055477
2778.7304,0.055807
2780.5940,0.055869
2782.4577,0.056046
2784.3214,0.056348
2786.1850,0.056486
2788.0487,0.056422
2789.9124,0.056468
2791.7760,0.056482
2793.6397,0.056392
2795.5034,0.056318
2797.3670,0.056253
2799.2307,0.056184
2801.0944,0.056151
2802.9581,0.056169
2804.8217,0.056138
2806.6854,0.056083
2808.5491,0.056169
2810.4127,0.056425
2812.2764,0.056761
2814.1401,0.056823
2816.0037,0.056630
2817.8674,0.056720
2819.7311,0.057024
2821.5947,0.057199
2823.4584,0.057510
2825.3221,0.058009
2827.1857,0.058295
2829.0494,0.058144
2830.9131,0.058000
2832.7768,0.058175
2834.6404,0.058443
2836.5041,0.058704
2838.3678,0.059400
2840.2314,0.060256
2842.0951,0.060702
2843.9588,0.061263
2845.8224,0.061948
2847.6861,0.062428
2849.5498,0.063473
2851.4134,0.064414
2853.2771,0.064828
2855.1408,0.065313
2857.0045,0.065966
2858.8681,0.066264
2860.7318,0.066260
2862.5955,0.066423
2864.4591,0.066774
2866.3228,0.067240
2868.1865,0.067697
2870.0501,0.067844
2871.9138,0.068402
2873.7775,0.069202
2875.6411,0.069227
2877.5048,0.068865
2879.3685,0.068878
2881.2321,0.068835
2883.0958,0.068878
2884.9595,0.069260
2886.8232,0.069568
2888.6868,0.069659
2890.5505,0.069699
2892.4142,0.069958
2894.2778,0.070661
2896.1415,0.071473
2898.0052,0.072032
2899.8688,0.072407
2901.7325,0.072815
2903.5962,0.073275
2905.4598,0.073861
2907.3235,0.074273
2909.1872,0.074587
2911.0509,0.075403
2912.9145,0.076481
2914.7782,0.077052
2916.6419,0.077739
2918.5055,0.078842
2920.3692,0.079735
2922.2329,0.080230
2924.0965,0.080511
2925.9602,0.080698
2927.8239,0.081204
2929.6875,0.081641
2931.5512,0.081589
2933.4149,0.081146
2935.2785,0.080583
2937.1422,0.080052
2939.0059,0.079686
2940.8696,0.079617
2942.7332,0.079331
2944.5969,0.078724
2946.4606,0.078796
2948.3242,0.079231
2950.1879,0.079573
2952.0516,0.079805
2953.9152,0.079948
2955.7789,0.080242
2957.6426,0.080513
2959.5062,0.080300
2961.3699,0.080138
2963.2336,0.079942
2965.0972,0.079796
2966.9609,0.079665
2968.8246,0.079182
2970.6883,0.078521
2972.5519,0.078375
2974.4156,0.078350
2976.2793,0.078009
2978.1429,0.077549
2980.0066,0.077340
2981.8703,0.077279
2983.7339,0.076963
2985.5976,0.076584
2987.4613,0.076352
2989.3249,0.076055
2991.1886,0.075871
2993.0523,0.076128
2994.9160,0.076930
2996.7796,0.077456
2998.6433,0.077474
3000.5070,0.077744
3002.3706,0.078428
3004.2343,0.078991
3006.0980,0.079437
3007.9616,0.079446
3009.8253,0.079273
3011.6890,0.080331
3013.5526,0.081817
3015.4163,0.082362
3017.2800,0.082374
3019.1436,0.082609
3021.0073,0.083109
3022.8710,0.082995
3024.7347,0.083060
3026.5983,0.083941
3028.4620,0.084472
3030.3257,0.084603
3032.1893,0.085389
3034.0530,0.085883
3035.9167,0.086048
3037.7803,0.086016
3039.6440,0.086113
3041.5077,0.086444
3043.3713,0.086800
3045.2350,0.087493
3047.0987,0.088162
3048.9624,0.088415
3050.8260,0.088517
3052.6897,0.088854
3054.5534,0.089341
3056.4170,0.089493
3058.2807,0.089832
3060.1444,0.089881
3062.0080,0.089584
3063.8717,0.089472
3065.7354,0.089915
3067.5990,0.090380
3069.4627,0.090372
3071.3264,0.090165
3073.1900,0.090204
3075.0537,0.089664
3076.9174,0.089186
3078.7811,0.089697
3080.6447,0.090341
3082.5084,0.090186
3084.3721,0.090168
3086.2357,0.090133
3088.0994,0.089587
3089.9631,0.089156
3091.8267,0.089540
3093.6904,0.089370
3095.5541,0.088482
3097.4177,0.088211
3099.2814,0.088123
3101.1451,0.087914
3103.0087,0.088130
3104.8724,0.087418
3106.7361,0.086453
3108.5998,0.086597
3110.4634,0.087045
3112.3271,0.086562
3114.1908,0.086116
3116.0544,0.086186
3117.9181,0.086342
3119.7818,0.086405
3121.6454,0.086914
3123.5091,0.087333
3125.3728,0.086775
3127.2364,0.085939
3129.1001,0.085824
3130.9638,0.085831
3132.8275,0.086397
3134.6911,0.086555
3136.5548,0.086285
3138.4185,0.086405
3140.2821,0.086700
3142.1458,0.086862
3144.0095,0.087094
3145.8731,0.086996
3147.7368,0.086767
3149.6005,0.087304
3151.4641,0.088149
3153.3278,0.088415
3155.1915,0.088584
3157.0551,0.088491
3158.9188,0.088387
3160.7825,0.088520
3162.6462,0.088933
3164.5098,0.088809
3166.3735,0.088680
3168.2372,0.088817
3170.1008,0.088608
3171.9645,0.088892
3173.8282,0.089529
3175.6918,0.089669
3177.5555,0.089603
3179.4192,0.089459
3181.2828,0.089449
3183.1465,0.089595
3185.0102,0.089798
3186.8739,0.088984
3188.7375,0.088655
3190.6012,0.089281
3192.4649,0.089690
3194.3285,0.089431
3196.1922,0.089356
3198.0559,0.090175
3199.9195,0.091126
3201.7832,0.091131
3203.6469,0.090835
3205.5105,0.091175
3207.3742,0.092116
3209.2379,0.092699
3211.1015,0.092012
3212.9652,0.091275
3214.8289,0.091924
3216.6926,0.092650
3218.5562,0.093108
3220.4199,0.092977
3222.2836,0.092124
3224.1472,0.091854
3226.0109,0.092787
3227.8746,0.092733
3229.7382,0.092645
3231.6019,0.092667
3233.4656,0.093171
3235.3292,0.094009
3237.1929,0.094471
3239.0566,0.094668
3240.9202,0.094730
3242.7839,0.094979
3244.6476,0.095043
3246.5113,0.095108
3248.3749,0.095797
3250.2386,0.096109
3252.1023,0.096291
3253.9659,0.097018
3255.8296,0.098474
3257.6933,0.098367
3259.5569,0.097956
3261.4206,0.098538
3263.2843,0.099331
3265.1479,0.099375
3267.0116,0.099717
3268.8753,0.100246
3270.7390,0.099882
3272.6026,0.100370
3274.4663,0.100291
3276.3300,0.099227
3278.1936,0.098904
3280.0573,0.098564
3281.9210,0.099033
3283.7846,0.099419
3285.6483,0.098625
3287.5120,0.097274
3289.3756,0.096625
3291.2393,0.095808
3293.1030,0.095075
3294.9666,0.095410
3296.8303,0.095583
3298.6940,0.094005
3300.5577,0.092420
3302.4213,0.091310
3304.2850,0.090429
3306.1487,0.090808
3308.0123,0.091512
3309.8760,0.090721
3311.7397,0.089700
3313.6033,0.088264
3315.4670,0.087139
3317.3307,0.086660
3319.1943,0.086123
3321.0580,0.085022
3322.9217,0.084977
3324.7854,0.085166
3326.6490,0.085212
3328.5127,0.084943
3330.3764,0.084558
3332.2400,0.083928
3334.1037,0.082799
3335.9674,0.082065
3337.8310,0.082044
3339.6947,0.081322
3341.5584,0.079912
3343.4220,0.078398
3345.2857,0.077707
3347.1494,0.076913
3349.0130,0.075529
3350.8767,0.074928
3352.7404,0.074473
3354.6041,0.072590
3356.4677,0.071568
3358.3314,0.071828
3360.1951,0.071696
3362.0587,0.071028
3363.9224,0.070734
3365.7861,0.069974
3367.6497,0.069042
3369.5134,0.069081
3371.3771,0.069208
3373.2407,0.069133
3375.1044,0.068578
3376.9681,0.067405
3378.8317,0.067262
3380.6954,0.067374
3382.5591,0.067604
3384.4228,0.067322
3386.2864,0.068151
3388.1501,0.069510
3390.0138,0.068729
3391.8774,0.067433
3393.7411,0.066602
3395.6048,0.066488
3397.4684,0.067653
3399.3321,0.068489
3401.1958,0.068583
3403.0594,0.068605
3404.9231,0.067238
3406.7868,0.064662
3408.6505,0.063586
3410.5141,0.062551
3412.3778,0.061586
3414.2415,0.060679
3416.1051,0.058729
3417.9688,0.056167
3419.8325,0.055686
3421.6961,0.056670
3423.5598,0.055362
3425.4235,0.053947
3427.2871,0.053368
3429.1508,0.051355
3431.0145,0.050074
3432.8781,0.049744
3434.7418,0.049485
3436.6055,0.049246
3438.4692,0.048081
3440.3328,0.046435
3442.1965,0.045723
3444.0602,0.045839
3445.9238,0.045270
3447.7875,0.044054
3449.6512,0.044712
3451.5148,0.045996
3453.3785,0.045903
3455.2422,0.044785
3457.1058,0.044573
3458.9695,0.043843
3460.8332,0.042851
3462.6969,0.041293
3464.5605,0.040329
3466.4242,0.040355
3468.2879,0.040477
3470.1515,0.039747
3472.0152,0.039211
3473.8789,0.038407
3475.7425,0.037376
3477.6062,0.038722
3479.4699,0.038177
3481.3335,0.035756
3483.1972,0.035626
3485.0609,0.036705
3486.9245,0.037022
3488.7882,0.035292
3490.6519,0.035183
3492.5156,0.035866
3494.3792,0.035059
3496.2429,0.034656
3498.1066,0.034326
3499.9702,0.033274
3501.8339,0.032513
3503.6976,0.031628
3505.5612,0.030624
3507.4249,0.030375
3509.2886,0.031043
3511.1522,0.031386
3513.0159,0.030998
3514.8796,0.030285
3516.7432,0.030625
3518.6069,0.030450
3520.4706,0.029088
3522.3343,0.028039
3524.1979,0.027538
3526.0616,0.026583
3527.9253,0.026642
3529.7889,0.025780
3531.6526,0.025097
3533.5163,0.025903
3535.3799,0.027132
3537.2436,0.027310
3539.1073,0.026497
3540.9709,0.024771
3542.8346,0.023668
3544.6983,0.023314
3546.5620,0.022788
3548.4256,0.022246
3550.2893,0.022370
3552.1530,0.023022
3554.0166,0.024094
3555.8803,0.023524
3557.7440,0.023051
3559.6076,0.021809
3561.4713,0.020603
3563.3350,0.020490
3565.1986,0.019623
3567.0623,0.017800
3568.9260,0.016947
3570.7896,0.019231
3572.6533,0.020973
3574.5170,0.020350
3576.3807,0.019628
3578.2443,0.020007
3580.1080,0.019406
3581.9717,0.018576
3583.8353,0.018825
3585.6990,0.018454
3587.5627,0.017846
3589.4263,0.015878
3591.2900,0.016162
3593.1537,0.017025
3595.0173,0.016206
3596.8810,0.015893
3598.7447,0.018029
3600.6084,0.018472
3602.4720,0.017324
3604.3357,0.017067
3606.1994,0.017014
3608.0630,0.015585
3609.9267,0.014259
3611.7904,0.014067
3613.6540,0.014358
3615.5177,0.014891
3617.3814,0.014640
3619.2450,0.013759
3621.1087,0.014512
3622.9724,0.015195
3624.8360,0.014974
3626.6997,0.013598
3628.5634,0.011520
3630.4271,0.011280
3632.2907,0.014702
3634.1544,0.015652
3636.0181,0.015585
3637.8817,0.015984
3639.7454,0.015755
3641.6091,0.015380
3643.4727,0.014243
3645.3364,0.012808
3647.2001,0.012276
3649.0637,0.011326
3650.9274,0.011515
3652.7911,0.013382
3654.6547,0.015038
3656.5184,0.015778
3658.3821,0.016171
3660.2458,0.017174
3662.1094,0.017991
3663.9731,0.018964
3665.8368,0.020213
3667.7004,0.021269
3669.5641,0.024250
3671.4278,0.032346
3673.2914,0.042525
3675.1551,0.045093
3677.0188,0.038421
3678.8824,0.021509
3680.7461,0.012921
3682.6098,0.009311
3684.4735,0.008967
3686.3371,0.008777
3688.2008,0.008860
3690.0645,0.008665
3691.9281,0.009074
3693.7918,0.010829
3695.6555,0.011694
3697.5191,0.011474
3699.3828,0.011390
3701.2465,0.011120
3703.1101,0.010811
3704.9738,0.010873
3706.8375,0.010529
3708.7011,0.009243
3710.5648,0.007969
3712.4285,0.007866
3714.2922,0.009549
3716.1558,0.011001
3718.0195,0.010720
3719.8832,0.009896
3721.7468,0.010296
3723.6105,0.010496
3725.4742,0.010635
3727.3378,0.010421
3729.2015,0.010608
3731.0652,0.010584
3732.9288,0.009191
3734.7925,0.006785
3736.6562,0.006982
3738.5199,0.009253
3740.3835,0.011048
3742.2472,0.010423
3744.1109,0.007955
3745.9745,0.004242
3747.8382,0.005237
3749.7019,0.006114
3751.5655,0.005677
3753.4292,0.009182
3755.2929,0.011091
3757.1565,0.011333
3759.0202,0.011431
3760.8839,0.010789
3762.7475,0.010917
3764.6112,0.011680
3766.4749,0.012205
3768.3386,0.012373
3770.2022,0.012718
3772.0659,0.012745
3773.9296,0.012748
3775.7932,0.012088
3777.6569,0.012075
3779.5206,0.012400
3781.3842,0.012893
3783.2479,0.012659
3785.1116,0.012298
3786.9752,0.012300
3788.8389,0.012911
3790.7026,0.012686
3792.5662,0.012570
3794.4299,0.012857
3796.2936,0.012125
3798.1573,0.011215
3800.0209,0.011253
3801.8846,0.011010
3803.7483,0.012154
3805.6119,0.013005
3807.4756,0.012746
3809.3393,0.012700
3811.2029,0.013356
3813.0666,0.013382
3814.9303,0.012252
3816.7939,0.010449
3818.6576,0.010527
3820.5213,0.010636
3822.3850,0.009508
3824.2486,0.011782
3826.1123,0.013037
3827.9760,0.012377
3829.8396,0.012535
3831.7033,0.012170
3833.5670,0.011454
3835.4306,0.010639
3837.2943,0.010248
3839.1580,0.010076
3841.0216,0.010678
3842.8853,0.012213
3844.7490,0.013190
3846.6126,0.013453
3848.4763,0.013104
3850.3400,0.011764
3852.2037,0.009628
3854.0673,0.006231
3855.9310,0.008331
3857.7947,0.013825
3859.6583,0.014845
3861.5220,0.013812
3863.3857,0.012005
3865.2493,0.010678
3867.1130,0.011904
3868.9767,0.012491
3870.8403,0.011482
3872.7040,0.012096
3874.5677,0.013771
3876.4314,0.013866
3878.2950,0.013098
3880.1587,0.012528
3882.0224,0.012905
3883.8860,0.013275
3885.7497,0.012760
3887.6134,0.013047
3889.4770,0.014182
3891.3407,0.013509
3893.2044,0.013083
3895.0680,0.013514
3896.9317,0.013324
3898.7954,0.012508
3900.6590,0.011513
3902.5227,0.011171
3904.3864,0.012769
3906.2501,0.014485
3908.1137,0.015883
3909.9774,0.015711
3911.8411,0.014356
3913.7047,0.013438
3915.5684,0.013539
3917.4321,0.013571
3919.2957,0.013695
3921.1594,0.013437
3923.0231,0.012957
3924.8867,0.013325
3926.7504,0.013567
3928.6141,0.013883
3930.4777,0.014080
3932.3414,0.014100
3934.2051,0.014529
3936.0688,0.015005
3937.9324,0.015174
3939.7961,0.014783
3941.6598,0.014566
3943.5234,0.014897
3945.3871,0.015339
3947.2508,0.015058
3949.1144,0.014826
3950.9781,0.014809
3952.8418,0.015156
3954.7054,0.015118
3956.5691,0.014985
3958.4328,0.014586
3960.2965,0.014408
3962.1601,0.014233
3964.0238,0.015063
3965.8875,0.015454
3967.7511,0.014324
3969.6148,0.014048
3971.4785,0.014127
3973.3421,0.014409
3975.2058,0.015102
3977.0695,0.014824
3978.9331,0.014808
3980.7968,0.015462
3982.6605,0.015384
3984.5241,0.014988
3986.3878,0.015249
3988.2515,0.015595
3990.1152,0.015207
3991.9788,0.014757
3993.8425,0.014932
3995.7062,0.014627
3997.5698,0.014523
3999.4335,0.014564
