Wavenumber,Intensity
650.4205,0.129594
652.2841,0.129250
654.1478,0.131605
656.0115,0.135316
657.8751,0.138241
659.7388,0.142703
661.6025,0.149364
663.4661,0.157521
665.3298,0.162278
667.1935,0.164935
669.0571,0.161772
670.9208,0.148842
672.7845,0.137322
674.6481,0.126818
676.5118,0.119583
678.3755,0.113953
680.2392,0.111761
682.1028,0.109802
683.9665,0.107322
685.8302,0.105713
687.6938,0.105986
689.5575,0.107636
691.4212,0.108762
693.2848,0.107410
695.1485,0.107494
697.0122,0.109092
698.8758,0.111063
700.7395,0.112647
702.6032,0.115241
704.4669,0.117991
706.3305,0.121223
708.1942,0.123619
710.0579,0.124778
711.9215,0.123974
713.7852,0.121747
715.6489,0.116256
717.5125,0.104976
719.3762,0.091664
721.2399,0.082392
723.1035,0.076599
724.9672,0.073184
726.8309,0.071269
728.6945,0.069727
730.5582,0.068055
732.4219,0.066908
734.2856,0.065939
736.1492,0.064764
738.0129,0.065088
739.8766,0.066792
741.7402,0.068892
743.6039,0.071152
745.4676,0.073933
747.3312,0.076737
749.1949,0.078798
751.0586,0.079807
752.9222,0.079027
754.7859,0.075940
756.6496,0.072961
758.5132,0.071957
760.3769,0.073003
762.2406,0.076049
764.1043,0.080071
765.9679,0.085159
767.8316,0.088859
769.6953,0.088080
771.5589,0.085264
773.4226,0.086023
775.2863,0.086329
777.1499,0.079466
779.0136,0.070470
780.8773,0.066136
782.7409,0.065141
784.6046,0.064414
786.4683,0.063889
788.3320,0.064180
790.1956,0.064501
792.0593,0.065446
793.9230,0.066965
795.7866,0.068436
797.6503,0.070396
799.5140,0.072242
801.3776,0.072744
803.2413,0.071456
805.1050,0.069986
806.9686,0.069413
808.8323,0.069295
810.6960,0.069529
812.5596,0.068655
814.4233,0.067801
816.2870,0.068443
818.1507,0.070367
820.0143,0.072914
821.8780,0.076296
823.7417,0.078183
825.6053,0.077336
827.4690,0.076759
829.3327,0.078983
831.1963,0.082018
833.0600,0.080886
834.9237,0.074065
836.7873,0.066549
838.6510,0.063121
840.5147,0.064561
842.3784,0.069371
844.2420,0.075811
846.1057,0.080604
847.9694,0.079240
849.8330,0.071918
851.6967,0.063386
853.5604,0.057268
855.4240,0.053877
857.2877,0.052269
859.1514,0.051429
861.0150,0.050784
862.8787,0.050654
864.7424,0.050812
866.6060,0.051387
868.4697,0.052194
870.3334,0.052934
872.1971,0.053300
874.0607,0.053322
875.9244,0.053277
877.7881,0.053296
879.6517,0.053596
881.5154,0.054315
883.3791,0.055493
885.2427,0.057519
887.1064,0.060088
888.9701,0.061691
890.8337,0.061249
892.6974,0.060089
894.5611,0.060140
896.4247,0.062171
898.2884,0.065415
900.1521,0.068147
902.0158,0.068796
903.8794,0.067121
905.7431,0.065417
907.6068,0.066479
909.4704,0.070186
911.3341,0.075413
913.1978,0.081559
915.0614,0.086413
916.9251,0.086021
918.7888,0.081646
920.6524,0.078263
922.5161,0.076954
924.3798,0.075106
926.2435,0.071332
928.1071,0.067218
929.9708,0.064633
931.8345,0.063437
933.6981,0.063024
935.5618,0.063902
937.4255,0.066587
939.2891,0.070849
941.1528,0.076450
943.0165,0.081170
944.8801,0.082075
946.7438,0.080248
948.6075,0.077143
950.4711,0.072910
952.3348,0.069972
954.1985,0.069670
956.0622,0.071157
957.9258,0.073775
959.7895,0.077204
961.6532,0.080946
963.5168,0.083702
965.3805,0.084942
967.2442,0.086032
969.1078,0.087792
970.9715,0.090277
972.8352,0.093482
974.6988,0.097849
976.5625,0.103869
978.4262,0.112222
980.2899,0.122731
982.1535,0.128680
984.0172,0.121947
985.8809,0.111366
987.7445,0.107626
989.6082,0.108813
991.4719,0.110799
993.3355,0.112622
995.1992,0.114060
997.0629,0.115234
998.9265,0.116398
1000.7902,0.117452
1002.6539,0.117888
1004.5175,0.117534
1006.3812,0.116140
1008.2449,0.114044
1010.1086,0.112333
1011.9722,0.111625
1013.8359,0.111902
1015.6996,0.113139
1017.5632,0.114903
1019.4269,0.117018
1021.2906,0.119553
1023.1542,0.122554
1025.0179,0.125498
1026.8816,0.127359
1028.7452,0.127566
1030.6089,0.127060
1032.4726,0.126249
1034.3362,0.124214
1036.1999,0.120695
1038.0636,0.117078
1039.9273,0.114962
1041.7909,0.114855
1043.6546,0.115905
1045.5183,0.117108
1047.3819,0.117613
1049.2456,0.116743
1051.1093,0.114000
1052.9729,0.110094
1054.8366,0.106565
1056.7003,0.104378
1058.5639,0.104013
1060.4276,0.105037
1062.2913,0.105835
1064.1550,0.105234
1066.0186,0.102558
1067.8823,0.098662
1069.7460,0.095872
1071.6096,0.095229
1073.4733,0.095844
1075.3370,0.097020
1077.2006,0.098536
1079.0643,0.100005
1080.9280,0.101318
1082.7916,0.102718
1084.6553,0.103705
1086.5190,0.103468
1088.3826,0.102314
1090.2463,0.101560
1092.1100,0.102048
1093.9737,0.103281
1095.8373,0.105199
1097.7010,0.108089
1099.5647,0.111633
1101.4283,0.115338
1103.2920,0.118601
1105.1557,0.120554
1107.0193,0.120335
1108.8830,0.118325
1110.7467,0.115188
1112.6103,0.111411
1114.4740,0.107562
1116.3377,0.104406
1118.2014,0.102457
1120.0650,0.101774
1121.9287,0.101659
1123.7924,0.101742
1125.6560,0.101945
1127.5197,0.102147
1129.3834,0.102324
1131.2470,0.102358
1133.1107,0.101869
1134.9744,0.100708
1136.8380,0.098685
1138.7017,0.095912
1140.5654,0.093038
1142.4290,0.090658
1144.2927,0.088611
1146.1564,0.086412
1148.0201,0.083984
1149.8837,0.081757
1151.7474,0.080183
1153.6111,0.079252
1155.4747,0.078791
1157.3384,0.079016
1159.2021,0.079729
1161.0657,0.080764
1162.9294,0.082424
1164.7931,0.084516
1166.6567,0.086843
1168.5204,0.088960
1170.3841,0.090276
1172.2477,0.090948
1174.1114,0.090869
1175.9751,0.089317
1177.8388,0.086435
1179.7024,0.083728
1181.5661,0.082551
1183.4298,0.083056
1185.2934,0.084109
1187.1571,0.084200
1189.0208,0.082103
1190.8844,0.077223
1192.7481,0.070565
1194.6118,0.065012
1196.4754,0.061927
1198.3391,0.060587
1200.2028,0.060082
1202.0665,0.059864
1203.9301,0.059570
1205.7938,0.059049
1207.6575,0.058368
1209.5211,0.057823
1211.3848,0.057692
1213.2485,0.057873
1215.1121,0.058315
1216.9758,0.058988
1218.8395,0.059681
1220.7031,0.060360
1222.5668,0.061086
1224.4305,0.062138
1226.2941,0.063475
1228.1578,0.064916
1230.0215,0.066391
1231.8852,0.067715
1233.7488,0.069060
1235.6125,0.070676
1237.4762,0.072162
1239.3398,0.072713
1241.2035,0.071742
1243.0672,0.070268
1244.9308,0.069359
1246.7945,0.069224
1248.6582,0.069472
1250.5218,0.069568
1252.3855,0.069867
1254.2492,0.070771
1256.1129,0.071931
1257.9765,0.073141
1259.8402,0.074499
1261.7039,0.075993
1263.5675,0.077748
1265.4312,0.080288
1267.2949,0.083344
1269.1585,0.085938
1271.0222,0.086079
1272.8859,0.083152
1274.7495,0.080232
1276.6132,0.079659
1278.4769,0.081119
1280.3405,0.083674
1282.2042,0.086434
1284.0679,0.089475
1285.9316,0.093138
1287.7952,0.098086
1289.6589,0.104184
1291.5226,0.111146
1293.3862,0.118229
1295.2499,0.122816
1297.1136,0.122225
1298.9772,0.118250
1300.8409,0.116205
1302.7046,0.118922
1304.5682,0.124882
1306.4319,0.130652
1308.2956,0.132540
1310.1592,0.129630
1312.0229,0.125628
1313.8866,0.122676
1315.7503,0.120610
1317.6139,0.119862
1319.4776,0.119484
1321.3413,0.119116
1323.2049,0.121067
1325.0686,0.126716
1326.9323,0.133307
1328.7959,0.136072
1330.6596,0.131652
1332.5233,0.123079
1334.3869,0.116699
1336.2506,0.115866
1338.1143,0.119922
1339.9780,0.125910
1341.8416,0.127434
1343.7053,0.126105
1345.5690,0.126545
1347.4326,0.130016
1349.2963,0.133618
1351.1600,0.133222
1353.0236,0.130205
1354.8873,0.129736
1356.7510,0.131566
1358.6146,0.131709
1360.4783,0.129682
1362.3420,0.128025
1364.2056,0.124572
1366.0693,0.121189
1367.9330,0.123249
1369.7967,0.129804
1371.6603,0.133840
1373.5240,0.135182
1375.3877,0.134186
1377.2513,0.135006
1379.1150,0.142597
1380.9787,0.153920
1382.8423,0.163998
1384.7060,0.171925
1386.5697,0.178311
1388.4333,0.181153
1390.2970,0.181120
1392.1607,0.183296
1394.0244,0.187970
1395.8880,0.189853
1397.7517,0.183363
1399.6154,0.174911
1401.4790,0.168392
1403.3427,0.165373
1405.2064,0.161750
1407.0700,0.152728
1408.9337,0.141312
1410.7974,0.130335
1412.6610,0.120707
1414.5247,0.112564
1416.3884,0.105951
1418.2520,0.102014
1420.1157,0.099684
1421.9794,0.096169
1423.8431,0.092069
1425.7067,0.084941
1427.5704,0.078125
1429.4341,0.073885
1431.2977,0.072029
1433.1614,0.071984
1435.0251,0.075083
1436.8887,0.083835
1438.7524,0.087081
1440.6161,0.084258
1442.4797,0.082548
1444.3434,0.082161
1446.2071,0.083899
1448.0707,0.088361
1449.9344,0.091649
1451.7981,0.092815
1453.6618,0.092975
1455.5254,0.093440
1457.3891,0.099237
1459.2528,0.099038
1461.1164,0.095467
1462.9801,0.095908
1464.8438,0.101242
1466.7074,0.104313
1468.5711,0.102645
1470.4348,0.101638
1472.2984,0.103348
1474.1621,0.102098
1476.0258,0.098874
1477.8895,0.096845
1479.7531,0.097137
1481.6168,0.100795
1483.4805,0.104348
1485.3441,0.107044
1487.2078,0.112284
1489.0715,0.122115
1490.9351,0.131582
1492.7988,0.132224
1494.6625,0.133485
1496.5261,0.141722
1498.3898,0.151361
1500.2535,0.155056
1502.1171,0.155571
1503.9808,0.155326
1505.8445,0.160221
1507.7082,0.176945
1509.5718,0.172680
1511.4355,0.166467
1513.2992,0.160646
1515.1628,0.154318
1517.0265,0.146627
1518.8902,0.136276
1520.7538,0.129023
1522.6175,0.118617
1524.4812,0.110248
1526.3448,0.104737
1528.2085,0.099466
1530.0722,0.095155
1531.9359,0.093938
1533.7995,0.096055
1535.6632,0.095178
1537.5269,0.093566
1539.3905,0.099088
1541.2542,0.115252
1543.1179,0.120804
1544.9815,0.126462
1546.8452,0.130910
1548.7089,0.135802
1550.5725,0.145777
1552.4362,0.152783
1554.2999,0.158096
1556.1635,0.163625
1558.0272,0.174197
1559.8909,0.203504
1561.7546,0.194408
1563.6182,0.189745
1565.4819,0.192030
1567.3456,0.194590
1569.2092,0.199636
1571.0729,0.204438
1572.9366,0.202534
1574.8002,0.203306
1576.6639,0.209527
1578.5276,0.210385
1580.3912,0.207801
1582.2549,0.206030
1584.1186,0.202697
1585.9822,0.197067
1587.8459,0.189326
1589.7096,0.180790
1591.5733,0.172105
1593.4369,0.164770
1595.3006,0.159019
1597.1643,0.155334
1599.0279,0.153561
1600.8916,0.153765
1602.7553,0.155049
1604.6189,0.156467
1606.4826,0.156322
1608.3463,0.154370
1610.2099,0.148945
1612.0736,0.141198
1613.9373,0.132610
1615.8010,0.124789
1617.6646,0.116075
1619.5283,0.110552
1621.3920,0.106916
1623.2556,0.103215
1625.1193,0.098501
1626.9830,0.093897
1628.8466,0.087821
1630.7103,0.081470
1632.5740,0.075692
1634.4376,0.070057
1636.3013,0.062366
1638.1650,0.056946
1640.0286,0.053760
1641.8923,0.050393
1643.7560,0.047207
1645.6197,0.045169
1647.4833,0.043605
1649.3470,0.042287
1651.2107,0.041692
1653.0743,0.042892
1654.9380,0.044028
1656.8017,0.043361
1658.6653,0.043002
1660.5290,0.042971
1662.3927,0.042943
1664.2563,0.042171
1666.1200,0.040744
1667.9837,0.039596
1669.8474,0.038770
1671.7110,0.038253
1673.5747,0.038186
1675.4384,0.038765
1677.3020,0.038812
1679.1657,0.038840
1681.0294,0.039579
1682.8930,0.040564
1684.7567,0.042975
1686.6204,0.043520
1688.4840,0.042705
1690.3477,0.041933
1692.2114,0.040617
1694.0750,0.039060
1695.9387,0.037583
1697.8024,0.035900
1699.6661,0.034831
1701.5297,0.032595
1703.3934,0.030309
1705.2571,0.028297
1707.1207,0.025802
1708.9844,0.023749
1710.8481,0.022025
1712.7117,0.020552
1714.5754,0.019489
1716.4391,0.018796
1718.3027,0.018639
1720.1664,0.018383
1722.0301,0.017952
1723.8937,0.017445
1725.7574,0.016754
1727.6211,0.015933
1729.4848,0.015130
1731.3484,0.014506
1733.2121,0.014241
1735.0758,0.014351
1736.9394,0.013919
1738.8031,0.013590
1740.6668,0.013601
1742.5304,0.013448
1744.3941,0.013130
1746.2578,0.012858
1748.1214,0.012668
1749.9851,0.012546
1751.8488,0.012481
1753.7125,0.012385
1755.5761,0.012181
1757.4398,0.011920
1759.3035,0.011716
1761.1671,0.011618
1763.0308,0.011607
1764.8945,0.011422
1766.7581,0.011213
1768.6218,0.011157
1770.4855,0.011006
1772.3491,0.010909
1774.2128,0.010973
1776.0765,0.010954
1777.9401,0.010882
1779.8038,0.010763
1781.6675,0.010705
1783.5312,0.010594
1785.3948,0.010738
1787.2585,0.010730
1789.1222,0.010472
1790.9858,0.010614
1792.8495,0.011011
1794.7132,0.010852
1796.5768,0.010620
1798.4405,0.010603
1800.3042,0.010880
1802.1678,0.011099
1804.0315,0.011009
1805.8952,0.010597
1807.7589,0.010412
1809.6225,0.010535
1811.4862,0.010550
1813.3499,0.010593
1815.2135,0.010631
1817.0772,0.010466
1818.9409,0.010472
1820.8045,0.010648
1822.6682,0.010652
1824.5319,0.010529
1826.3955,0.010518
1828.2592,0.010416
1830.1229,0.010237
1831.9865,0.010200
1833.8502,0.010227
1835.7139,0.010324
1837.5776,0.010621
1839.4412,0.010618
1841.3049,0.010449
1843.1686,0.010365
1845.0322,0.010242
1846.8959,0.010192
1848.7596,0.010241
1850.6232,0.010274
1852.4869,0.010438
1854.3506,0.010299
1856.2142,0.010108
1858.0779,0.010184
1859.9416,0.010314
1861.8052,0.010289
1863.6689,0.010200
1865.5326,0.010063
1867.3963,0.009818
1869.2599,0.010002
1871.1236,0.010318
1872.9873,0.010067
1874.8509,0.010166
1876.7146,0.010247
1878.5783,0.009986
1880.4419,0.009945
1882.3056,0.009966
1884.1693,0.009936
1886.0329,0.010129
1887.8966,0.010227
1889.7603,0.010256
1891.6240,0.010431
1893.4876,0.010158
1895.3513,0.009822
1897.2150,0.009866
1899.0786,0.009762
1900.9423,0.009781
1902.8060,0.010023
1904.6696,0.010237
1906.5333,0.010407
1908.3970,0.010513
1910.2606,0.010055
1912.1243,0.009488
1913.9880,0.009564
1915.8516,0.009751
1917.7153,0.009942
1919.5790,0.010098
1921.4427,0.010147
1923.3063,0.010160
1925.1700,0.009719
1927.0337,0.009403
1928.8973,0.009432
1930.7610,0.009716
1932.6247,0.009587
1934.4883,0.009468
1936.3520,0.009539
1938.2157,0.008947
1940.0793,0.008545
1941.9430,0.009077
1943.8067,0.009762
1945.6704,0.009055
1947.5340,0.008265
1949.3977,0.008448
1951.2614,0.008553
1953.1250,0.008672
1954.9887,0.008567
1956.8524,0.008048
1958.7160,0.006707
1960.5797,0.006355
1962.4434,0.006956
1964.3070,0.007084
1966.1707,0.007552
1968.0344,0.006360
1969.8980,0.005101
1971.7617,0.005041
1973.6254,0.004190
1975.4891,0.003280
1977.3527,0.004667
1979.2164,0.006781
1981.0801,0.007273
1982.9437,0.006453
1984.8074,0.006508
1986.6711,0.008086
1988.5347,0.009526
1990.3984,0.008552
1992.2621,0.007159
1994.1257,0.007106
1995.9894,0.007148
1997.8531,0.008304
1999.7167,0.008940
2001.5804,0.007087
2003.4441,0.005762
2005.3078,0.006627
2007.1714,0.007387
2009.0351,0.007139
2010.8988,0.006776
2012.7624,0.006443
2014.6261,0.005569
2016.4898,0.005665
2018.3534,0.005271
2020.2171,0.004220
2022.0808,0.004684
2023.9444,0.005767
2025.8081,0.005752
2027.6718,0.005704
2029.5355,0.006165
2031.3991,0.007189
2033.2628,0.007514
2035.1265,0.007265
2036.9901,0.007473
2038.8538,0.008188
2040.7175,0.008433
2042.5811,0.008261
2044.4448,0.008910
2046.3085,0.010069
2048.1721,0.010232
2050.0358,0.010560
2051.8995,0.011557
2053.7631,0.012880
2055.6268,0.013515
2057.4905,0.013143
2059.3542,0.012950
2061.2178,0.013604
2063.0815,0.014173
2064.9452,0.013999
2066.8088,0.013521
2068.6725,0.014082
2070.5362,0.015438
2072.3998,0.015513
2074.2635,0.014707
2076.1272,0.015243
2077.9908,0.016812
2079.8545,0.017283
2081.7182,0.016888
2083.5819,0.016320
2085.4455,0.016206
2087.3092,0.016963
2089.1729,0.017480
2091.0365,0.017570
2092.9002,0.017868
2094.7639,0.018391
2096.6275,0.018649
2098.4912,0.018416
2100.3549,0.018255
2102.2185,0.018546
2104.0822,0.018577
2105.9459,0.018875
2107.8095,0.018963
2109.6732,0.018662
2111.5369,0.019106
2113.4006,0.019892
2115.2642,0.019756
2117.1279,0.019134
2118.9916,0.018996
2120.8552,0.019174
2122.7189,0.018957
2124.5826,0.018853
2126.4462,0.018694
2128.3099,0.018082
2130.1736,0.017459
2132.0372,0.017147
2133.9009,0.016185
2135.7646,0.015667
2137.6282,0.015720
2139.4919,0.014820
2141.3556,0.013708
2143.2193,0.013575
2145.0829,0.013495
2146.9466,0.012561
2148.8103,0.012083
2150.6739,0.011952
2152.5376,0.011190
2154.4013,0.009662
2156.2649,0.006281
2158.1286,0.005333
2159.9923,0.008055
2161.8559,0.008772
2163.7196,0.008074
2165.5833,0.007937
2167.4470,0.008047
2169.3106,0.008602
2171.1743,0.009688
2173.0380,0.009967
2174.9016,0.009267
2176.7653,0.009013
2178.6290,0.009529
2180.4926,0.009055
2182.3563,0.008768
2184.2200,0.009999
2186.0836,0.010256
2187.9473,0.010201
2189.8110,0.010302
2191.6746,0.010219
2193.5383,0.010224
2195.4020,0.010123
2197.2657,0.010699
2199.1293,0.011864
2200.9930,0.011547
2202.8567,0.010961
2204.7203,0.011565
2206.5840,0.012312
2208.4477,0.012746
2210.3113,0.012773
2212.1750,0.012833
2214.0387,0.012810
2215.9023,0.012197
2217.7660,0.011878
2219.6297,0.012189
2221.4934,0.012567
2223.3570,0.011930
2225.2207,0.011583
2227.0844,0.012614
2228.9480,0.013731
2230.8117,0.014075
2232.6754,0.013413
2234.5390,0.012952
2236.4027,0.013646
2238.2664,0.014032
2240.1300,0.014170
2241.9937,0.014309
2243.8574,0.014620
2245.7210,0.015104
2247.5847,0.015057
2249.4484,0.014568
2251.3121,0.014377
2253.1757,0.014642
2255.0394,0.015025
2256.9031,0.015290
2258.7667,0.015505
2260.6304,0.015691
2262.4941,0.016191
2264.3577,0.016353
2266.2214,0.016580
2268.0851,0.017077
2269.9487,0.016919
2271.8124,0.016640
2273.6761,0.017151
2275.5397,0.017660
2277.4034,0.017364
2279.2671,0.016930
2281.1308,0.017367
2282.9944,0.018294
2284.8581,0.019156
2286.7218,0.019325
2288.5854,0.018645
2290.4491,0.018361
2292.3128,0.018964
2294.1764,0.019317
2296.0401,0.019344
2297.9038,0.019172
2299.7674,0.019116
2301.6311,0.019256
2303.4948,0.019096
2305.3585,0.019176
2307.2221,0.019574
2309.0858,0.019699
2310.9495,0.019668
2312.8131,0.019580
2314.6768,0.019760
2316.5405,0.019776
2318.4041,0.019753
2320.2678,0.020499
2322.1315,0.021074
2323.9951,0.021149
2325.8588,0.021084
2327.7225,0.020540
2329.5861,0.020250
2331.4498,0.020392
2333.3135,0.020249
2335.1772,0.019927
2337.0408,0.019801
2338.9045,0.019958
2340.7682,0.020338
2342.6318,0.020819
2344.4955,0.021317
2346.3592,0.021142
2348.2228,0.020462
2350.0865,0.020188
2351.9502,0.020220
2353.8138,0.020207
2355.6775,0.020296
2357.5412,0.020641
2359.4049,0.020774
2361.2685,0.020644
2363.1322,0.020718
2364.9959,0.020982
2366.8595,0.021246
2368.7232,0.021367
2370.5869,0.021752
2372.4505,0.022104
2374.3142,0.022083
2376.1779,0.022187
2378.0415,0.022572
2379.9052,0.022895
2381.7689,0.023076
2383.6325,0.022967
2385.4962,0.022860
2387.3599,0.022948
2389.2236,0.023017
2391.0872,0.023169
2392.9509,0.023376
2394.8146,0.023453
2396.6782,0.023599
2398.5419,0.023765
2400.4056,0.023755
2402.2692,0.023812
2404.1329,0.024225
2405.9966,0.024598
2407.8602,0.024761
2409.7239,0.025031
2411.5876,0.025338
2413.4512,0.025251
2415.3149,0.025187
2417.1786,0.025452
2419.0423,0.025734
2420.9059,0.025876
2422.7696,0.026091
2424.6333,0.026380
2426.4969,0.026471
2428.3606,0.026357
2430.2243,0.026561
2432.0879,0.026943
2433.9516,0.027233
2435.8153,0.027435
2437.6789,0.027412
2439.5426,0.027293
2441.4063,0.027231
2443.2700,0.027445
2445.1336,0.027836
2446.9973,0.028125
2448.8610,0.028293
2450.7246,0.028189
2452.5883,0.028038
2454.4520,0.028300
2456.3156,0.028808
2458.1793,0.028785
2460.0430,0.028612
2461.9066,0.028869
2463.7703,0.029365
2465.6340,0.029470
2467.4976,0.029270
2469.3613,0.029396
2471.2250,0.029762
2473.0887,0.029942
2474.9523,0.030044
2476.8160,0.030334
2478.6797,0.030714
2480.5433,0.030928
2482.4070,0.030975
2484.2707,0.031023
2486.1343,0.031064
2487.9980,0.031323
2489.8617,0.031980
2491.7253,0.032386
2493.5890,0.032695
2495.4527,0.032897
2497.3164,0.032974
2499.1800,0.033285
2501.0437,0.033527
2502.9074,0.033564
2504.7710,0.033666
2506.6347,0.034093
2508.4984,0.034593
2510.3620,0.035163
2512.2257,0.035630
2514.0894,0.035830
2515.9530,0.035921
2517.8167,0.036334
2519.6804,0.037160
2521.5440,0.037414
2523.4077,0.037304
2525.2714,0.037588
2527.1351,0.038277
2528.9987,0.038661
2530.8624,0.038911
2532.7261,0.039486
2534.5897,0.039669
2536.4534,0.039660
2538.3171,0.040095
2540.1807,0.040319
2542.0444,0.040284
2543.9081,0.040324
2545.7717,0.040559
2547.6354,0.040860
2549.4991,0.041039
2551.3627,0.041695
2553.2264,0.042311
2555.0901,0.042229
2556.9538,0.042267
2558.8174,0.042769
2560.6811,0.043401
2562.5448,0.043844
2564.4084,0.044222
2566.2721,0.044706
2568.1358,0.044930
2569.9994,0.044804
2571.8631,0.044984
2573.7268,0.045640
2575.5904,0.045995
2577.4541,0.045995
2579.3178,0.046375
2581.1815,0.046682
2583.0451,0.046468
2584.9088,0.046445
2586.7725,0.046779
2588.6361,0.047051
2590.4998,0.047049
2592.3635,0.046990
2594.2271,0.047269
2596.0908,0.047922
2597.9545,0.048359
2599.8181,0.048597
2601.6818,0.048870
2603.5455,0.048708
2605.4091,0.048879
2607.2728,0.049627
2609.1365,0.049521
2611.0002,0.049290
2612.8638,0.049728
2614.7275,0.049919
2616.5912,0.049962
2618.4548,0.050256
2620.3185,0.050633
2622.1822,0.050940
2624.0458,0.051153
2625.9095,0.050966
2627.7732,0.050554
2629.6368,0.050470
2631.5005,0.050178
2633.3642,0.049356
2635.2279,0.048976
2637.0915,0.049174
2638.9552,0.049033
2640.8189,0.048822
2642.6825,0.048634
2644.5462,0.048188
2646.4099,0.047937
2648.2735,0.047880
2650.1372,0.047892
2652.0009,0.047801
2653.8645,0.047688
2655.7282,0.047838
2657.5919,0.048176
2659.4555,0.048398
2661.3192,0.048357
2663.1829,0.048291
2665.0466,0.048412
2666.9102,0.048761
2668.7739,0.049157
2670.6376,0.049620
2672.5012,0.050018
2674.3649,0.050381
2676.2286,0.050780
2678.0922,0.051370
2679.9559,0.052270
2681.8196,0.053083
2683.6832,0.053476
2685.5469,0.053786
2687.4106,0.054053
2689.2742,0.054070
2691.1379,0.054100
2693.0016,0.054144
2694.8653,0.054265
2696.7289,0.054518
2698.5926,0.054508
2700.4563,0.054420
2702.3199,0.054722
2704.1836,0.054919
2706.0473,0.054913
2707.9109,0.055256
2709.7746,0.055691
2711.6383,0.056005
2713.5019,0.056290
2715.3656,0.056634
2717.2293,0.056926
2719.0930,0.056863
2720.9566,0.056811
2722.8203,0.057167
2724.6840,0.057339
2726.5476,0.057375
2728.4113,0.057806
2730.2750,0.058283
2732.1386,0.058619
2734.0023,0.058948
2735.8660,0.059203
2737.7296,0.059577
2739.5933,0.059783
2741.4570,0.059687
2743.3206,0.059811
2745.1843,0.059947
2747.0480,0.060131
2748.9117,0.060564
2750.7753,0.060877
2752.6390,0.060918
2754.5027,0.060915
2756.3663,0.061422
2758.2300,0.061887
2760.0937,0.061988
2761.9573,0.062172
2763.8210,0.062604
2765.6847,0.063209
2767.5483,0.063540
2769.4120,0.063632
2771.2757,0.063906
2773.1394,0.064117
2775.0030,0.064544
2776.8667,0.065351
2778.7304,0.066019
2780.5940,0.066553
2782.4577,0.067012
2784.3214,0.067055
2786.1850,0.066941
2788.0487,0.067077
2789.9124,0.067521
2791.7760,0.067750
2793.6397,0.067728
2795.5034,0.067973
2797.3670,0.068100
2799.2307,0.068064
2801.0944,0.068383
2802.9581,0.068710
2804.8217,0.068875
2806.6854,0.068993
2808.5491,0.068963
2810.4127,0.069115
2812.2764,0.069542
2814.1401,0.069693
2816.0037,0.069822
2817.8674,0.070223
2819.7311,0.070797
2821.5947,0.071161
2823.4584,0.071397
2825.3221,0.071826
2827.1857,0.072159
2829.0494,0.072500
2830.9131,0.072862
2832.7768,0.073305
2834.6404,0.074159
2836.5041,0.074941
2838.3678,0.075716
2840.2314,0.076542
2842.0951,0.077271
2843.9588,0.078025
2845.8224,0.078924
2847.6861,0.080212
2849.5498,0.081734
2851.4134,0.082839
2853.2771,0.083713
2855.1408,0.084569
2857.0045,0.085770
2858.8681,0.087315
2860.7318,0.088738
2862.5955,0.089931
2864.4591,0.091573
2866.3228,0.093323
2868.1865,0.094549
2870.0501,0.095076
2871.9138,0.094988
2873.7775,0.094679
2875.6411,0.093977
2877.5048,0.092934
2879.3685,0.092019
2881.2321,0.091347
2883.0958,0.090979
2884.9595,0.090880
2886.8232,0.091376
2888.6868,0.092006
2890.5505,0.092570
2892.4142,0.093243
2894.2778,0.094006
2896.1415,0.094699
2898.0052,0.095078
2899.8688,0.095258
2901.7325,0.095674
2903.5962,0.096162
2905.4598,0.096491
2907.3235,0.096788
2909.1872,0.097806
2911.0509,0.098864
2912.9145,0.099205
2914.7782,0.099540
2916.6419,0.100179
2918.5055,0.100787
2920.3692,0.101501
2922.2329,0.102087
2924.0965,0.102254
2925.9602,0.102548
2927.8239,0.102808
2929.6875,0.102701
2931.5512,0.103003
2933.4149,0.103239
2935.2785,0.102734
2937.1422,0.102002
2939.0059,0.101801
2940.8696,0.101557
2942.7332,0.100883
2944.5969,0.100604
2946.4606,0.100702
2948.3242,0.100593
2950.1879,0.100772
2952.0516,0.101050
2953.9152,0.100756
2955.7789,0.100747
2957.6426,0.100947
2959.5062,0.100144
2961.3699,0.098738
2963.2336,0.097333
2965.0972,0.096466
2966.9609,0.095467
2968.8246,0.094262
2970.6883,0.092651
2972.5519,0.090633
2974.4156,0.089228
2976.2793,0.088512
2978.1429,0.087967
2980.0066,0.087360
2981.8703,0.086734
2983.7339,0.086336
2985.5976,0.085902
2987.4613,0.085137
2989.3249,0.084301
2991.1886,0.083993
2993.0523,0.083915
2994.9160,0.083758
2996.7796,0.083464
2998.6433,0.082982
3000.5070,0.082414
3002.3706,0.082089
3004.2343,0.081933
3006.0980,0.082136
3007.9616,0.082131
3009.8253,0.081686
3011.6890,0.081404
3013.5526,0.081921
3015.4163,0.082206
3017.2800,0.081965
3019.1436,0.082043
3021.0073,0.082133
3022.8710,0.082234
3024.7347,0.082498
3026.5983,0.082549
3028.4620,0.082047
3030.3257,0.081709
3032.1893,0.082186
3034.0530,0.082269
3035.9167,0.082548
3037.7803,0.082672
3039.6440,0.082253
3041.5077,0.081974
3043.3713,0.082163
3045.2350,0.082394
3047.0987,0.082267
3048.9624,0.082728
3050.8260,0.083288
3052.6897,0.082905
3054.5534,0.082323
3056.4170,0.081894
3058.2807,0.081764
3060.1444,0.081295
3062.0080,0.080860
3063.8717,0.080842
3065.7354,0.080710
3067.5990,0.080219
3069.4627,0.080005
3071.3264,0.079879
3073.1900,0.079103
3075.0537,0.077728
3076.9174,0.077039
3078.7811,0.076745
3080.6447,0.076766
3082.5084,0.076686
3084.3721,0.076089
3086.2357,0.075288
3088.0994,0.074641
3089.9631,0.074146
3091.8267,0.073348
3093.6904,0.072341
3095.5541,0.071836
3097.4177,0.071425
3099.2814,0.070787
3101.1451,0.069820
3103.0087,0.069332
3104.8724,0.068738
3106.7361,0.067739
3108.5998,0.067022
3110.4634,0.066804
3112.3271,0.066023
3114.1908,0.065575
3116.0544,0.065515
3117.9181,0.065294
3119.7818,0.065096
3121.6454,0.065169
3123.5091,0.065307
3125.3728,0.064900
3127.2364,0.063636
3129.1001,0.062552
3130.9638,0.061923
3132.8275,0.061800
3134.6911,0.061336
3136.5548,0.060362
3138.4185,0.059793
3140.2821,0.059966
3142.1458,0.059871
3144.0095,0.059115
3145.8731,0.058430
3147.7368,0.058092
3149.6005,0.057040
3151.4641,0.056482
3153.3278,0.056842
3155.1915,0.057027
3157.0551,0.055952
3158.9188,0.054485
3160.7825,0.053343
3162.6462,0.052839
3164.5098,0.052243
3166.3735,0.051278
3168.2372,0.050365
3170.1008,0.050231
3171.9645,0.049956
3173.8282,0.049391
3175.6918,0.048804
3177.5555,0.048003
3179.4192,0.047453
3181.2828,0.047070
3183.1465,0.046435
3185.0102,0.045668
3186.8739,0.045024
3188.7375,0.044756
3190.6012,0.044739
3192.4649,0.044976
3194.3285,0.044644
3196.1922,0.043714
3198.0559,0.043000
3199.9195,0.043159
3201.7832,0.043128
3203.6469,0.042626
3205.5105,0.042541
3207.3742,0.042896
3209.2379,0.042674
3211.1015,0.042121
3212.9652,0.041974
3214.8289,0.042140
3216.6926,0.041597
3218.5562,0.041282
3220.4199,0.041805
3222.2836,0.041004
3224.1472,0.040246
3226.0109,0.041105
3227.8746,0.040976
3229.7382,0.040537
3231.6019,0.040652
3233.4656,0.041170
3235.3292,0.041629
3237.1929,0.041347
3239.0566,0.041179
3240.9202,0.041615
3242.7839,0.041413
3244.6476,0.041487
3246.5113,0.041286
3248.3749,0.041071
3250.2386,0.041184
3252.1023,0.040923
3253.9659,0.040750
3255.8296,0.041707
3257.6933,0.042173
3259.5569,0.042483
3261.4206,0.042542
3263.2843,0.041664
3265.1479,0.041245
3267.0116,0.041229
3268.8753,0.041428
3270.7390,0.041796
3272.6026,0.041335
3274.4663,0.041580
3276.3300,0.041869
3278.1936,0.041602
3280.0573,0.041695
3281.9210,0.041510
3283.7846,0.041401
3285.6483,0.041346
3287.5120,0.040973
3289.3756,0.041358
3291.2393,0.041216
3293.1030,0.040917
3294.9666,0.040227
3296.8303,0.038988
3298.6940,0.039293
3300.5577,0.039732
3302.4213,0.038320
3304.2850,0.037910
3306.1487,0.038438
3308.0123,0.038031
3309.8760,0.036955
3311.7397,0.036975
3313.6033,0.036896
3315.4670,0.036193
3317.3307,0.036108
3319.1943,0.036573
3321.0580,0.036592
3322.9217,0.036869
3324.7854,0.037410
3326.6490,0.037287
3328.5127,0.036975
3330.3764,0.036785
3332.2400,0.035791
3334.1037,0.035864
3335.9674,0.035737
3337.8310,0.035604
3339.6947,0.036468
3341.5584,0.036264
3343.4220,0.035000
3345.2857,0.034547
3347.1494,0.034763
3349.0130,0.034210
3350.8767,0.032644
3352.7404,0.031692
3354.6041,0.031293
3356.4677,0.031606
3358.3314,0.032178
3360.1951,0.031717
3362.0587,0.030820
3363.9224,0.029636
3365.7861,0.028456
3367.6497,0.028732
3369.5134,0.028880
3371.3771,0.028978
3373.2407,0.028608
3375.1044,0.028595
3376.9681,0.028605
3378.8317,0.028401
3380.6954,0.028521
3382.5591,0.028684
3384.4228,0.028306
3386.2864,0.027770
3388.1501,0.028010
3390.0138,0.029663
3391.8774,0.030161
3393.7411,0.029619
3395.6048,0.029516
3397.4684,0.029401
3399.3321,0.028437
3401.1958,0.028275
3403.0594,0.028111
3404.9231,0.026933
3406.7868,0.026496
3408.6505,0.026698
3410.5141,0.025870
3412.3778,0.024909
3414.2415,0.023511
3416.1051,0.023295
3417.9688,0.023236
3419.8325,0.022327
3421.6961,0.021549
3423.5598,0.021094
3425.4235,0.020940
3427.2871,0.021218
3429.1508,0.020549
3431.0145,0.020094
3432.8781,0.019068
3434.7418,0.017913
3436.6055,0.018201
3438.4692,0.018772
3440.3328,0.018020
3442.1965,0.017676
3444.0602,0.017701
3445.9238,0.017016
3447.7875,0.015741
3449.6512,0.015802
3451.5148,0.015265
3453.3785,0.015269
3455.2422,0.015573
3457.1058,0.014728
3458.9695,0.014758
3460.8332,0.015621
3462.6969,0.015150
3464.5605,0.014752
3466.4242,0.014719
3468.2879,0.013649
3470.1515,0.012564
3472.0152,0.013341
3473.8789,0.013418
3475.7425,0.012515
3477.6062,0.011654
3479.4699,0.013085
3481.3335,0.013212
3483.1972,0.011966
3485.0609,0.011674
3486.9245,0.012580
3488.7882,0.012263
3490.6519,0.011336
3492.5156,0.010660
3494.3792,0.010942
3496.2429,0.010099
3498.1066,0.008593
3499.9702,0.008904
3501.8339,0.010656
3503.6976,0.010330
3505.5612,0.009976
3507.4249,0.009730
3509.2886,0.009127
3511.1522,0.009017
3513.0159,0.009728
3514.8796,0.009782
3516.7432,0.010314
3518.6069,0.008956
3520.4706,0.006958
3522.3343,0.007206
3524.1979,0.007961
3526.0616,0.008292
3527.9253,0.008623
3529.7889,0.007837
3531.6526,0.007554
3533.5163,0.007540
3535.3799,0.006690
3537.2436,0.005903
3539.1073,0.005486
3540.9709,0.005519
3542.8346,0.006909
3544.6983,0.006775
3546.5620,0.005381
3548.4256,0.005813
3550.2893,0.007524
3552.1530,0.007557
3554.0166,0.007249
3555.8803,0.006840
3557.7440,0.006413
3559.6076,0.006547
3561.4713,0.006980
3563.3350,0.006608
3565.1986,0.005227
3567.0623,0.002339
3568.9260,0.001504
3570.7896,0.004032
3572.6533,0.005145
3574.5170,0.006151
3576.3807,0.006880
3578.2443,0.005659
3580.1080,0.005361
3581.9717,0.005256
3583.8353,0.004625
3585.6990,0.004184
3587.5627,0.002850
3589.4263,0.000836
3591.2900,0.002980
3593.1537,0.005698
3595.0173,0.005701
3596.8810,0.004176
3598.7447,0.003761
3600.6084,0.003651
3602.4720,0.004602
3604.3357,0.006081
3606.1994,0.005606
3608.0630,0.004038
3609.9267,0.003770
3611.7904,0.003724
3613.6540,0.003319
3615.5177,0.002465
3617.3814,0.003010
3619.2450,0.003333
3621.1087,0.003055
3622.9724,0.004310
3624.8360,0.005783
3626.6997,0.005059
3628.5634,0.003431
3630.4271,0.002474
3632.2907,0.003983
3634.1544,0.004965
3636.0181,0.004830
3637.8817,0.004873
3639.7454,0.005188
3641.6091,0.004821
3643.4727,0.005148
3645.3364,0.005176
3647.2001,0.003930
3649.0637,0.001541
3650.9274,-0.000338
3652.7911,0.002232
3654.6547,0.004875
3656.5184,0.005294
3658.3821,0.005155
3660.2458,0.005353
3662.1094,0.005728
3663.9731,0.005752
3665.8368,0.005673
3667.7004,0.005481
3669.5641,0.004673
3671.4278,0.002796
3673.2914,0.002821
3675.1551,0.002864
3677.0188,0.002019
3678.8824,0.004207
3680.7461,0.005859
3682.6098,0.004873
3684.4735,0.004310
3686.3371,0.004485
3688.2008,0.004075
3690.0645,0.002470
3691.9281,0.003651
3693.7918,0.005313
3695.6555,0.005475
3697.5191,0.005095
3699.3828,0.005007
3701.2465,0.004885
3703.1101,0.004599
3704.9738,0.004591
3706.8375,0.004211
3708.7011,0.004297
3710.5648,0.004369
3712.4285,0.002923
3714.2922,0.002987
3716.1558,0.004026
3718.0195,0.004230
3719.8832,0.004314
3721.7468,0.004886
3723.6105,0.005065
3725.4742,0.004404
3727.3378,0.003683
3729.2015,0.004096
3731.0652,0.005114
3732.9288,0.005230
3734.7925,0.002675
3736.6562,0.002251
3738.5199,0.004377
3740.3835,0.004154
3742.2472,0.003694
3744.1109,0.003358
3745.9745,0.001643
3747.8382,0.001668
3749.7019,0.002666
3751.5655,0.001481
3753.4292,0.001179
3755.2929,0.003948
3757.1565,0.005164
3759.0202,0.005271
3760.8839,0.005571
3762.7475,0.005482
3764.6112,0.005400
3766.4749,0.005311
3768.3386,0.005045
3770.2022,0.005337
3772.0659,0.005467
3773.9296,0.006307
3775.7932,0.006311
3777.6569,0.005630
3779.5206,0.005553
3781.3842,0.006125
3783.2479,0.006651
3785.1116,0.007054
3786.9752,0.006861
3788.8389,0.006729
3790.7026,0.006367
3792.5662,0.005869
3794.4299,0.005670
3796.2936,0.005754
3798.1573,0.004966
3800.0209,0.004264
3801.8846,0.003619
3803.7483,0.003743
3805.6119,0.004789
3807.4756,0.005980
3809.3393,0.006311
3811.2029,0.005912
3813.0666,0.005550
3814.9303,0.005515
3816.7939,0.005142
3818.6576,0.004830
3820.5213,0.005100
3822.3850,0.004744
3824.2486,0.004467
3826.1123,0.004997
3827.9760,0.005095
3829.8396,0.005393
3831.7033,0.005106
3833.5670,0.004267
3835.4306,0.004379
3837.2943,0.004738
3839.1580,0.003590
3841.0216,0.004205
3842.8853,0.005202
3844.7490,0.005621
3846.6126,0.006114
3848.4763,0.006617
3850.3400,0.006417
3852.2037,0.005235
3854.0673,0.003589
3855.9310,0.002471
3857.7947,0.003503
3859.6583,0.005042
3861.5220,0.005987
3863.3857,0.005393
3865.2493,0.004425
3867.1130,0.004499
3868.9767,0.004338
3870.8403,0.004622
3872.7040,0.005710
3874.5677,0.006989
3876.4314,0.006783
3878.2950,0.006609
3880.1587,0.006646
3882.0224,0.006664
3883.8860,0.005949
3885.7497,0.005349
3887.6134,0.005377
3889.4770,0.006704
3891.3407,0.005916
3893.2044,0.004529
3895.0680,0.005328
3896.9317,0.006557
3898.7954,0.006401
3900.6590,0.005517
3902.5227,0.004547
3904.3864,0.004652
3906.2501,0.005162
3908.1137,0.006514
3909.9774,0.007288
3911.8411,0.006979
3913.7047,0.005944
3915.5684,0.005178
3917.4321,0.005587
3919.2957,0.006253
3921.1594,0.006214
3923.0231,0.006675
3924.8867,0.006040
3926.7504,0.005840
3928.6141,0.006290
3930.4777,0.006912
3932.3414,0.007540
3934.2051,0.006931
3936.0688,0.006469
3937.9324,0.007153
3939.7961,0.006810
3941.6598,0.006235
3943.5234,0.006150
3945.3871,0.006645
3947.2508,0.006597
3949.1144,0.006633
3950.9781,0.006295
3952.8418,0.006284
3954.7054,0.006519
3956.5691,0.006873
3958.4328,0.007092
3960.2965,0.007443
3962.1601,0.007290
3964.0238,0.006563
3965.8875,0.005979
3967.7511,0.006133
3969.6148,0.006714
3971.4785,0.007026
3973.3421,0.007033
3975.2058,0.007353
3977.0695,0.007205
3978.9331,0.006501
3980.7968,0.006188
3982.6605,0.006636
3984.5241,0.007022
3986.3878,0.007193
3988.2515,0.006896
3990.1152,0.006447
3991.9788,0.006805
3993.8425,0.007286
3995.7062,0.006999
3997.5698,0.006798
3999.4335,0.006515
