Wavenumber,Intensity
650.4205,0.152155
652.2841,0.149670
654.1478,0.148280
656.0115,0.148357
657.8751,0.143540
659.7388,0.134152
661.6025,0.132366
663.4661,0.133644
665.3298,0.132533
667.1935,0.133093
669.0571,0.137427
670.9208,0.136650
672.7845,0.137466
674.6481,0.138782
676.5118,0.139666
678.3755,0.140100
680.2392,0.140446
682.1028,0.139717
683.9665,0.139845
685.8302,0.140281
687.6938,0.138793
689.5575,0.135784
691.4212,0.134000
693.2848,0.132372
695.1485,0.130657
697.0122,0.128701
698.8758,0.126302
700.7395,0.123336
702.6032,0.121104
704.4669,0.117304
706.3305,0.112649
708.1942,0.107368
710.0579,0.101988
711.9215,0.096527
713.7852,0.091138
715.6489,0.085685
717.5125,0.080517
719.3762,0.075595
721.2399,0.070797
723.1035,0.066729
724.9672,0.063909
726.8309,0.061637
728.6945,0.059334
730.5582,0.057273
732.4219,0.055946
734.2856,0.054359
736.1492,0.052940
738.0129,0.052416
739.8766,0.053008
741.7402,0.053857
743.6039,0.054818
745.4676,0.055583
747.3312,0.056739
749.1949,0.057400
751.0586,0.057291
752.9222,0.057184
754.7859,0.057323
756.6496,0.057674
758.5132,0.058169
760.3769,0.058557
762.2406,0.059225
764.1043,0.060002
765.9679,0.060584
767.8316,0.061357
769.6953,0.062374
771.5589,0.063437
773.4226,0.064807
775.2863,0.066347
777.1499,0.067774
779.0136,0.069229
780.8773,0.070434
782.7409,0.072008
784.6046,0.074248
786.4683,0.076501
788.3320,0.078187
790.1956,0.080151
792.0593,0.082677
793.9230,0.085024
795.7866,0.087384
797.6503,0.089399
799.5140,0.091588
801.3776,0.093921
803.2413,0.095711
805.1050,0.097078
806.9686,0.098347
808.8323,0.099249
810.6960,0.099643
812.5596,0.098976
814.4233,0.097883
816.2870,0.097479
818.1507,0.097796
820.0143,0.098227
821.8780,0.099191
823.7417,0.100692
825.6053,0.102560
827.4690,0.104762
829.3327,0.105836
831.1963,0.101881
833.0600,0.092724
834.9237,0.083075
836.7873,0.075976
838.6510,0.070892
840.5147,0.067116
842.3784,0.064473
844.2420,0.062857
846.1057,0.062310
847.9694,0.062066
849.8330,0.060321
851.6967,0.057242
853.5604,0.054490
855.4240,0.052775
857.2877,0.051900
859.1514,0.051654
861.0150,0.051602
862.8787,0.051563
864.7424,0.051704
866.6060,0.052050
868.4697,0.052449
870.3334,0.052789
872.1971,0.053142
874.0607,0.053530
875.9244,0.053852
877.7881,0.054230
879.6517,0.054818
881.5154,0.055390
883.3791,0.055700
885.2427,0.056094
887.1064,0.056780
888.9701,0.057517
890.8337,0.057991
892.6974,0.058418
894.5611,0.059054
896.4247,0.059930
898.2884,0.060896
900.1521,0.061911
902.0158,0.063168
903.8794,0.064786
905.7431,0.066774
907.6068,0.069212
909.4704,0.071878
911.3341,0.075003
913.1978,0.078675
915.0614,0.080473
916.9251,0.076663
918.7888,0.069474
920.6524,0.064318
922.5161,0.062318
924.3798,0.061880
926.2435,0.062051
928.1071,0.062633
929.9708,0.063188
931.8345,0.063675
933.6981,0.064390
935.5618,0.065127
937.4255,0.065744
939.2891,0.066384
941.1528,0.067073
943.0165,0.067717
944.8801,0.068634
946.7438,0.069638
948.6075,0.070599
950.4711,0.071666
952.3348,0.072871
954.1985,0.074135
956.0622,0.075407
957.9258,0.076617
959.7895,0.077890
961.6532,0.079320
963.5168,0.080946
965.3805,0.082673
967.2442,0.084711
969.1078,0.086848
970.9715,0.088910
972.8352,0.091281
974.6988,0.094621
976.5625,0.099764
978.4262,0.108056
980.2899,0.118915
982.1535,0.122993
984.0172,0.111049
985.8809,0.094750
987.7445,0.086893
989.6082,0.085120
991.4719,0.084474
993.3355,0.083788
995.1992,0.083151
997.0629,0.082504
998.9265,0.081711
1000.7902,0.080765
1002.6539,0.079910
1004.5175,0.079066
1006.3812,0.078174
1008.2449,0.077468
1010.1086,0.076890
1011.9722,0.076395
1013.8359,0.076023
1015.6996,0.075846
1017.5632,0.075843
1019.4269,0.075982
1021.2906,0.076462
1023.1542,0.077467
1025.0179,0.078827
1026.8816,0.080502
1028.7452,0.082401
1030.6089,0.083543
1032.4726,0.081765
1034.3362,0.077123
1036.1999,0.073595
1038.0636,0.073474
1039.9273,0.075777
1041.7909,0.079193
1043.6546,0.082813
1045.5183,0.085233
1047.3819,0.084573
1049.2456,0.081235
1051.1093,0.077258
1052.9729,0.073582
1054.8366,0.070728
1056.7003,0.069032
1058.5639,0.068363
1060.4276,0.068417
1062.2913,0.068797
1064.1550,0.069335
1066.0186,0.070069
1067.8823,0.070968
1069.7460,0.071916
1071.6096,0.072887
1073.4733,0.073898
1075.3370,0.075003
1077.2006,0.076132
1079.0643,0.077355
1080.9280,0.078716
1082.7916,0.080196
1084.6553,0.081761
1086.5190,0.083379
1088.3826,0.085143
1090.2463,0.087179
1092.1100,0.089514
1093.9737,0.092140
1095.8373,0.095011
1097.7010,0.098171
1099.5647,0.101540
1101.4283,0.104899
1103.2920,0.107945
1105.1557,0.110201
1107.0193,0.110853
1108.8830,0.109197
1110.7467,0.105187
1112.6103,0.099660
1114.4740,0.093784
1116.3377,0.088394
1118.2014,0.083904
1120.0650,0.080630
1121.9287,0.078438
1123.7924,0.076965
1125.6560,0.075905
1127.5197,0.074935
1129.3834,0.073879
1131.2470,0.072911
1133.1107,0.072103
1134.9744,0.071388
1136.8380,0.070888
1138.7017,0.070672
1140.5654,0.070592
1142.4290,0.070566
1144.2927,0.070640
1146.1564,0.070838
1148.0201,0.071073
1149.8837,0.071192
1151.7474,0.071492
1153.6111,0.072091
1155.4747,0.072671
1157.3384,0.073190
1159.2021,0.073778
1161.0657,0.074603
1162.9294,0.075710
1164.7931,0.077043
1166.6567,0.078723
1168.5204,0.080707
1170.3841,0.082712
1172.2477,0.084170
1174.1114,0.084206
1175.9751,0.082608
1177.8388,0.080227
1179.7024,0.078224
1181.5661,0.077106
1183.4298,0.076643
1185.2934,0.076529
1187.1571,0.076654
1189.0208,0.076728
1190.8844,0.076623
1192.7481,0.076478
1194.6118,0.076342
1196.4754,0.076267
1198.3391,0.076327
1200.2028,0.076432
1202.0665,0.076518
1203.9301,0.076672
1205.7938,0.076917
1207.6575,0.077175
1209.5211,0.077445
1211.3848,0.077707
1213.2485,0.077841
1215.1121,0.077945
1216.9758,0.078144
1218.8395,0.078364
1220.7031,0.078540
1222.5668,0.078677
1224.4305,0.078925
1226.2941,0.079166
1228.1578,0.079338
1230.0215,0.079500
1231.8852,0.079658
1233.7488,0.079889
1235.6125,0.080143
1237.4762,0.080386
1239.3398,0.080696
1241.2035,0.081050
1243.0672,0.081306
1244.9308,0.081527
1246.7945,0.081825
1248.6582,0.082173
1250.5218,0.082555
1252.3855,0.082917
1254.2492,0.083275
1256.1129,0.083638
1257.9765,0.084055
1259.8402,0.084662
1261.7039,0.085392
1263.5675,0.085971
1265.4312,0.086289
1267.2949,0.086398
1269.1585,0.086342
1271.0222,0.086221
1272.8859,0.086101
1274.7495,0.086067
1276.6132,0.086161
1278.4769,0.086298
1280.3405,0.086624
1282.2042,0.087084
1284.0679,0.087678
1285.9316,0.088446
1287.7952,0.089400
1289.6589,0.090505
1291.5226,0.091792
1293.3862,0.093455
1295.2499,0.095568
1297.1136,0.098082
1298.9772,0.101130
1300.8409,0.104847
1302.7046,0.108709
1304.5682,0.110923
1306.4319,0.109399
1308.2956,0.102789
1310.1592,0.092068
1312.0229,0.081409
1313.8866,0.074522
1315.7503,0.071931
1317.6139,0.071809
1319.4776,0.072690
1321.3413,0.073704
1323.2049,0.074777
1325.0686,0.076071
1326.9323,0.077174
1328.7959,0.078055
1330.6596,0.078959
1332.5233,0.079728
1334.3869,0.080033
1336.2506,0.080122
1338.1143,0.080705
1339.9780,0.081733
1341.8416,0.081989
1343.7053,0.081860
1345.5690,0.082076
1347.4326,0.082496
1349.2963,0.083095
1351.1600,0.083746
1353.0236,0.084499
1354.8873,0.085619
1356.7510,0.086628
1358.6146,0.087291
1360.4783,0.088367
1362.3420,0.090671
1364.2056,0.092816
1366.0693,0.093763
1367.9330,0.095250
1369.7967,0.097188
1371.6603,0.098618
1373.5240,0.100803
1375.3877,0.103545
1377.2513,0.105412
1379.1150,0.107602
1380.9787,0.110253
1382.8423,0.112727
1384.7060,0.115369
1386.5697,0.119228
1388.4333,0.123719
1390.2970,0.125494
1392.1607,0.125521
1394.0244,0.124553
1395.8880,0.120857
1397.7517,0.115306
1399.6154,0.109175
1401.4790,0.103235
1403.3427,0.097687
1405.2064,0.089738
1407.0700,0.079825
1408.9337,0.070385
1410.7974,0.061661
1412.6610,0.055357
1414.5247,0.052327
1416.3884,0.051672
1418.2520,0.053351
1420.1157,0.057134
1421.9794,0.059028
1423.8431,0.058024
1425.7067,0.053742
1427.5704,0.049080
1429.4341,0.046216
1431.2977,0.045190
1433.1614,0.045291
1435.0251,0.046438
1436.8887,0.049311
1438.7524,0.051537
1440.6161,0.052882
1442.4797,0.055026
1444.3434,0.057175
1446.2071,0.058939
1448.0707,0.060210
1449.9344,0.059437
1451.7981,0.056787
1453.6618,0.053482
1455.5254,0.050914
1457.3891,0.050174
1459.2528,0.049863
1461.1164,0.048871
1462.9801,0.048332
1464.8438,0.048344
1466.7074,0.047760
1468.5711,0.046508
1470.4348,0.045599
1472.2984,0.045738
1474.1621,0.046153
1476.0258,0.046011
1477.8895,0.045805
1479.7531,0.045506
1481.6168,0.045421
1483.4805,0.045263
1485.3441,0.045054
1487.2078,0.045134
1489.0715,0.046025
1490.9351,0.047031
1492.7988,0.046521
1494.6625,0.046286
1496.5261,0.047442
1498.3898,0.048630
1500.2535,0.048668
1502.1171,0.048073
1503.9808,0.047471
1505.8445,0.048606
1507.7082,0.052809
1509.5718,0.052843
1511.4355,0.052413
1513.2992,0.052585
1515.1628,0.053006
1517.0265,0.054075
1518.8902,0.054665
1520.7538,0.055848
1522.6175,0.057850
1524.4812,0.058069
1526.3448,0.058860
1528.2085,0.059585
1530.0722,0.059583
1531.9359,0.060303
1533.7995,0.062142
1535.6632,0.062163
1537.5269,0.061572
1539.3905,0.063849
1541.2542,0.068468
1543.1179,0.069395
1544.9815,0.070431
1546.8452,0.071029
1548.7089,0.071608
1550.5725,0.073194
1552.4362,0.074325
1554.2999,0.075107
1556.1635,0.076161
1558.0272,0.079501
1559.8909,0.087915
1561.7546,0.086418
1563.6182,0.085513
1565.4819,0.086864
1567.3456,0.088412
1569.2092,0.091186
1571.0729,0.094425
1572.9366,0.094920
1574.8002,0.096829
1576.6639,0.102136
1578.5276,0.104764
1580.3912,0.105549
1582.2549,0.107666
1584.1186,0.109776
1585.9822,0.111639
1587.8459,0.113214
1589.7096,0.114443
1591.5733,0.115418
1593.4369,0.116321
1595.3006,0.116944
1597.1643,0.117092
1599.0279,0.116963
1600.8916,0.116692
1602.7553,0.116266
1604.6189,0.115863
1606.4826,0.115357
1608.3463,0.114765
1610.2099,0.113781
1612.0736,0.112010
1613.9373,0.109388
1615.8010,0.106334
1617.6646,0.102099
1619.5283,0.097623
1621.3920,0.093869
1623.2556,0.089447
1625.1193,0.084391
1626.9830,0.079842
1628.8466,0.074372
1630.7103,0.068819
1632.5740,0.064234
1634.4376,0.059695
1636.3013,0.054598
1638.1650,0.051841
1640.0286,0.051066
1641.8923,0.050330
1643.7560,0.050237
1645.6197,0.050986
1647.4833,0.052200
1649.3470,0.052453
1651.2107,0.053011
1653.0743,0.055531
1654.9380,0.058273
1656.8017,0.058038
1658.6653,0.057916
1660.5290,0.057574
1662.3927,0.057139
1664.2563,0.056273
1666.1200,0.055053
1667.9837,0.053834
1669.8474,0.052741
1671.7110,0.052102
1673.5747,0.052093
1675.4384,0.052996
1677.3020,0.054000
1679.1657,0.054673
1681.0294,0.055747
1682.8930,0.056768
1684.7567,0.058915
1686.6204,0.059808
1688.4840,0.059654
1690.3477,0.059525
1692.2114,0.058492
1694.0750,0.056960
1695.9387,0.054820
1697.8024,0.051849
1699.6661,0.049440
1701.5297,0.044913
1703.3934,0.041186
1705.2571,0.036971
1707.1207,0.031433
1708.9844,0.027943
1710.8481,0.025571
1712.7117,0.023498
1714.5754,0.021875
1716.4391,0.020588
1718.3027,0.019936
1720.1664,0.019435
1722.0301,0.019023
1723.8937,0.018251
1725.7574,0.017289
1727.6211,0.016442
1729.4848,0.015626
1731.3484,0.014780
1733.2121,0.014176
1735.0758,0.013331
1736.9394,0.012979
1738.8031,0.012874
1740.6668,0.012291
1742.5304,0.011831
1744.3941,0.011689
1746.2578,0.011460
1748.1214,0.011268
1749.9851,0.010925
1751.8488,0.010618
1753.7125,0.010462
1755.5761,0.010598
1757.4398,0.010554
1759.3035,0.010272
1761.1671,0.010218
1763.0308,0.010236
1764.8945,0.010113
1766.7581,0.010140
1768.6218,0.010058
1770.4855,0.009782
1772.3491,0.009635
1774.2128,0.009620
1776.0765,0.009737
1777.9401,0.010034
1779.8038,0.010123
1781.6675,0.009969
1783.5312,0.009919
1785.3948,0.010099
1787.2585,0.010141
1789.1222,0.010145
1790.9858,0.010116
1792.8495,0.010189
1794.7132,0.010153
1796.5768,0.010273
1798.4405,0.010470
1800.3042,0.010560
1802.1678,0.010516
1804.0315,0.010612
1805.8952,0.010741
1807.7589,0.010881
1809.6225,0.011166
1811.4862,0.011334
1813.3499,0.011116
1815.2135,0.011149
1817.0772,0.011525
1818.9409,0.011901
1820.8045,0.012012
1822.6682,0.011977
1824.5319,0.011758
1826.3955,0.011721
1828.2592,0.011880
1830.1229,0.011933
1831.9865,0.011667
1833.8502,0.011647
1835.7139,0.011703
1837.5776,0.011720
1839.4412,0.011689
1841.3049,0.011739
1843.1686,0.011854
1845.0322,0.011921
1846.8959,0.011683
1848.7596,0.011621
1850.6232,0.011690
1852.4869,0.011618
1854.3506,0.011537
1856.2142,0.011750
1858.0779,0.011810
1859.9416,0.011652
1861.8052,0.011525
1863.6689,0.011360
1865.5326,0.011234
1867.3963,0.011585
1869.2599,0.011979
1871.1236,0.012028
1872.9873,0.011694
1874.8509,0.011632
1876.7146,0.012020
1878.5783,0.012644
1880.4419,0.013073
1882.3056,0.013295
1884.1693,0.013621
1886.0329,0.013942
1887.8966,0.013895
1889.7603,0.013867
1891.6240,0.014200
1893.4876,0.014581
1895.3513,0.014480
1897.2150,0.014566
1899.0786,0.014972
1900.9423,0.015176
1902.8060,0.015552
1904.6696,0.015978
1906.5333,0.015582
1908.3970,0.015330
1910.2606,0.015487
1912.1243,0.015612
1913.9880,0.015815
1915.8516,0.016065
1917.7153,0.015580
1919.5790,0.015113
1921.4427,0.015073
1923.3063,0.014739
1925.1700,0.014475
1927.0337,0.014440
1928.8973,0.014077
1930.7610,0.013362
1932.6247,0.012825
1934.4883,0.012613
1936.3520,0.012218
1938.2157,0.011886
1940.0793,0.011489
1941.9430,0.011295
1943.8067,0.010520
1945.6704,0.009627
1947.5340,0.009257
1949.3977,0.009539
1951.2614,0.009117
1953.1250,0.008379
1954.9887,0.008187
1956.8524,0.008057
1958.7160,0.007163
1960.5797,0.006419
1962.4434,0.006234
1964.3070,0.005887
1966.1707,0.004140
1968.0344,0.003712
1969.8980,0.005131
1971.7617,0.005504
1973.6254,0.003960
1975.4891,0.003071
1977.3527,0.003992
1979.2164,0.006355
1981.0801,0.007188
1982.9437,0.006494
1984.8074,0.006196
1986.6711,0.007003
1988.5347,0.006901
1990.3984,0.006746
1992.2621,0.006466
1994.1257,0.006233
1995.9894,0.006210
1997.8531,0.006206
1999.7167,0.006390
2001.5804,0.006687
2003.4441,0.005735
2005.3078,0.005195
2007.1714,0.005674
2009.0351,0.006213
2010.8988,0.005900
2012.7624,0.005529
2014.6261,0.004996
2016.4898,0.004993
2018.3534,0.004566
2020.2171,0.004245
2022.0808,0.005095
2023.9444,0.005264
2025.8081,0.004861
2027.6718,0.005040
2029.5355,0.004695
2031.3991,0.004436
2033.2628,0.004110
2035.1265,0.004569
2036.9901,0.005578
2038.8538,0.006431
2040.7175,0.006327
2042.5811,0.007124
2044.4448,0.007727
2046.3085,0.007537
2048.1721,0.007651
2050.0358,0.009125
2051.8995,0.009360
2053.7631,0.008716
2055.6268,0.009197
2057.4905,0.009520
2059.3542,0.009226
2061.2178,0.009227
2063.0815,0.009243
2064.9452,0.009549
2066.8088,0.009586
2068.6725,0.009451
2070.5362,0.009584
2072.3998,0.009309
2074.2635,0.009603
2076.1272,0.010623
2077.9908,0.010791
2079.8545,0.010523
2081.7182,0.010329
2083.5819,0.010236
2085.4455,0.010486
2087.3092,0.010688
2089.1729,0.010403
2091.0365,0.010194
2092.9002,0.009470
2094.7639,0.009358
2096.6275,0.009730
2098.4912,0.009932
2100.3549,0.010359
2102.2185,0.010576
2104.0822,0.010487
2105.9459,0.010359
2107.8095,0.010728
2109.6732,0.011066
2111.5369,0.011306
2113.4006,0.011217
2115.2642,0.010822
2117.1279,0.010169
2118.9916,0.009890
2120.8552,0.009932
2122.7189,0.009698
2124.5826,0.009525
2126.4462,0.009354
2128.3099,0.009205
2130.1736,0.008858
2132.0372,0.008356
2133.9009,0.008149
2135.7646,0.007957
2137.6282,0.007301
2139.4919,0.007700
2141.3556,0.007978
2143.2193,0.007350
2145.0829,0.006314
2146.9466,0.006172
2148.8103,0.006830
2150.6739,0.006176
2152.5376,0.004686
2154.4013,0.003055
2156.2649,0.000992
2158.1286,-0.000211
2159.9923,0.002240
2161.8559,0.006292
2163.7196,0.005765
2165.5833,0.004522
2167.4470,0.005259
2169.3106,0.007203
2171.1743,0.007339
2173.0380,0.006532
2174.9016,0.006418
2176.7653,0.006344
2178.6290,0.005608
2180.4926,0.004921
2182.3563,0.005087
2184.2200,0.006279
2186.0836,0.007242
2187.9473,0.008070
2189.8110,0.007585
2191.6746,0.007298
2193.5383,0.008576
2195.4020,0.009425
2197.2657,0.009833
2199.1293,0.010254
2200.9930,0.009675
2202.8567,0.009039
2204.7203,0.009721
2206.5840,0.010115
2208.4477,0.010060
2210.3113,0.009615
2212.1750,0.008896
2214.0387,0.009226
2215.9023,0.010069
2217.7660,0.011193
2219.6297,0.011493
2221.4934,0.010947
2223.3570,0.010288
2225.2207,0.011832
2227.0844,0.012679
2228.9480,0.011955
2230.8117,0.011627
2232.6754,0.011778
2234.5390,0.012380
2236.4027,0.013074
2238.2664,0.013453
2240.1300,0.012924
2241.9937,0.012385
2243.8574,0.013363
2245.7210,0.013930
2247.5847,0.013486
2249.4484,0.013053
2251.3121,0.013136
2253.1757,0.013384
2255.0394,0.014079
2256.9031,0.014699
2258.7667,0.014646
2260.6304,0.013942
2262.4941,0.013959
2264.3577,0.014750
2266.2214,0.015107
2268.0851,0.014887
2269.9487,0.014970
2271.8124,0.015287
2273.6761,0.015666
2275.5397,0.016324
2277.4034,0.016489
2279.2671,0.016455
2281.1308,0.016678
2282.9944,0.016746
2284.8581,0.016985
2286.7218,0.017150
2288.5854,0.017373
2290.4491,0.017252
2292.3128,0.017056
2294.1764,0.017178
2296.0401,0.017346
2297.9038,0.017642
2299.7674,0.017782
2301.6311,0.017793
2303.4948,0.017807
2305.3585,0.017537
2307.2221,0.017510
2309.0858,0.017713
2310.9495,0.018156
2312.8131,0.018457
2314.6768,0.018180
2316.5405,0.017705
2318.4041,0.017900
2320.2678,0.018529
2322.1315,0.019016
2323.9951,0.019008
2325.8588,0.018464
2327.7225,0.017731
2329.5861,0.017504
2331.4498,0.017730
2333.3135,0.017890
2335.1772,0.017986
2337.0408,0.018069
2338.9045,0.018187
2340.7682,0.018326
2342.6318,0.018399
2344.4955,0.018315
2346.3592,0.018182
2348.2228,0.018085
2350.0865,0.017874
2351.9502,0.017925
2353.8138,0.017903
2355.6775,0.017817
2357.5412,0.017805
2359.4049,0.017690
2361.2685,0.017508
2363.1322,0.017931
2364.9959,0.018411
2366.8595,0.018353
2368.7232,0.018253
2370.5869,0.018618
2372.4505,0.018859
2374.3142,0.018981
2376.1779,0.018988
2378.0415,0.018781
2379.9052,0.018594
2381.7689,0.018700
2383.6325,0.018895
2385.4962,0.019241
2387.3599,0.019330
2389.2236,0.019258
2391.0872,0.019240
2392.9509,0.019355
2394.8146,0.019539
2396.6782,0.019474
2398.5419,0.019042
2400.4056,0.019254
2402.2692,0.019836
2404.1329,0.019617
2405.9966,0.019305
2407.8602,0.019622
2409.7239,0.019963
2411.5876,0.020116
2413.4512,0.019972
2415.3149,0.019908
2417.1786,0.020266
2419.0423,0.020621
2420.9059,0.020445
2422.7696,0.020287
2424.6333,0.020313
2426.4969,0.020192
2428.3606,0.020476
2430.2243,0.020675
2432.0879,0.020448
2433.9516,0.020465
2435.8153,0.020418
2437.6789,0.020513
2439.5426,0.020578
2441.4063,0.020711
2443.2700,0.020849
2445.1336,0.020967
2446.9973,0.020678
2448.8610,0.020286
2450.7246,0.020559
2452.5883,0.021073
2454.4520,0.021114
2456.3156,0.020717
2458.1793,0.020720
2460.0430,0.020497
2461.9066,0.020098
2463.7703,0.019974
2465.6340,0.020018
2467.4976,0.020158
2469.3613,0.019991
2471.2250,0.020072
2473.0887,0.020341
2474.9523,0.020317
2476.8160,0.020423
2478.6797,0.020580
2480.5433,0.020416
2482.4070,0.019926
2484.2707,0.019644
2486.1343,0.019997
2487.9980,0.020564
2489.8617,0.020744
2491.7253,0.020381
2493.5890,0.020258
2495.4527,0.020148
2497.3164,0.020012
2499.1800,0.020397
2501.0437,0.020700
2502.9074,0.020658
2504.7710,0.020441
2506.6347,0.020371
2508.4984,0.020346
2510.3620,0.020844
2512.2257,0.021058
2514.0894,0.020994
2515.9530,0.020893
2517.8167,0.020748
2519.6804,0.020725
2521.5440,0.020757
2523.4077,0.020579
2525.2714,0.020474
2527.1351,0.020589
2528.9987,0.020560
2530.8624,0.020226
2532.7261,0.020402
2534.5897,0.021017
2536.4534,0.021324
2538.3171,0.021097
2540.1807,0.020845
2542.0444,0.020975
2543.9081,0.021134
2545.7717,0.020978
2547.6354,0.020688
2549.4991,0.020560
2551.3627,0.020466
2553.2264,0.020186
2555.0901,0.019810
2556.9538,0.019759
2558.8174,0.019755
2560.6811,0.019986
2562.5448,0.019995
2564.4084,0.019874
2566.2721,0.020102
2568.1358,0.020079
2569.9994,0.019910
2571.8631,0.020115
2573.7268,0.020209
2575.5904,0.020275
2577.4541,0.020360
2579.3178,0.020150
2581.1815,0.020027
2583.0451,0.020164
2584.9088,0.020073
2586.7725,0.020113
2588.6361,0.020178
2590.4998,0.020163
2592.3635,0.020329
2594.2271,0.020592
2596.0908,0.020574
2597.9545,0.020341
2599.8181,0.020272
2601.6818,0.020077
2603.5455,0.020276
2605.4091,0.020437
2607.2728,0.020323
2609.1365,0.020376
2611.0002,0.020504
2612.8638,0.020510
2614.7275,0.020613
2616.5912,0.020494
2618.4548,0.020363
2620.3185,0.020663
2622.1822,0.020950
2624.0458,0.020856
2625.9095,0.020690
2627.7732,0.020561
2629.6368,0.020841
2631.5005,0.021274
2633.3642,0.021316
2635.2279,0.021378
2637.0915,0.021638
2638.9552,0.021542
2640.8189,0.021332
2642.6825,0.021570
2644.5462,0.021525
2646.4099,0.021497
2648.2735,0.021652
2650.1372,0.021634
2652.0009,0.021683
2653.8645,0.021563
2655.7282,0.021480
2657.5919,0.021410
2659.4555,0.021451
2661.3192,0.021572
2663.1829,0.021584
2665.0466,0.021350
2666.9102,0.021166
2668.7739,0.021203
2670.6376,0.021162
2672.5012,0.021208
2674.3649,0.021259
2676.2286,0.021194
2678.0922,0.021361
2679.9559,0.021605
2681.8196,0.021640
2683.6832,0.021560
2685.5469,0.021587
2687.4106,0.021534
2689.2742,0.021533
2691.1379,0.021527
2693.0016,0.021441
2694.8653,0.021323
2696.7289,0.021387
2698.5926,0.021538
2700.4563,0.021740
2702.3199,0.021852
2704.1836,0.021841
2706.0473,0.021911
2707.9109,0.022202
2709.7746,0.022159
2711.6383,0.022099
2713.5019,0.022244
2715.3656,0.022402
2717.2293,0.022478
2719.0930,0.022486
2720.9566,0.022710
2722.8203,0.022907
2724.6840,0.023152
2726.5476,0.023518
2728.4113,0.023743
2730.2750,0.023761
2732.1386,0.023845
2734.0023,0.024043
2735.8660,0.024405
2737.7296,0.024675
2739.5933,0.024682
2741.4570,0.024702
2743.3206,0.024657
2745.1843,0.024912
2747.0480,0.025535
2748.9117,0.026025
2750.7753,0.026363
2752.6390,0.026441
2754.5027,0.026463
2756.3663,0.026479
2758.2300,0.026848
2760.0937,0.027327
2761.9573,0.027481
2763.8210,0.027538
2765.6847,0.027887
2767.5483,0.028324
2769.4120,0.028489
2771.2757,0.028395
2773.1394,0.028780
2775.0030,0.029242
2776.8667,0.029485
2778.7304,0.029742
2780.5940,0.029905
2782.4577,0.030006
2784.3214,0.030046
2786.1850,0.029817
2788.0487,0.029464
2789.9124,0.029453
2791.7760,0.029483
2793.6397,0.029320
2795.5034,0.029109
2797.3670,0.028817
2799.2307,0.028554
2801.0944,0.028394
2802.9581,0.028152
2804.8217,0.027840
2806.6854,0.027510
2808.5491,0.027412
2810.4127,0.027496
2812.2764,0.027712
2814.1401,0.027620
2816.0037,0.027240
2817.8674,0.027178
2819.7311,0.027345
2821.5947,0.027454
2823.4584,0.027489
2825.3221,0.027464
2827.1857,0.027333
2829.0494,0.027094
2830.9131,0.027093
2832.7768,0.027061
2834.6404,0.026993
2836.5041,0.027177
2838.3678,0.027587
2840.2314,0.028023
2842.0951,0.028036
2843.9588,0.027713
2845.8224,0.027843
2847.6861,0.028203
2849.5498,0.028695
2851.4134,0.029220
2853.2771,0.029437
2855.1408,0.029593
2857.0045,0.029979
2858.8681,0.030445
2860.7318,0.030903
2862.5955,0.031057
2864.4591,0.030958
2866.3228,0.031125
2868.1865,0.031440
2870.0501,0.031655
2871.9138,0.031757
2873.7775,0.031902
2875.6411,0.031969
2877.5048,0.032235
2879.3685,0.032601
2881.2321,0.032703
2883.0958,0.032861
2884.9595,0.033108
2886.8232,0.033470
2888.6868,0.033650
2890.5505,0.033910
2892.4142,0.034342
2894.2778,0.034522
2896.1415,0.034418
2898.0052,0.034689
2899.8688,0.034936
2901.7325,0.034730
2903.5962,0.034522
2905.4598,0.034555
2907.3235,0.034775
2909.1872,0.035149
2911.0509,0.035334
2912.9145,0.035510
2914.7782,0.035866
2916.6419,0.036247
2918.5055,0.036462
2920.3692,0.036747
2922.2329,0.036928
2924.0965,0.037009
2925.9602,0.037159
2927.8239,0.037401
2929.6875,0.037656
2931.5512,0.038022
2933.4149,0.038023
2935.2785,0.038222
2937.1422,0.038494
2939.0059,0.038669
2940.8696,0.038728
2942.7332,0.038873
2944.5969,0.039035
2946.4606,0.039214
2948.3242,0.039465
2950.1879,0.039432
2952.0516,0.039337
2953.9152,0.039392
2955.7789,0.039522
2957.6426,0.039620
2959.5062,0.039949
2961.3699,0.040219
2963.2336,0.040667
2965.0972,0.041065
2966.9609,0.041283
2968.8246,0.041661
2970.6883,0.042158
2972.5519,0.042458
2974.4156,0.042606
2976.2793,0.042863
2978.1429,0.043283
2980.0066,0.043704
2981.8703,0.043869
2983.7339,0.044007
2985.5976,0.043557
2987.4613,0.043768
2989.3249,0.044296
2991.1886,0.044555
2993.0523,0.044954
2994.9160,0.045487
2996.7796,0.045755
2998.6433,0.046027
3000.5070,0.046446
3002.3706,0.046492
3004.2343,0.046542
3006.0980,0.047095
3007.9616,0.047507
3009.8253,0.047840
3011.6890,0.048053
3013.5526,0.048307
3015.4163,0.048674
3017.2800,0.049258
3019.1436,0.049570
3021.0073,0.049573
3022.8710,0.049735
3024.7347,0.049831
3026.5983,0.050136
3028.4620,0.050383
3030.3257,0.050391
3032.1893,0.050308
3034.0530,0.050276
3035.9167,0.050595
3037.7803,0.050905
3039.6440,0.050921
3041.5077,0.050855
3043.3713,0.050988
3045.2350,0.051455
3047.0987,0.051744
3048.9624,0.051579
3050.8260,0.051534
3052.6897,0.051646
3054.5534,0.051889
3056.4170,0.052071
3058.2807,0.052225
3060.1444,0.051977
3062.0080,0.052020
3063.8717,0.052176
3065.7354,0.052109
3067.5990,0.051854
3069.4627,0.051724
3071.3264,0.051509
3073.1900,0.051593
3075.0537,0.051473
3076.9174,0.050951
3078.7811,0.051150
3080.6447,0.051359
3082.5084,0.050629
3084.3721,0.050492
3086.2357,0.050510
3088.0994,0.050313
3089.9631,0.050011
3091.8267,0.049600
3093.6904,0.048975
3095.5541,0.048174
3097.4177,0.047796
3099.2814,0.047679
3101.1451,0.047477
3103.0087,0.047260
3104.8724,0.046505
3106.7361,0.045917
3108.5998,0.045273
3110.4634,0.045040
3112.3271,0.045023
3114.1908,0.044597
3116.0544,0.043863
3117.9181,0.043264
3119.7818,0.043259
3121.6454,0.043303
3123.5091,0.042593
3125.3728,0.041837
3127.2364,0.041174
3129.1001,0.040693
3130.9638,0.040427
3132.8275,0.040275
3134.6911,0.040063
3136.5548,0.039657
3138.4185,0.039271
3140.2821,0.039437
3142.1458,0.039542
3144.0095,0.039017
3145.8731,0.038722
3147.7368,0.038448
3149.6005,0.037641
3151.4641,0.037045
3153.3278,0.037190
3155.1915,0.037385
3157.0551,0.036771
3158.9188,0.036225
3160.7825,0.035971
3162.6462,0.035780
3164.5098,0.035829
3166.3735,0.035702
3168.2372,0.035576
3170.1008,0.035188
3171.9645,0.034527
3173.8282,0.034882
3175.6918,0.034788
3177.5555,0.034379
3179.4192,0.034215
3181.2828,0.034466
3183.1465,0.034431
3185.0102,0.033658
3186.8739,0.033083
3188.7375,0.033453
3190.6012,0.034002
3192.4649,0.033868
3194.3285,0.033307
3196.1922,0.033151
3198.0559,0.033508
3199.9195,0.034063
3201.7832,0.033786
3203.6469,0.033431
3205.5105,0.033544
3207.3742,0.033744
3209.2379,0.033601
3211.1015,0.033214
3212.9652,0.033058
3214.8289,0.033142
3216.6926,0.033072
3218.5562,0.033643
3220.4199,0.034191
3222.2836,0.033872
3224.1472,0.033113
3226.0109,0.033055
3227.8746,0.033128
3229.7382,0.033298
3231.6019,0.033682
3233.4656,0.033881
3235.3292,0.034224
3237.1929,0.034967
3239.0566,0.034951
3240.9202,0.034297
3242.7839,0.034340
3244.6476,0.034918
3246.5113,0.034741
3248.3749,0.034743
3250.2386,0.035199
3252.1023,0.035341
3253.9659,0.035517
3255.8296,0.035544
3257.6933,0.035564
3259.5569,0.035555
3261.4206,0.035789
3263.2843,0.036097
3265.1479,0.035871
3267.0116,0.035378
3268.8753,0.035669
3270.7390,0.036399
3272.6026,0.035655
3274.4663,0.035038
3276.3300,0.035200
3278.1936,0.035594
3280.0573,0.035542
3281.9210,0.035433
3283.7846,0.035783
3285.6483,0.035678
3287.5120,0.034620
3289.3756,0.033961
3291.2393,0.033923
3293.1030,0.034005
3294.9666,0.033306
3296.8303,0.033125
3298.6940,0.033253
3300.5577,0.032654
3302.4213,0.031767
3304.2850,0.031772
3306.1487,0.031383
3308.0123,0.031091
3309.8760,0.031075
3311.7397,0.031241
3313.6033,0.031511
3315.4670,0.031568
3317.3307,0.030897
3319.1943,0.030797
3321.0580,0.031515
3322.9217,0.031406
3324.7854,0.030663
3326.6490,0.030438
3328.5127,0.030854
3330.3764,0.031855
3332.2400,0.032577
3334.1037,0.031894
3335.9674,0.030823
3337.8310,0.030643
3339.6947,0.030754
3341.5584,0.030792
3343.4220,0.029936
3345.2857,0.029115
3347.1494,0.028419
3349.0130,0.028088
3350.8767,0.027724
3352.7404,0.027216
3354.6041,0.026601
3356.4677,0.026327
3358.3314,0.026016
3360.1951,0.025180
3362.0587,0.024528
3363.9224,0.024856
3365.7861,0.024589
3367.6497,0.024312
3369.5134,0.024293
3371.3771,0.023892
3373.2407,0.023343
3375.1044,0.023965
3376.9681,0.024505
3378.8317,0.024315
3380.6954,0.024160
3382.5591,0.024700
3384.4228,0.024686
3386.2864,0.024568
3388.1501,0.024188
3390.0138,0.023974
3391.8774,0.024339
3393.7411,0.025305
3395.6048,0.025931
3397.4684,0.025597
3399.3321,0.025021
3401.1958,0.025138
3403.0594,0.025227
3404.9231,0.025476
3406.7868,0.024595
3408.6505,0.023590
3410.5141,0.023759
3412.3778,0.023142
3414.2415,0.021906
3416.1051,0.021789
3417.9688,0.021343
3419.8325,0.020354
3421.6961,0.019480
3423.5598,0.019044
3425.4235,0.018639
3427.2871,0.017517
3429.1508,0.017027
3431.0145,0.017435
3432.8781,0.017264
3434.7418,0.017017
3436.6055,0.017785
3438.4692,0.017849
3440.3328,0.016578
3442.1965,0.016123
3444.0602,0.015845
3445.9238,0.015255
3447.7875,0.014556
3449.6512,0.014403
3451.5148,0.014318
3453.3785,0.014555
3455.2422,0.014451
3457.1058,0.014117
3458.9695,0.014516
3460.8332,0.014253
3462.6969,0.013108
3464.5605,0.012204
3466.4242,0.012501
3468.2879,0.013025
3470.1515,0.013078
3472.0152,0.012106
3473.8789,0.011578
3475.7425,0.012066
3477.6062,0.012038
3479.4699,0.011943
3481.3335,0.011272
3483.1972,0.010378
3485.0609,0.010130
3486.9245,0.011313
3488.7882,0.012041
3490.6519,0.011267
3492.5156,0.011078
3494.3792,0.010339
3496.2429,0.009045
3498.1066,0.008782
3499.9702,0.008958
3501.8339,0.009217
3503.6976,0.008308
3505.5612,0.007085
3507.4249,0.007199
3509.2886,0.007981
3511.1522,0.007235
3513.0159,0.006787
3514.8796,0.007232
3516.7432,0.006615
3518.6069,0.006371
3520.4706,0.006581
3522.3343,0.005307
3524.1979,0.004385
3526.0616,0.005483
3527.9253,0.006223
3529.7889,0.006133
3531.6526,0.006014
3533.5163,0.005602
3535.3799,0.005323
3537.2436,0.005239
3539.1073,0.004646
3540.9709,0.004449
3542.8346,0.004455
3544.6983,0.004856
3546.5620,0.004611
3548.4256,0.003560
3550.2893,0.003167
3552.1530,0.003656
3554.0166,0.003560
3555.8803,0.003027
3557.7440,0.003519
3559.6076,0.003254
3561.4713,0.003010
3563.3350,0.003712
3565.1986,0.003743
3567.0623,0.002880
3568.9260,0.002192
3570.7896,0.002326
3572.6533,0.003370
3574.5170,0.003946
3576.3807,0.003252
3578.2443,0.003175
3580.1080,0.002692
3581.9717,0.002224
3583.8353,0.002538
3585.6990,0.002271
3587.5627,0.001931
3589.4263,0.001558
3591.2900,0.001903
3593.1537,0.002528
3595.0173,0.002531
3596.8810,0.001961
3598.7447,0.002582
3600.6084,0.002629
3602.4720,0.001854
3604.3357,0.002397
3606.1994,0.003445
3608.0630,0.003198
3609.9267,0.001471
3611.7904,0.001035
3613.6540,0.001981
3615.5177,0.002045
3617.3814,0.002432
3619.2450,0.002576
3621.1087,0.002085
3622.9724,0.002341
3624.8360,0.002459
3626.6997,0.002327
3628.5634,0.001902
3630.4271,0.001000
3632.2907,0.000971
3634.1544,0.001832
3636.0181,0.001781
3637.8817,0.002115
3639.7454,0.002881
3641.6091,0.002979
3643.4727,0.003176
3645.3364,0.002547
3647.2001,0.001900
3649.0637,0.001361
3650.9274,0.000913
3652.7911,0.001343
3654.6547,0.002151
3656.5184,0.003008
3658.3821,0.002754
3660.2458,0.002933
3662.1094,0.003288
3663.9731,0.003125
3665.8368,0.003348
3667.7004,0.003137
3669.5641,0.001823
3671.4278,0.001023
3673.2914,0.001243
3675.1551,0.002145
3677.0188,0.002020
3678.8824,0.002219
3680.7461,0.003167
3682.6098,0.003472
3684.4735,0.003787
3686.3371,0.003649
3688.2008,0.003103
3690.0645,0.002889
3691.9281,0.002838
3693.7918,0.002763
3695.6555,0.002769
3697.5191,0.002689
3699.3828,0.002452
3701.2465,0.002631
3703.1101,0.003170
3704.9738,0.003438
3706.8375,0.003155
3708.7011,0.002950
3710.5648,0.003123
3712.4285,0.002010
3714.2922,0.001749
3716.1558,0.003250
3718.0195,0.003554
3719.8832,0.003465
3721.7468,0.003502
3723.6105,0.003006
3725.4742,0.002998
3727.3378,0.003294
3729.2015,0.002813
3731.0652,0.003001
3732.9288,0.002829
3734.7925,0.001784
3736.6562,0.001649
3738.5199,0.002179
3740.3835,0.002341
3742.2472,0.002765
3744.1109,0.002798
3745.9745,0.001555
3747.8382,0.001017
3749.7019,0.001642
3751.5655,0.001246
3753.4292,0.001523
3755.2929,0.002666
3757.1565,0.003533
3759.0202,0.003451
3760.8839,0.003257
3762.7475,0.003307
3764.6112,0.003455
3766.4749,0.003467
3768.3386,0.003339
3770.2022,0.003895
3772.0659,0.004223
3773.9296,0.004096
3775.7932,0.003762
3777.6569,0.003606
3779.5206,0.003786
3781.3842,0.003822
3783.2479,0.003662
3785.1116,0.003530
3786.9752,0.003740
3788.8389,0.004020
3790.7026,0.004136
3792.5662,0.004094
3794.4299,0.003701
3796.2936,0.003425
3798.1573,0.003597
3800.0209,0.003786
3801.8846,0.003148
3803.7483,0.002662
3805.6119,0.004000
3807.4756,0.004302
3809.3393,0.003552
3811.2029,0.003752
3813.0666,0.004209
3814.9303,0.003978
3816.7939,0.003670
3818.6576,0.003163
3820.5213,0.002766
3822.3850,0.003090
3824.2486,0.003501
3826.1123,0.004081
3827.9760,0.004019
3829.8396,0.003647
3831.7033,0.003921
3833.5670,0.003989
3835.4306,0.003545
3837.2943,0.003489
3839.1580,0.003197
3841.0216,0.002979
3842.8853,0.004081
3844.7490,0.004177
3846.6126,0.003480
3848.4763,0.003591
3850.3400,0.003798
3852.2037,0.003159
3854.0673,0.002190
3855.9310,0.002155
3857.7947,0.002977
3859.6583,0.003744
3861.5220,0.004218
3863.3857,0.003756
3865.2493,0.003134
3867.1130,0.003604
3868.9767,0.003599
3870.8403,0.003441
3872.7040,0.003320
3874.5677,0.003764
3876.4314,0.004607
3878.2950,0.004693
3880.1587,0.004205
3882.0224,0.003503
3883.8860,0.003570
3885.7497,0.004397
3887.6134,0.004651
3889.4770,0.004685
3891.3407,0.004554
3893.2044,0.004190
3895.0680,0.004230
3896.9317,0.004225
3898.7954,0.003941
3900.6590,0.003567
3902.5227,0.003137
3904.3864,0.003415
3906.2501,0.004194
3908.1137,0.004598
3909.9774,0.004693
3911.8411,0.004665
3913.7047,0.004566
3915.5684,0.004320
3917.4321,0.004292
3919.2957,0.004675
3921.1594,0.004447
3923.0231,0.004274
3924.8867,0.004507
3926.7504,0.004452
3928.6141,0.004557
3930.4777,0.004510
3932.3414,0.004252
3934.2051,0.004542
3936.0688,0.005030
3937.9324,0.005121
3939.7961,0.004897
3941.6598,0.004875
3943.5234,0.005122
3945.3871,0.005219
3947.2508,0.005035
3949.1144,0.004572
3950.9781,0.004327
3952.8418,0.004497
3954.7054,0.004497
3956.5691,0.004657
3958.4328,0.005075
3960.2965,0.005090
3962.1601,0.004983
3964.0238,0.004963
3965.8875,0.004909
3967.7511,0.004963
3969.6148,0.005010
3971.4785,0.004899
3973.3421,0.004788
3975.2058,0.004975
3977.0695,0.005035
3978.9331,0.004903
3980.7968,0.004841
3982.6605,0.004671
3984.5241,0.004583
3986.3878,0.004631
3988.2515,0.004874
3990.1152,0.005253
3991.9788,0.005456
3993.8425,0.005568
3995.7062,0.005315
3997.5698,0.005306
3999.4335,0.005564
