Wavenumber,Intensity
650.4205,0.154866
652.2841,0.154418
654.1478,0.152197
656.0115,0.147225
657.8751,0.144771
659.7388,0.143835
661.6025,0.143641
663.4661,0.143170
665.3298,0.143769
667.1935,0.144563
669.0571,0.145293
670.9208,0.143358
672.7845,0.144414
674.6481,0.141734
676.5118,0.138668
678.3755,0.135859
680.2392,0.130662
682.1028,0.125124
683.9665,0.120977
685.8302,0.116466
687.6938,0.111528
689.5575,0.106406
691.4212,0.103263
693.2848,0.101382
695.1485,0.099420
697.0122,0.096977
698.8758,0.095661
700.7395,0.094829
702.6032,0.094709
704.4669,0.094234
706.3305,0.092900
708.1942,0.091147
710.0579,0.089088
711.9215,0.086886
713.7852,0.084790
715.6489,0.083831
717.5125,0.082797
719.3762,0.081427
721.2399,0.079663
723.1035,0.078142
724.9672,0.077272
726.8309,0.075244
728.6945,0.072735
730.5582,0.070314
732.4219,0.068183
734.2856,0.066282
736.1492,0.065543
738.0129,0.065181
739.8766,0.065088
741.7402,0.065880
743.6039,0.066757
745.4676,0.067769
747.3312,0.068963
749.1949,0.069213
751.0586,0.069096
752.9222,0.069271
754.7859,0.069577
756.6496,0.069860
758.5132,0.070398
760.3769,0.070798
762.2406,0.072043
764.1043,0.073450
765.9679,0.075350
767.8316,0.078948
769.6953,0.083738
771.5589,0.090324
773.4226,0.098600
775.2863,0.104841
777.1499,0.103598
779.0136,0.093262
780.8773,0.081371
782.7409,0.073865
784.6046,0.070643
786.4683,0.069403
788.3320,0.069487
790.1956,0.070600
792.0593,0.072359
793.9230,0.074212
795.7866,0.076317
797.6503,0.078858
799.5140,0.081691
801.3776,0.085443
803.2413,0.091544
805.1050,0.100927
806.9686,0.112999
808.8323,0.121132
810.6960,0.112333
812.5596,0.089034
814.4233,0.069432
816.2870,0.060024
818.1507,0.056725
820.0143,0.055734
821.8780,0.055838
823.7417,0.056753
825.6053,0.058081
827.4690,0.059730
829.3327,0.061732
831.1963,0.061794
833.0600,0.059866
834.9237,0.058526
836.7873,0.059320
838.6510,0.061972
840.5147,0.065816
842.3784,0.070315
844.2420,0.075100
846.1057,0.078667
847.9694,0.078353
849.8330,0.073592
851.6967,0.067089
853.5604,0.060402
855.4240,0.053907
857.2877,0.048528
859.1514,0.045071
861.0150,0.043338
862.8787,0.042697
864.7424,0.042313
866.6060,0.042177
868.4697,0.042628
870.3334,0.043191
872.1971,0.043627
874.0607,0.044297
875.9244,0.045121
877.7881,0.046017
879.6517,0.046753
881.5154,0.047654
883.3791,0.048770
885.2427,0.049852
887.1064,0.051304
888.9701,0.052983
890.8337,0.054927
892.6974,0.057249
894.5611,0.059351
896.4247,0.060507
898.2884,0.059374
900.1521,0.056353
902.0158,0.053822
903.8794,0.053040
905.7431,0.053471
907.6068,0.054891
909.4704,0.056926
911.3341,0.059037
913.1978,0.061481
915.0614,0.063214
916.9251,0.062296
918.7888,0.059132
920.6524,0.057213
922.5161,0.058672
924.3798,0.061461
926.2435,0.060958
928.1071,0.055482
929.9708,0.049189
931.8345,0.045939
933.6981,0.045350
935.5618,0.045825
937.4255,0.046571
939.2891,0.047233
941.1528,0.047897
943.0165,0.048651
944.8801,0.049406
946.7438,0.050205
948.6075,0.050953
950.4711,0.051771
952.3348,0.052633
954.1985,0.053487
956.0622,0.054304
957.9258,0.055111
959.7895,0.056032
961.6532,0.056879
963.5168,0.057861
965.3805,0.059085
967.2442,0.060418
969.1078,0.061947
970.9715,0.063663
972.8352,0.065482
974.6988,0.068163
976.5625,0.072099
978.4262,0.077911
980.2899,0.085507
982.1535,0.089061
984.0172,0.082043
985.8809,0.071782
987.7445,0.067279
989.6082,0.067591
991.4719,0.069715
993.3355,0.072652
995.1992,0.076258
997.0629,0.079957
998.9265,0.080873
1000.7902,0.076500
1002.6539,0.069498
1004.5175,0.064605
1006.3812,0.062997
1008.2449,0.062965
1010.1086,0.063385
1011.9722,0.063944
1013.8359,0.064599
1015.6996,0.065587
1017.5632,0.066918
1019.4269,0.068564
1021.2906,0.070223
1023.1542,0.071861
1025.0179,0.073524
1026.8816,0.075198
1028.7452,0.076957
1030.6089,0.078784
1032.4726,0.080947
1034.3362,0.083441
1036.1999,0.086186
1038.0636,0.089514
1039.9273,0.093461
1041.7909,0.098115
1043.6546,0.103434
1045.5183,0.109506
1047.3819,0.116401
1049.2456,0.122329
1051.1093,0.122652
1052.9729,0.113147
1054.8366,0.096245
1056.7003,0.080963
1058.5639,0.072657
1060.4276,0.069902
1062.2913,0.069610
1064.1550,0.070374
1066.0186,0.071970
1067.8823,0.074147
1069.7460,0.076672
1071.6096,0.079341
1073.4733,0.082252
1075.3370,0.085805
1077.2006,0.090172
1079.0643,0.095045
1080.9280,0.100336
1082.7916,0.104839
1084.6553,0.106808
1086.5190,0.104897
1088.3826,0.099089
1090.2463,0.093421
1092.1100,0.092055
1093.9737,0.094808
1095.8373,0.099848
1097.7010,0.106195
1099.5647,0.112961
1101.4283,0.118950
1103.2920,0.121803
1105.1557,0.119248
1107.0193,0.112204
1108.8830,0.104030
1110.7467,0.097096
1112.6103,0.091797
1114.4740,0.087910
1116.3377,0.085292
1118.2014,0.083775
1120.0650,0.083457
1121.9287,0.084413
1123.7924,0.086462
1125.6560,0.089217
1127.5197,0.091704
1129.3834,0.092562
1131.2470,0.090480
1133.1107,0.085695
1134.9744,0.080472
1136.8380,0.076798
1138.7017,0.075115
1140.5654,0.075017
1142.4290,0.075903
1144.2927,0.077406
1146.1564,0.079497
1148.0201,0.082110
1149.8837,0.085215
1151.7474,0.088966
1153.6111,0.093386
1155.4747,0.098596
1157.3384,0.104418
1159.2021,0.109701
1161.0657,0.112482
1162.9294,0.111326
1164.7931,0.106347
1166.6567,0.098522
1168.5204,0.089280
1170.3841,0.080847
1172.2477,0.075155
1174.1114,0.072063
1175.9751,0.070087
1177.8388,0.068728
1179.7024,0.068299
1181.5661,0.068825
1183.4298,0.069935
1185.2934,0.071425
1187.1571,0.073011
1189.0208,0.074601
1190.8844,0.076500
1192.7481,0.078893
1194.6118,0.081744
1196.4754,0.085337
1198.3391,0.089915
1200.2028,0.094481
1202.0665,0.095932
1203.9301,0.091096
1205.7938,0.082110
1207.6575,0.074634
1209.5211,0.071214
1211.3848,0.070768
1213.2485,0.071626
1215.1121,0.072865
1216.9758,0.074274
1218.8395,0.075649
1220.7031,0.076832
1222.5668,0.077956
1224.4305,0.079203
1226.2941,0.080448
1228.1578,0.081646
1230.0215,0.082903
1231.8852,0.084126
1233.7488,0.085203
1235.6125,0.086436
1237.4762,0.087858
1239.3398,0.089408
1241.2035,0.091036
1243.0672,0.092878
1244.9308,0.095103
1246.7945,0.097517
1248.6582,0.100138
1250.5218,0.102991
1252.3855,0.105638
1254.2492,0.107210
1256.1129,0.106745
1257.9765,0.104130
1259.8402,0.100786
1261.7039,0.098255
1263.5675,0.097525
1265.4312,0.098673
1267.2949,0.100667
1269.1585,0.102908
1271.0222,0.105678
1272.8859,0.108809
1274.7495,0.112081
1276.6132,0.115555
1278.4769,0.118535
1280.3405,0.119685
1282.2042,0.117504
1284.0679,0.112588
1285.9316,0.107631
1287.7952,0.104695
1289.6589,0.104132
1291.5226,0.105501
1293.3862,0.108326
1295.2499,0.112279
1297.1136,0.116943
1298.9772,0.121981
1300.8409,0.127163
1302.7046,0.132293
1304.5682,0.136393
1306.4319,0.137991
1308.2956,0.136469
1310.1592,0.132507
1312.0229,0.128424
1313.8866,0.125339
1315.7503,0.122408
1317.6139,0.119125
1319.4776,0.115731
1321.3413,0.114035
1323.2049,0.115689
1325.0686,0.120236
1326.9323,0.125917
1328.7959,0.131076
1330.6596,0.133762
1332.5233,0.132259
1334.3869,0.126174
1336.2506,0.116552
1338.1143,0.105049
1339.9780,0.093323
1341.8416,0.083918
1343.7053,0.078936
1345.5690,0.077121
1347.4326,0.077665
1349.2963,0.080148
1351.1600,0.084147
1353.0236,0.089225
1354.8873,0.095395
1356.7510,0.100932
1358.6146,0.103262
1360.4783,0.100815
1362.3420,0.094434
1364.2056,0.087060
1366.0693,0.083795
1367.9330,0.084896
1369.7967,0.087699
1371.6603,0.090261
1373.5240,0.095001
1375.3877,0.100928
1377.2513,0.104277
1379.1150,0.108061
1380.9787,0.112384
1382.8423,0.116131
1384.7060,0.120111
1386.5697,0.126533
1388.4333,0.133844
1390.2970,0.136692
1392.1607,0.138838
1394.0244,0.142849
1395.8880,0.146346
1397.7517,0.147173
1399.6154,0.148045
1401.4790,0.147992
1403.3427,0.149055
1405.2064,0.150482
1407.0700,0.147904
1408.9337,0.141772
1410.7974,0.133693
1412.6610,0.125546
1414.5247,0.120738
1416.3884,0.118555
1418.2520,0.115697
1420.1157,0.108580
1421.9794,0.103158
1423.8431,0.099513
1425.7067,0.093193
1427.5704,0.086925
1429.4341,0.082282
1431.2977,0.078984
1433.1614,0.077438
1435.0251,0.078504
1436.8887,0.083141
1438.7524,0.085473
1440.6161,0.086315
1442.4797,0.089071
1444.3434,0.092474
1446.2071,0.096952
1448.0707,0.103159
1449.9344,0.104188
1451.7981,0.096132
1453.6618,0.085358
1455.5254,0.080900
1457.3891,0.086676
1459.2528,0.089953
1461.1164,0.089059
1462.9801,0.090666
1464.8438,0.094749
1466.7074,0.096374
1468.5711,0.095547
1470.4348,0.096322
1472.2984,0.101092
1474.1621,0.105115
1476.0258,0.105713
1477.8895,0.106500
1479.7531,0.107454
1481.6168,0.108568
1483.4805,0.108183
1485.3441,0.106444
1487.2078,0.104409
1489.0715,0.102068
1490.9351,0.097288
1492.7988,0.090716
1494.6625,0.086625
1496.5261,0.083269
1498.3898,0.078949
1500.2535,0.074272
1502.1171,0.069958
1503.9808,0.066793
1505.8445,0.067025
1507.7082,0.070269
1509.5718,0.066813
1511.4355,0.064224
1513.2992,0.062987
1515.1628,0.062734
1517.0265,0.063919
1518.8902,0.063719
1520.7538,0.065333
1522.6175,0.068045
1524.4812,0.067815
1526.3448,0.069049
1528.2085,0.070196
1530.0722,0.069715
1531.9359,0.070856
1533.7995,0.074500
1535.6632,0.074206
1537.5269,0.072964
1539.3905,0.078013
1541.2542,0.088680
1543.1179,0.089392
1544.9815,0.090594
1546.8452,0.090887
1548.7089,0.091892
1550.5725,0.095415
1552.4362,0.097196
1554.2999,0.098645
1556.1635,0.100502
1558.0272,0.108022
1559.8909,0.127417
1561.7546,0.120315
1563.6182,0.117613
1565.4819,0.120470
1567.3456,0.123666
1569.2092,0.129075
1571.0729,0.133919
1572.9366,0.134149
1574.8002,0.137725
1576.6639,0.146215
1578.5276,0.147686
1580.3912,0.146712
1582.2549,0.147418
1584.1186,0.147174
1585.9822,0.145345
1587.8459,0.142667
1589.7096,0.139382
1591.5733,0.135937
1593.4369,0.133474
1595.3006,0.132369
1597.1643,0.132290
1599.0279,0.133557
1600.8916,0.136388
1602.7553,0.140231
1604.6189,0.144088
1606.4826,0.147467
1608.3463,0.150318
1610.2099,0.151557
1612.0736,0.151375
1613.9373,0.151167
1615.8010,0.152555
1617.6646,0.151900
1619.5283,0.148183
1621.3920,0.145837
1623.2556,0.142919
1625.1193,0.136619
1626.9830,0.131052
1628.8466,0.124373
1630.7103,0.117721
1632.5740,0.112570
1634.4376,0.108455
1636.3013,0.100908
1638.1650,0.093159
1640.0286,0.088807
1641.8923,0.084432
1643.7560,0.080344
1645.6197,0.077462
1647.4833,0.072618
1649.3470,0.068034
1651.2107,0.066790
1653.0743,0.065961
1654.9380,0.060547
1656.8017,0.057926
1658.6653,0.056364
1660.5290,0.055168
1662.3927,0.054420
1664.2563,0.053540
1666.1200,0.053210
1667.9837,0.054417
1669.8474,0.057458
1671.7110,0.060089
1673.5747,0.062500
1675.4384,0.067714
1677.3020,0.073279
1679.1657,0.076748
1681.0294,0.081158
1682.8930,0.084147
1684.7567,0.081638
1686.6204,0.074101
1688.4840,0.067767
1690.3477,0.059020
1692.2114,0.050355
1694.0750,0.044158
1695.9387,0.037770
1697.8024,0.032453
1699.6661,0.030934
1701.5297,0.028207
1703.3934,0.026029
1705.2571,0.024365
1707.1207,0.021910
1708.9844,0.020102
1710.8481,0.018667
1712.7117,0.017391
1714.5754,0.016442
1716.4391,0.015913
1718.3027,0.015407
1720.1664,0.014880
1722.0301,0.014555
1723.8937,0.014299
1725.7574,0.013847
1727.6211,0.013088
1729.4848,0.012071
1731.3484,0.011334
1733.2121,0.011151
1735.0758,0.010933
1736.9394,0.010334
1738.8031,0.010066
1740.6668,0.010018
1742.5304,0.009898
1744.3941,0.009557
1746.2578,0.009259
1748.1214,0.008987
1749.9851,0.008958
1751.8488,0.008954
1753.7125,0.008702
1755.5761,0.008571
1757.4398,0.008619
1759.3035,0.008578
1761.1671,0.008584
1763.0308,0.008687
1764.8945,0.008684
1766.7581,0.008498
1768.6218,0.008433
1770.4855,0.008352
1772.3491,0.008342
1774.2128,0.008398
1776.0765,0.008358
1777.9401,0.008225
1779.8038,0.008205
1781.6675,0.008309
1783.5312,0.008509
1785.3948,0.008629
1787.2585,0.008540
1789.1222,0.008355
1790.9858,0.008473
1792.8495,0.008818
1794.7132,0.008742
1796.5768,0.008493
1798.4405,0.008285
1800.3042,0.008256
1802.1678,0.008311
1804.0315,0.008154
1805.8952,0.008115
1807.7589,0.008166
1809.6225,0.008133
1811.4862,0.008136
1813.3499,0.008118
1815.2135,0.008072
1817.0772,0.008013
1818.9409,0.008163
1820.8045,0.008373
1822.6682,0.008369
1824.5319,0.008428
1826.3955,0.008314
1828.2592,0.008176
1830.1229,0.008210
1831.9865,0.008126
1833.8502,0.007985
1835.7139,0.008117
1837.5776,0.008221
1839.4412,0.008036
1841.3049,0.008114
1843.1686,0.008419
1845.0322,0.008571
1846.8959,0.008512
1848.7596,0.008467
1850.6232,0.008597
1852.4869,0.008639
1854.3506,0.008549
1856.2142,0.008531
1858.0779,0.008401
1859.9416,0.008222
1861.8052,0.008316
1863.6689,0.008387
1865.5326,0.008497
1867.3963,0.008652
1869.2599,0.008710
1871.1236,0.008594
1872.9873,0.008555
1874.8509,0.008541
1876.7146,0.008803
1878.5783,0.009028
1880.4419,0.009086
1882.3056,0.008999
1884.1693,0.008817
1886.0329,0.008616
1887.8966,0.008539
1889.7603,0.008389
1891.6240,0.008432
1893.4876,0.008674
1895.3513,0.008742
1897.2150,0.008553
1899.0786,0.008728
1900.9423,0.009270
1902.8060,0.009243
1904.6696,0.009103
1906.5333,0.008922
1908.3970,0.008561
1910.2606,0.008758
1912.1243,0.009194
1913.9880,0.009288
1915.8516,0.009130
1917.7153,0.009333
1919.5790,0.009337
1921.4427,0.008922
1923.3063,0.008839
1925.1700,0.008933
1927.0337,0.009046
1928.8973,0.009085
1930.7610,0.008642
1932.6247,0.008501
1934.4883,0.008884
1936.3520,0.008936
1938.2157,0.008756
1940.0793,0.008520
1941.9430,0.008236
1943.8067,0.007752
1945.6704,0.007975
1947.5340,0.008813
1949.3977,0.008752
1951.2614,0.008414
1953.1250,0.007942
1954.9887,0.007288
1956.8524,0.007155
1958.7160,0.007189
1960.5797,0.007381
1962.4434,0.006752
1964.3070,0.006061
1966.1707,0.006444
1968.0344,0.006272
1969.8980,0.005683
1971.7617,0.005639
1973.6254,0.006063
1975.4891,0.006178
1977.3527,0.006700
1979.2164,0.007044
1981.0801,0.006938
1982.9437,0.007975
1984.8074,0.008648
1986.6711,0.008195
1988.5347,0.008384
1990.3984,0.009225
1992.2621,0.009165
1994.1257,0.008885
1995.9894,0.009372
1997.8531,0.008957
1999.7167,0.008185
2001.5804,0.007905
2003.4441,0.007963
2005.3078,0.008680
2007.1714,0.009019
2009.0351,0.008504
2010.8988,0.007880
2012.7624,0.007550
2014.6261,0.008408
2016.4898,0.009531
2018.3534,0.009296
2020.2171,0.008527
2022.0808,0.009610
2023.9444,0.010040
2025.8081,0.009164
2027.6718,0.009440
2029.5355,0.010188
2031.3991,0.010251
2033.2628,0.010106
2035.1265,0.010176
2036.9901,0.010052
2038.8538,0.009927
2040.7175,0.011068
2042.5811,0.012399
2044.4448,0.011700
2046.3085,0.010910
2048.1721,0.011977
2050.0358,0.012552
2051.8995,0.012524
2053.7631,0.012512
2055.6268,0.011931
2057.4905,0.011533
2059.3542,0.012103
2061.2178,0.012131
2063.0815,0.011900
2064.9452,0.011985
2066.8088,0.012069
2068.6725,0.011903
2070.5362,0.011444
2072.3998,0.011124
2074.2635,0.011089
2076.1272,0.010990
2077.9908,0.011345
2079.8545,0.011696
2081.7182,0.011725
2083.5819,0.011973
2085.4455,0.012239
2087.3092,0.012303
2089.1729,0.011679
2091.0365,0.011069
2092.9002,0.011274
2094.7639,0.011394
2096.6275,0.011440
2098.4912,0.011617
2100.3549,0.011545
2102.2185,0.011638
2104.0822,0.011620
2105.9459,0.011245
2107.8095,0.011511
2109.6732,0.012324
2111.5369,0.012353
2113.4006,0.011663
2115.2642,0.011576
2117.1279,0.012139
2118.9916,0.012249
2120.8552,0.012106
2122.7189,0.012153
2124.5826,0.011544
2126.4462,0.010761
2128.3099,0.010674
2130.1736,0.010132
2132.0372,0.009631
2133.9009,0.009827
2135.7646,0.009670
2137.6282,0.009727
2139.4919,0.009626
2141.3556,0.008883
2143.2193,0.009090
2145.0829,0.009133
2146.9466,0.007859
2148.8103,0.006505
2150.6739,0.005365
2152.5376,0.004719
2154.4013,0.004267
2156.2649,0.002909
2158.1286,0.002169
2159.9923,0.003240
2161.8559,0.005364
2163.7196,0.007032
2165.5833,0.007399
2167.4470,0.006686
2169.3106,0.005718
2171.1743,0.006687
2173.0380,0.008521
2174.9016,0.008292
2176.7653,0.006835
2178.6290,0.006227
2180.4926,0.006232
2182.3563,0.007522
2184.2200,0.009151
2186.0836,0.008847
2187.9473,0.009216
2189.8110,0.010119
2191.6746,0.010323
2193.5383,0.010773
2195.4020,0.010725
2197.2657,0.010070
2199.1293,0.009864
2200.9930,0.010488
2202.8567,0.011141
2204.7203,0.011363
2206.5840,0.011552
2208.4477,0.011150
2210.3113,0.011291
2212.1750,0.012212
2214.0387,0.011771
2215.9023,0.011880
2217.7660,0.012748
2219.6297,0.012345
2221.4934,0.011643
2223.3570,0.011706
2225.2207,0.012602
2227.0844,0.013152
2228.9480,0.013566
2230.8117,0.014127
2232.6754,0.013915
2234.5390,0.014106
2236.4027,0.014846
2238.2664,0.014877
2240.1300,0.014681
2241.9937,0.014789
2243.8574,0.015046
2245.7210,0.015524
2247.5847,0.015770
2249.4484,0.015947
2251.3121,0.016224
2253.1757,0.016073
2255.0394,0.015896
2256.9031,0.016043
2258.7667,0.016492
2260.6304,0.017007
2262.4941,0.017110
2264.3577,0.016890
2266.2214,0.016937
2268.0851,0.017292
2269.9487,0.017556
2271.8124,0.017749
2273.6761,0.017832
2275.5397,0.018408
2277.4034,0.019463
2279.2671,0.019870
2281.1308,0.019833
2282.9944,0.019698
2284.8581,0.019436
2286.7218,0.019108
2288.5854,0.019109
2290.4491,0.020030
2292.3128,0.020563
2294.1764,0.020277
2296.0401,0.020057
2297.9038,0.020132
2299.7674,0.020444
2301.6311,0.020645
2303.4948,0.020655
2305.3585,0.020593
2307.2221,0.020684
2309.0858,0.020807
2310.9495,0.020754
2312.8131,0.020476
2314.6768,0.020537
2316.5405,0.020928
2318.4041,0.021024
2320.2678,0.021187
2322.1315,0.021824
2323.9951,0.022342
2325.8588,0.021825
2327.7225,0.020810
2329.5861,0.020348
2331.4498,0.020342
2333.3135,0.020501
2335.1772,0.020756
2337.0408,0.020588
2338.9045,0.020291
2340.7682,0.020860
2342.6318,0.021829
2344.4955,0.021931
2346.3592,0.021494
2348.2228,0.021181
2350.0865,0.020949
2351.9502,0.020916
2353.8138,0.021035
2355.6775,0.021235
2357.5412,0.021406
2359.4049,0.021416
2361.2685,0.021111
2363.1322,0.021181
2364.9959,0.021989
2366.8595,0.022197
2368.7232,0.022091
2370.5869,0.022279
2372.4505,0.022408
2374.3142,0.022604
2376.1779,0.022835
2378.0415,0.022856
2379.9052,0.022919
2381.7689,0.022883
2383.6325,0.022671
2385.4962,0.022965
2387.3599,0.023226
2389.2236,0.023269
2391.0872,0.023532
2392.9509,0.023730
2394.8146,0.023746
2396.6782,0.023672
2398.5419,0.023671
2400.4056,0.023761
2402.2692,0.023828
2404.1329,0.023951
2405.9966,0.024058
2407.8602,0.023988
2409.7239,0.024090
2411.5876,0.024539
2413.4512,0.024735
2415.3149,0.024525
2417.1786,0.024243
2419.0423,0.024458
2420.9059,0.024871
2422.7696,0.024939
2424.6333,0.025280
2426.4969,0.025537
2428.3606,0.025547
2430.2243,0.025911
2432.0879,0.026009
2433.9516,0.025436
2435.8153,0.025293
2437.6789,0.026056
2439.5426,0.026637
2441.4063,0.026808
2443.2700,0.026898
2445.1336,0.027015
2446.9973,0.027535
2448.8610,0.027674
2450.7246,0.027234
2452.5883,0.027412
2454.4520,0.027918
2456.3156,0.027908
2458.1793,0.027941
2460.0430,0.028221
2461.9066,0.028240
2463.7703,0.028245
2465.6340,0.028553
2467.4976,0.028845
2469.3613,0.029228
2471.2250,0.029427
2473.0887,0.029144
2474.9523,0.029003
2476.8160,0.029295
2478.6797,0.029746
2480.5433,0.030207
2482.4070,0.030592
2484.2707,0.030813
2486.1343,0.031044
2487.9980,0.031136
2489.8617,0.030998
2491.7253,0.031098
2493.5890,0.031331
2495.4527,0.031418
2497.3164,0.031446
2499.1800,0.031646
2501.0437,0.031673
2502.9074,0.031445
2504.7710,0.031567
2506.6347,0.031901
2508.4984,0.032213
2510.3620,0.032526
2512.2257,0.032553
2514.0894,0.032540
2515.9530,0.032902
2517.8167,0.033192
2519.6804,0.033419
2521.5440,0.033693
2523.4077,0.033677
2525.2714,0.033545
2527.1351,0.033744
2528.9987,0.034339
2530.8624,0.034751
2532.7261,0.034991
2534.5897,0.035316
2536.4534,0.035635
2538.3171,0.035873
2540.1807,0.035778
2542.0444,0.035872
2543.9081,0.036093
2545.7717,0.036096
2547.6354,0.036017
2549.4991,0.035954
2551.3627,0.035930
2553.2264,0.035786
2555.0901,0.035679
2556.9538,0.036042
2558.8174,0.036146
2560.6811,0.035714
2562.5448,0.036085
2564.4084,0.036834
2566.2721,0.036921
2568.1358,0.036963
2569.9994,0.037273
2571.8631,0.037604
2573.7268,0.038187
2575.5904,0.038701
2577.4541,0.038693
2579.3178,0.038470
2581.1815,0.038584
2583.0451,0.039040
2584.9088,0.039239
2586.7725,0.039153
2588.6361,0.039619
2590.4998,0.040313
2592.3635,0.040496
2594.2271,0.040754
2596.0908,0.041146
2597.9545,0.041348
2599.8181,0.041650
2601.6818,0.041963
2603.5455,0.042065
2605.4091,0.042026
2607.2728,0.042364
2609.1365,0.042777
2611.0002,0.042797
2612.8638,0.042604
2614.7275,0.042690
2616.5912,0.042853
2618.4548,0.042602
2620.3185,0.042416
2622.1822,0.042550
2624.0458,0.042523
2625.9095,0.042536
2627.7732,0.042757
2629.6368,0.042836
2631.5005,0.042721
2633.3642,0.042464
2635.2279,0.042520
2637.0915,0.042709
2638.9552,0.042756
2640.8189,0.042911
2642.6825,0.042994
2644.5462,0.042973
2646.4099,0.042707
2648.2735,0.042432
2650.1372,0.042326
2652.0009,0.042092
2653.8645,0.041772
2655.7282,0.041435
2657.5919,0.041065
2659.4555,0.040779
2661.3192,0.040794
2663.1829,0.040827
2665.0466,0.040637
2666.9102,0.040650
2668.7739,0.040725
2670.6376,0.040841
2672.5012,0.041074
2674.3649,0.041053
2676.2286,0.041086
2678.0922,0.041565
2679.9559,0.042066
2681.8196,0.042223
2683.6832,0.042394
2685.5469,0.042779
2687.4106,0.043037
2689.2742,0.043324
2691.1379,0.043590
2693.0016,0.043630
2694.8653,0.043735
2696.7289,0.044135
2698.5926,0.044524
2700.4563,0.044708
2702.3199,0.044893
2704.1836,0.044998
2706.0473,0.045167
2707.9109,0.045586
2709.7746,0.045993
2711.6383,0.046249
2713.5019,0.046237
2715.3656,0.046158
2717.2293,0.046296
2719.0930,0.046382
2720.9566,0.046370
2722.8203,0.046515
2724.6840,0.046583
2726.5476,0.046664
2728.4113,0.046806
2730.2750,0.046644
2732.1386,0.046477
2734.0023,0.046456
2735.8660,0.046471
2737.7296,0.046451
2739.5933,0.046318
2741.4570,0.046322
2743.3206,0.046234
2745.1843,0.045948
2747.0480,0.045874
2748.9117,0.046068
2750.7753,0.046332
2752.6390,0.046508
2754.5027,0.046457
2756.3663,0.046553
2758.2300,0.046991
2760.0937,0.047540
2761.9573,0.047808
2763.8210,0.048192
2765.6847,0.048704
2767.5483,0.048987
2769.4120,0.049247
2771.2757,0.049682
2773.1394,0.050045
2775.0030,0.050426
2776.8667,0.050791
2778.7304,0.050767
2780.5940,0.050695
2782.4577,0.050931
2784.3214,0.050986
2786.1850,0.050792
2788.0487,0.050730
2789.9124,0.050802
2791.7760,0.050869
2793.6397,0.050692
2795.5034,0.050171
2797.3670,0.049873
2799.2307,0.050261
2801.0944,0.050561
2802.9581,0.050442
2804.8217,0.050561
2806.6854,0.050570
2808.5491,0.050449
2810.4127,0.050386
2812.2764,0.050365
2814.1401,0.050495
2816.0037,0.050813
2817.8674,0.051098
2819.7311,0.051107
2821.5947,0.050919
2823.4584,0.050993
2825.3221,0.051326
2827.1857,0.051493
2829.0494,0.051507
2830.9131,0.051506
2832.7768,0.051451
2834.6404,0.051636
2836.5041,0.051818
2838.3678,0.051874
2840.2314,0.052066
2842.0951,0.052366
2843.9588,0.052614
2845.8224,0.052729
2847.6861,0.052914
2849.5498,0.053569
2851.4134,0.054121
2853.2771,0.054275
2855.1408,0.054304
2857.0045,0.054563
2858.8681,0.055002
2860.7318,0.055132
2862.5955,0.055188
2864.4591,0.055557
2866.3228,0.055830
2868.1865,0.055747
2870.0501,0.055312
2871.9138,0.055022
2873.7775,0.055293
2875.6411,0.055675
2877.5048,0.055635
2879.3685,0.055546
2881.2321,0.055631
2883.0958,0.055866
2884.9595,0.056181
2886.8232,0.056323
2888.6868,0.055910
2890.5505,0.055664
2892.4142,0.055812
2894.2778,0.056249
2896.1415,0.056715
2898.0052,0.056763
2899.8688,0.056414
2901.7325,0.056350
2903.5962,0.056589
2905.4598,0.056845
2907.3235,0.057073
2909.1872,0.057159
2911.0509,0.057497
2912.9145,0.058134
2914.7782,0.058261
2916.6419,0.058523
2918.5055,0.059181
2920.3692,0.059737
2922.2329,0.060219
2924.0965,0.060656
2925.9602,0.060700
2927.8239,0.060791
2929.6875,0.061265
2931.5512,0.061820
2933.4149,0.062194
2935.2785,0.062018
2937.1422,0.061401
2939.0059,0.061079
2940.8696,0.060969
2942.7332,0.060829
2944.5969,0.061135
2946.4606,0.061962
2948.3242,0.062157
2950.1879,0.061716
2952.0516,0.061727
2953.9152,0.062113
2955.7789,0.061879
2957.6426,0.061402
2959.5062,0.060877
2961.3699,0.060395
2963.2336,0.060150
2965.0972,0.059798
2966.9609,0.059616
2968.8246,0.060106
2970.6883,0.060606
2972.5519,0.061084
2974.4156,0.061648
2976.2793,0.061833
2978.1429,0.062052
2980.0066,0.062361
2981.8703,0.062897
2983.7339,0.063777
2985.5976,0.063978
2987.4613,0.063815
2989.3249,0.063354
2991.1886,0.062683
2993.0523,0.062683
2994.9160,0.063097
2996.7796,0.062980
2998.6433,0.062930
3000.5070,0.063157
3002.3706,0.063214
3004.2343,0.063024
3006.0980,0.063252
3007.9616,0.063589
3009.8253,0.063756
3011.6890,0.063944
3013.5526,0.063721
3015.4163,0.063625
3017.2800,0.063832
3019.1436,0.063646
3021.0073,0.063574
3022.8710,0.063544
3024.7347,0.063262
3026.5983,0.062687
3028.4620,0.062367
3030.3257,0.062762
3032.1893,0.063016
3034.0530,0.062434
3035.9167,0.062162
3037.7803,0.062192
3039.6440,0.061924
3041.5077,0.061619
3043.3713,0.061585
3045.2350,0.061898
3047.0987,0.061991
3048.9624,0.061513
3050.8260,0.061295
3052.6897,0.061461
3054.5534,0.061667
3056.4170,0.061670
3058.2807,0.061269
3060.1444,0.061081
3062.0080,0.061163
3063.8717,0.060770
3065.7354,0.060522
3067.5990,0.060589
3069.4627,0.060637
3071.3264,0.060633
3073.1900,0.060564
3075.0537,0.060428
3076.9174,0.060486
3078.7811,0.060582
3080.6447,0.060695
3082.5084,0.060684
3084.3721,0.060560
3086.2357,0.060448
3088.0994,0.060443
3089.9631,0.060446
3091.8267,0.060574
3093.6904,0.060549
3095.5541,0.060481
3097.4177,0.060449
3099.2814,0.060241
3101.1451,0.060413
3103.0087,0.060698
3104.8724,0.060219
3106.7361,0.059992
3108.5998,0.060251
3110.4634,0.060727
3112.3271,0.061190
3114.1908,0.061080
3116.0544,0.060744
3117.9181,0.060914
3119.7818,0.061477
3121.6454,0.062205
3123.5091,0.061990
3125.3728,0.061706
3127.2364,0.062064
3129.1001,0.061885
3130.9638,0.061324
3132.8275,0.061656
3134.6911,0.061632
3136.5548,0.061359
3138.4185,0.061775
3140.2821,0.062388
3142.1458,0.062405
3144.0095,0.062573
3145.8731,0.062938
3147.7368,0.062907
3149.6005,0.062821
3151.4641,0.063604
3153.3278,0.064787
3155.1915,0.065662
3157.0551,0.066099
3158.9188,0.066148
3160.7825,0.065571
3162.6462,0.065310
3164.5098,0.064978
3166.3735,0.064612
3168.2372,0.064321
3170.1008,0.064199
3171.9645,0.064339
3173.8282,0.064309
3175.6918,0.063775
3177.5555,0.062740
3179.4192,0.062187
3181.2828,0.062072
3183.1465,0.061126
3185.0102,0.060196
3186.8739,0.060015
3188.7375,0.059764
3190.6012,0.059265
3192.4649,0.059554
3194.3285,0.059547
3196.1922,0.059362
3198.0559,0.059443
3199.9195,0.059652
3201.7832,0.059644
3203.6469,0.059640
3205.5105,0.059561
3207.3742,0.059755
3209.2379,0.059799
3211.1015,0.059530
3212.9652,0.058988
3214.8289,0.058410
3216.6926,0.057325
3218.5562,0.055776
3220.4199,0.054364
3222.2836,0.053164
3224.1472,0.052058
3226.0109,0.050893
3227.8746,0.049642
3229.7382,0.048658
3231.6019,0.047872
3233.4656,0.047391
3235.3292,0.047053
3237.1929,0.046374
3239.0566,0.045411
3240.9202,0.045212
3242.7839,0.044923
3244.6476,0.044192
3246.5113,0.044242
3248.3749,0.045610
3250.2386,0.046638
3252.1023,0.046518
3253.9659,0.045797
3255.8296,0.045589
3257.6933,0.046483
3259.5569,0.046556
3261.4206,0.046410
3263.2843,0.047125
3265.1479,0.047004
3267.0116,0.047582
3268.8753,0.047704
3270.7390,0.047466
3272.6026,0.047769
3274.4663,0.047436
3276.3300,0.046809
3278.1936,0.046320
3280.0573,0.045536
3281.9210,0.045194
3283.7846,0.045518
3285.6483,0.045838
3287.5120,0.045268
3289.3756,0.044752
3291.2393,0.044488
3293.1030,0.044295
3294.9666,0.043201
3296.8303,0.042443
3298.6940,0.043160
3300.5577,0.043943
3302.4213,0.043643
3304.2850,0.043430
3306.1487,0.043182
3308.0123,0.042647
3309.8760,0.042158
3311.7397,0.042989
3313.6033,0.042948
3315.4670,0.042437
3317.3307,0.042837
3319.1943,0.042857
3321.0580,0.041595
3322.9217,0.041485
3324.7854,0.042347
3326.6490,0.041993
3328.5127,0.040664
3330.3764,0.039847
3332.2400,0.040211
3334.1037,0.040098
3335.9674,0.038883
3337.8310,0.038410
3339.6947,0.038339
3341.5584,0.037363
3343.4220,0.035688
3345.2857,0.034780
3347.1494,0.033946
3349.0130,0.032992
3350.8767,0.032580
3352.7404,0.032393
3354.6041,0.031569
3356.4677,0.031299
3358.3314,0.030950
3360.1951,0.030702
3362.0587,0.030864
3363.9224,0.030091
3365.7861,0.028454
3367.6497,0.029413
3369.5134,0.031127
3371.3771,0.032028
3373.2407,0.032636
3375.1044,0.033057
3376.9681,0.032087
3378.8317,0.032369
3380.6954,0.033624
3382.5591,0.034531
3384.4228,0.035929
3386.2864,0.037393
3388.1501,0.038511
3390.0138,0.039796
3391.8774,0.040822
3393.7411,0.042312
3395.6048,0.043514
3397.4684,0.043997
3399.3321,0.045325
3401.1958,0.045646
3403.0594,0.044404
3404.9231,0.043810
3406.7868,0.043172
3408.6505,0.041738
3410.5141,0.039943
3412.3778,0.037981
3414.2415,0.034085
3416.1051,0.030281
3417.9688,0.026980
3419.8325,0.023896
3421.6961,0.022226
3423.5598,0.020516
3425.4235,0.018532
3427.2871,0.018419
3429.1508,0.017742
3431.0145,0.015738
3432.8781,0.014341
3434.7418,0.013416
3436.6055,0.012236
3438.4692,0.012402
3440.3328,0.012264
3442.1965,0.010931
3444.0602,0.009589
3445.9238,0.010008
3447.7875,0.011347
3449.6512,0.011475
3451.5148,0.010288
3453.3785,0.010907
3455.2422,0.011440
3457.1058,0.010439
3458.9695,0.009941
3460.8332,0.009755
3462.6969,0.008706
3464.5605,0.008484
3466.4242,0.008145
3468.2879,0.008291
3470.1515,0.008888
3472.0152,0.009122
3473.8789,0.008784
3475.7425,0.007733
3477.6062,0.007730
3479.4699,0.007343
3481.3335,0.006467
3483.1972,0.006594
3485.0609,0.006239
3486.9245,0.006192
3488.7882,0.006514
3490.6519,0.007051
3492.5156,0.007448
3494.3792,0.007032
3496.2429,0.005894
3498.1066,0.004414
3499.9702,0.004695
3501.8339,0.005428
3503.6976,0.005247
3505.5612,0.006320
3507.4249,0.006240
3509.2886,0.004694
3511.1522,0.004596
3513.0159,0.005968
3514.8796,0.006123
3516.7432,0.005533
3518.6069,0.005107
3520.4706,0.004376
3522.3343,0.004067
3524.1979,0.005497
3526.0616,0.006311
3527.9253,0.004538
3529.7889,0.003479
3531.6526,0.004974
3533.5163,0.005024
3535.3799,0.004020
3537.2436,0.003815
3539.1073,0.004684
3540.9709,0.004982
3542.8346,0.004587
3544.6983,0.003813
3546.5620,0.003969
3548.4256,0.004971
3550.2893,0.005087
3552.1530,0.005084
3554.0166,0.004639
3555.8803,0.003074
3557.7440,0.003371
3559.6076,0.003860
3561.4713,0.004294
3563.3350,0.004778
3565.1986,0.004221
3567.0623,0.003015
3568.9260,0.002997
3570.7896,0.003522
3572.6533,0.003935
3574.5170,0.004724
3576.3807,0.004802
3578.2443,0.004014
3580.1080,0.003357
3581.9717,0.002748
3583.8353,0.003337
3585.6990,0.003479
3587.5627,0.002952
3589.4263,0.003926
3591.2900,0.005345
3593.1537,0.005453
3595.0173,0.004700
3596.8810,0.004264
3598.7447,0.004753
3600.6084,0.004672
3602.4720,0.004301
3604.3357,0.004621
3606.1994,0.004503
3608.0630,0.003888
3609.9267,0.003199
3611.7904,0.003431
3613.6540,0.004044
3615.5177,0.003978
3617.3814,0.004258
3619.2450,0.003484
3621.1087,0.003911
3622.9724,0.005754
3624.8360,0.006162
3626.6997,0.005281
3628.5634,0.004737
3630.4271,0.003683
3632.2907,0.003577
3634.1544,0.004731
3636.0181,0.005655
3637.8817,0.005408
3639.7454,0.004850
3641.6091,0.004645
3643.4727,0.004877
3645.3364,0.005584
3647.2001,0.005458
3649.0637,0.004181
3650.9274,0.003031
3652.7911,0.003872
3654.6547,0.004395
3656.5184,0.004828
3658.3821,0.006051
3660.2458,0.006211
3662.1094,0.006694
3663.9731,0.006525
3665.8368,0.006099
3667.7004,0.006514
3669.5641,0.006509
3671.4278,0.005153
3673.2914,0.005519
3675.1551,0.005552
3677.0188,0.004489
3678.8824,0.004220
3680.7461,0.004262
3682.6098,0.004537
3684.4735,0.005284
3686.3371,0.005543
3688.2008,0.005683
3690.0645,0.005925
3691.9281,0.005253
3693.7918,0.004822
3695.6555,0.005595
3697.5191,0.006070
3699.3828,0.006111
3701.2465,0.006455
3703.1101,0.006782
3704.9738,0.006065
3706.8375,0.005401
3708.7011,0.005103
3710.5648,0.004873
3712.4285,0.003906
3714.2922,0.004358
3716.1558,0.005572
3718.0195,0.005782
3719.8832,0.005531
3721.7468,0.005494
3723.6105,0.005574
3725.4742,0.005646
3727.3378,0.005107
3729.2015,0.004986
3731.0652,0.004843
3732.9288,0.004596
3734.7925,0.003307
3736.6562,0.002521
3738.5199,0.003197
3740.3835,0.004712
3742.2472,0.004905
3744.1109,0.004047
3745.9745,0.002940
3747.8382,0.003448
3749.7019,0.003743
3751.5655,0.003783
3753.4292,0.004656
3755.2929,0.005959
3757.1565,0.006084
3759.0202,0.006341
3760.8839,0.006890
3762.7475,0.006858
3764.6112,0.007128
3766.4749,0.006789
3768.3386,0.006144
3770.2022,0.005883
3772.0659,0.006684
3773.9296,0.007631
3775.7932,0.006936
3777.6569,0.006900
3779.5206,0.007425
3781.3842,0.007506
3783.2479,0.006740
3785.1116,0.006591
3786.9752,0.006425
3788.8389,0.006502
3790.7026,0.006521
3792.5662,0.006827
3794.4299,0.007437
3796.2936,0.007138
3798.1573,0.006556
3800.0209,0.006560
3801.8846,0.006243
3803.7483,0.006811
3805.6119,0.007224
3807.4756,0.007078
3809.3393,0.007559
3811.2029,0.007469
3813.0666,0.007018
3814.9303,0.006782
3816.7939,0.005903
3818.6576,0.006129
3820.5213,0.007036
3822.3850,0.006311
3824.2486,0.005929
3826.1123,0.007013
3827.9760,0.007542
3829.8396,0.007516
3831.7033,0.006869
3833.5670,0.006505
3835.4306,0.006905
3837.2943,0.007038
3839.1580,0.006378
3841.0216,0.006532
3842.8853,0.006749
3844.7490,0.006836
3846.6126,0.006751
3848.4763,0.006338
3850.3400,0.006295
3852.2037,0.006334
3854.0673,0.004653
3855.9310,0.004882
3857.7947,0.008115
3859.6583,0.008341
3861.5220,0.007157
3863.3857,0.006486
3865.2493,0.007335
3867.1130,0.007322
3868.9767,0.006799
3870.8403,0.007759
3872.7040,0.008211
3874.5677,0.007432
3876.4314,0.007032
3878.2950,0.007189
3880.1587,0.006963
3882.0224,0.007321
3883.8860,0.007600
3885.7497,0.007319
3887.6134,0.007238
3889.4770,0.008562
3891.3407,0.008188
3893.2044,0.006705
3895.0680,0.006886
3896.9317,0.007986
3898.7954,0.007956
3900.6590,0.007691
3902.5227,0.007638
3904.3864,0.007418
3906.2501,0.007850
3908.1137,0.008407
3909.9774,0.008564
3911.8411,0.008851
3913.7047,0.008447
3915.5684,0.008140
3917.4321,0.007848
3919.2957,0.008385
3921.1594,0.008782
3923.0231,0.007991
3924.8867,0.007072
3926.7504,0.007827
3928.6141,0.008878
3930.4777,0.008562
3932.3414,0.008269
3934.2051,0.008514
3936.0688,0.008407
3937.9324,0.008373
3939.7961,0.008238
3941.6598,0.008588
3943.5234,0.008895
3945.3871,0.008593
3947.2508,0.008787
3949.1144,0.008364
3950.9781,0.007925
3952.8418,0.008601
3954.7054,0.009359
3956.5691,0.009583
3958.4328,0.009176
3960.2965,0.009302
3962.1601,0.009506
3964.0238,0.009466
3965.8875,0.008698
3967.7511,0.008913
3969.6148,0.008868
3971.4785,0.008679
3973.3421,0.009068
3975.2058,0.009173
3977.0695,0.009462
3978.9331,0.009982
3980.7968,0.009617
3982.6605,0.009700
3984.5241,0.009855
3986.3878,0.009939
3988.2515,0.009398
3990.1152,0.009127
3991.9788,0.009259
3993.8425,0.009284
3995.7062,0.009086
3997.5698,0.009621
3999.4335,0.009225
