Wavenumber,Intensity
650.4205,0.168127
652.2841,0.164698
654.1478,0.158548
656.0115,0.154875
657.8751,0.151095
659.7388,0.146374
661.6025,0.146801
663.4661,0.148481
665.3298,0.149346
667.1935,0.150912
669.0571,0.152099
670.9208,0.149413
672.7845,0.148280
674.6481,0.146643
676.5118,0.145727
678.3755,0.142213
680.2392,0.136994
682.1028,0.132480
683.9665,0.127806
685.8302,0.122983
687.6938,0.119261
689.5575,0.115490
691.4212,0.112819
693.2848,0.109752
695.1485,0.107917
697.0122,0.106771
698.8758,0.105560
700.7395,0.104551
702.6032,0.104676
704.4669,0.104429
706.3305,0.102524
708.1942,0.099728
710.0579,0.096878
711.9215,0.093575
713.7852,0.091260
715.6489,0.089002
717.5125,0.086557
719.3762,0.084730
721.2399,0.083179
723.1035,0.081365
724.9672,0.079524
726.8309,0.076918
728.6945,0.073987
730.5582,0.071600
732.4219,0.070115
734.2856,0.068092
736.1492,0.066475
738.0129,0.065555
739.8766,0.065571
741.7402,0.066784
743.6039,0.068049
745.4676,0.068825
747.3312,0.069065
749.1949,0.068828
751.0586,0.069267
752.9222,0.069944
754.7859,0.070094
756.6496,0.070165
758.5132,0.070660
760.3769,0.071045
762.2406,0.071886
764.1043,0.073521
765.9679,0.075856
767.8316,0.078742
769.6953,0.083115
771.5589,0.089460
773.4226,0.097133
775.2863,0.103148
777.1499,0.101858
779.0136,0.092313
780.8773,0.081267
782.7409,0.074026
784.6046,0.070861
786.4683,0.070156
788.3320,0.070680
790.1956,0.071549
792.0593,0.073264
793.9230,0.075414
795.7866,0.078177
797.6503,0.080991
799.5140,0.083642
801.3776,0.087257
803.2413,0.093346
805.1050,0.101928
806.9686,0.113376
808.8323,0.120789
810.6960,0.111133
812.5596,0.088639
814.4233,0.069955
816.2870,0.060674
818.1507,0.057438
820.0143,0.056487
821.8780,0.056687
823.7417,0.057546
825.6053,0.058881
827.4690,0.060596
829.3327,0.062502
831.1963,0.062103
833.0600,0.059441
834.9237,0.057517
836.7873,0.057849
838.6510,0.060368
840.5147,0.064236
842.3784,0.068455
844.2420,0.072872
846.1057,0.076045
847.9694,0.075604
849.8330,0.071076
851.6967,0.064742
853.5604,0.058247
855.4240,0.052259
857.2877,0.047631
859.1514,0.044415
861.0150,0.042393
862.8787,0.041680
864.7424,0.041653
866.6060,0.042058
868.4697,0.042532
870.3334,0.042928
872.1971,0.043407
874.0607,0.044106
875.9244,0.044850
877.7881,0.045545
879.6517,0.046357
881.5154,0.047331
883.3791,0.048304
885.2427,0.049442
887.1064,0.050868
888.9701,0.052464
890.8337,0.054391
892.6974,0.056793
894.5611,0.058940
896.4247,0.059793
898.2884,0.058361
900.1521,0.055422
902.0158,0.053105
903.8794,0.052111
905.7431,0.052625
907.6068,0.054339
909.4704,0.056663
911.3341,0.059336
913.1978,0.062296
915.0614,0.064353
916.9251,0.062858
918.7888,0.058604
920.6524,0.056021
922.5161,0.057166
924.3798,0.059717
926.2435,0.059161
928.1071,0.053914
929.9708,0.048012
931.8345,0.044998
933.6981,0.044365
935.5618,0.044714
937.4255,0.045433
939.2891,0.046279
941.1528,0.047020
943.0165,0.047649
944.8801,0.048397
946.7438,0.049128
948.6075,0.049854
950.4711,0.050539
952.3348,0.051123
954.1985,0.051857
956.0622,0.052753
957.9258,0.053651
959.7895,0.054496
961.6532,0.055442
963.5168,0.056458
965.3805,0.057441
967.2442,0.058596
969.1078,0.060112
970.9715,0.061801
972.8352,0.063724
974.6988,0.066477
976.5625,0.070908
978.4262,0.077945
980.2899,0.087488
982.1535,0.092109
984.0172,0.082926
985.8809,0.069917
987.7445,0.064448
989.6082,0.064699
991.4719,0.066918
993.3355,0.069796
995.1992,0.073211
997.0629,0.076572
998.9265,0.077252
1000.7902,0.073107
1002.6539,0.066468
1004.5175,0.061794
1006.3812,0.060309
1008.2449,0.060627
1010.1086,0.061614
1011.9722,0.062693
1013.8359,0.063613
1015.6996,0.064898
1017.5632,0.066795
1019.4269,0.068619
1021.2906,0.070243
1023.1542,0.071870
1025.0179,0.073428
1026.8816,0.075071
1028.7452,0.076759
1030.6089,0.078634
1032.4726,0.080806
1034.3362,0.083320
1036.1999,0.086287
1038.0636,0.089888
1039.9273,0.094107
1041.7909,0.098854
1043.6546,0.104395
1045.5183,0.110755
1047.3819,0.117580
1049.2456,0.123021
1051.1093,0.122324
1052.9729,0.111879
1054.8366,0.094828
1056.7003,0.079963
1058.5639,0.072073
1060.4276,0.069450
1062.2913,0.069395
1064.1550,0.070501
1066.0186,0.072124
1067.8823,0.074142
1069.7460,0.076641
1071.6096,0.079366
1073.4733,0.082280
1075.3370,0.085677
1077.2006,0.089889
1079.0643,0.094851
1080.9280,0.100114
1082.7916,0.104507
1084.6553,0.106437
1086.5190,0.104400
1088.3826,0.098647
1090.2463,0.093398
1092.1100,0.092429
1093.9737,0.095454
1095.8373,0.100994
1097.7010,0.107746
1099.5647,0.114884
1101.4283,0.121500
1103.2920,0.125157
1105.1557,0.123487
1107.0193,0.117171
1108.8830,0.109124
1110.7467,0.101692
1112.6103,0.095576
1114.4740,0.090621
1116.3377,0.086871
1118.2014,0.084480
1120.0650,0.083549
1121.9287,0.084101
1123.7924,0.085699
1125.6560,0.087958
1127.5197,0.090206
1129.3834,0.090732
1131.2470,0.088345
1133.1107,0.083709
1134.9744,0.078797
1136.8380,0.075469
1138.7017,0.074165
1140.5654,0.074264
1142.4290,0.075408
1144.2927,0.077244
1146.1564,0.079454
1148.0201,0.082026
1149.8837,0.085120
1151.7474,0.088784
1153.6111,0.093114
1155.4747,0.098093
1157.3384,0.103526
1159.2021,0.108356
1161.0657,0.110696
1162.9294,0.109382
1164.7931,0.104565
1166.6567,0.097430
1168.5204,0.089266
1170.3841,0.081870
1172.2477,0.076789
1174.1114,0.073731
1175.9751,0.071453
1177.8388,0.069686
1179.7024,0.068883
1181.5661,0.069154
1183.4298,0.070232
1185.2934,0.071640
1187.1571,0.073253
1189.0208,0.075041
1190.8844,0.076849
1192.7481,0.079104
1194.6118,0.081942
1196.4754,0.085403
1198.3391,0.089754
1200.2028,0.093977
1202.0665,0.095032
1203.9301,0.090375
1205.7938,0.081959
1207.6575,0.074953
1209.5211,0.071906
1211.3848,0.071740
1213.2485,0.072701
1215.1121,0.074062
1216.9758,0.075575
1218.8395,0.076907
1220.7031,0.078118
1222.5668,0.079380
1224.4305,0.080612
1226.2941,0.081758
1228.1578,0.083025
1230.0215,0.084260
1231.8852,0.085324
1233.7488,0.086397
1235.6125,0.087551
1237.4762,0.088783
1239.3398,0.090165
1241.2035,0.091740
1243.0672,0.093616
1244.9308,0.095729
1246.7945,0.098000
1248.6582,0.100514
1250.5218,0.103184
1252.3855,0.105628
1254.2492,0.107004
1256.1129,0.106472
1257.9765,0.104117
1259.8402,0.101157
1261.7039,0.099073
1263.5675,0.098726
1265.4312,0.099943
1267.2949,0.101810
1269.1585,0.103911
1271.0222,0.106379
1272.8859,0.109246
1274.7495,0.112265
1276.6132,0.115384
1278.4769,0.118014
1280.3405,0.118832
1282.2042,0.116467
1284.0679,0.111599
1285.9316,0.106973
1287.7952,0.104495
1289.6589,0.104238
1291.5226,0.105855
1293.3862,0.108921
1295.2499,0.113085
1297.1136,0.117931
1298.9772,0.123234
1300.8409,0.129035
1302.7046,0.135121
1304.5682,0.140410
1306.4319,0.142971
1308.2956,0.140783
1310.1592,0.134340
1312.0229,0.127334
1313.8866,0.122312
1315.7503,0.118773
1317.6139,0.115344
1319.4776,0.112071
1321.3413,0.110851
1323.2049,0.112701
1325.0686,0.117314
1326.9323,0.123184
1328.7959,0.128309
1330.6596,0.130931
1332.5233,0.129891
1334.3869,0.124540
1336.2506,0.115677
1338.1143,0.104964
1339.9780,0.094044
1341.8416,0.085521
1343.7053,0.080951
1345.5690,0.079204
1347.4326,0.079915
1349.2963,0.082648
1351.1600,0.086897
1353.0236,0.092148
1354.8873,0.098241
1356.7510,0.103636
1358.6146,0.105780
1360.4783,0.102924
1362.3420,0.096615
1364.2056,0.090315
1366.0693,0.087728
1367.9330,0.088916
1369.7967,0.091878
1371.6603,0.094754
1373.5240,0.099620
1375.3877,0.105679
1377.2513,0.109648
1379.1150,0.114164
1380.9787,0.119447
1382.8423,0.124304
1384.7060,0.129273
1386.5697,0.136421
1388.4333,0.145130
1390.2970,0.149546
1392.1607,0.152270
1394.0244,0.155622
1395.8880,0.158109
1397.7517,0.157864
1399.6154,0.157238
1401.4790,0.156186
1403.3427,0.155563
1405.2064,0.153944
1407.0700,0.148685
1408.9337,0.140585
1410.7974,0.130619
1412.6610,0.121788
1414.5247,0.117003
1416.3884,0.114544
1418.2520,0.111260
1420.1157,0.105705
1421.9794,0.102120
1423.8431,0.098683
1425.7067,0.092068
1427.5704,0.085538
1429.4341,0.080638
1431.2977,0.077712
1433.1614,0.076673
1435.0251,0.077497
1436.8887,0.081346
1438.7524,0.084303
1440.6161,0.085735
1442.4797,0.088592
1444.3434,0.092195
1446.2071,0.096522
1448.0707,0.102070
1449.9344,0.102908
1451.7981,0.095293
1453.6618,0.085113
1455.5254,0.080345
1457.3891,0.084589
1459.2528,0.089151
1461.1164,0.089496
1462.9801,0.090762
1464.8438,0.093942
1466.7074,0.095404
1468.5711,0.094652
1470.4348,0.094862
1472.2984,0.097976
1474.1621,0.101831
1476.0258,0.103466
1477.8895,0.104807
1479.7531,0.105919
1481.6168,0.106932
1483.4805,0.106572
1485.3441,0.104689
1487.2078,0.102163
1489.0715,0.099287
1490.9351,0.095160
1492.7988,0.089925
1494.6625,0.085924
1496.5261,0.082041
1498.3898,0.078373
1500.2535,0.074769
1502.1171,0.071048
1503.9808,0.067926
1505.8445,0.066917
1507.7082,0.069039
1509.5718,0.067513
1511.4355,0.065670
1513.2992,0.064730
1515.1628,0.064297
1517.0265,0.064843
1518.8902,0.064725
1520.7538,0.065690
1522.6175,0.067959
1524.4812,0.068559
1526.3448,0.069881
1528.2085,0.071159
1530.0722,0.071037
1531.9359,0.072230
1533.7995,0.075638
1535.6632,0.076046
1537.5269,0.074833
1539.3905,0.077790
1541.2542,0.086932
1543.1179,0.089794
1544.9815,0.091675
1546.8452,0.092528
1548.7089,0.093821
1550.5725,0.097461
1552.4362,0.099837
1554.2999,0.101522
1556.1635,0.103392
1558.0272,0.109004
1559.8909,0.125777
1561.7546,0.123438
1563.6182,0.122105
1565.4819,0.125066
1567.3456,0.128490
1569.2092,0.133742
1571.0729,0.139333
1572.9366,0.140411
1574.8002,0.143174
1576.6639,0.150741
1578.5276,0.154161
1580.3912,0.154146
1582.2549,0.154707
1584.1186,0.154527
1585.9822,0.152994
1587.8459,0.150275
1589.7096,0.146853
1591.5733,0.143599
1593.4369,0.141339
1595.3006,0.140379
1597.1643,0.140608
1599.0279,0.142023
1600.8916,0.144854
1602.7553,0.148690
1604.6189,0.152570
1606.4826,0.155920
1608.3463,0.158644
1610.2099,0.159795
1612.0736,0.159344
1613.9373,0.158601
1615.8010,0.158032
1617.6646,0.155793
1619.5283,0.153293
1621.3920,0.150551
1623.2556,0.145677
1625.1193,0.138892
1626.9830,0.133215
1628.8466,0.125682
1630.7103,0.118336
1632.5740,0.112390
1634.4376,0.106309
1636.3013,0.097337
1638.1650,0.091526
1640.0286,0.088020
1641.8923,0.083953
1643.7560,0.080215
1645.6197,0.077106
1647.4833,0.072633
1649.3470,0.069687
1651.2107,0.068336
1653.0743,0.065436
1654.9380,0.061292
1656.8017,0.060463
1658.6653,0.058946
1660.5290,0.057183
1662.3927,0.055638
1664.2563,0.054658
1666.1200,0.054418
1667.9837,0.054827
1669.8474,0.056695
1671.7110,0.059586
1673.5747,0.062354
1675.4384,0.067433
1677.3020,0.073746
1679.1657,0.078076
1681.0294,0.083090
1682.8930,0.086162
1684.7567,0.083636
1686.6204,0.078269
1688.4840,0.072637
1690.3477,0.063864
1692.2114,0.055322
1694.0750,0.049147
1695.9387,0.042208
1697.8024,0.036307
1699.6661,0.033915
1701.5297,0.030520
1703.3934,0.028758
1705.2571,0.026692
1707.1207,0.023465
1708.9844,0.021446
1710.8481,0.019897
1712.7117,0.018466
1714.5754,0.017379
1716.4391,0.016645
1718.3027,0.016081
1720.1664,0.015865
1722.0301,0.015670
1723.8937,0.015185
1725.7574,0.014370
1727.6211,0.013679
1729.4848,0.012938
1731.3484,0.012043
1733.2121,0.011400
1735.0758,0.011098
1736.9394,0.010750
1738.8031,0.010489
1740.6668,0.010323
1742.5304,0.010259
1744.3941,0.010093
1746.2578,0.009993
1748.1214,0.009793
1749.9851,0.009500
1751.8488,0.009478
1753.7125,0.009400
1755.5761,0.009148
1757.4398,0.009143
1759.3035,0.009136
1761.1671,0.009250
1763.0308,0.009420
1764.8945,0.009355
1766.7581,0.009147
1768.6218,0.008987
1770.4855,0.008908
1772.3491,0.009095
1774.2128,0.009200
1776.0765,0.009197
1777.9401,0.009255
1779.8038,0.009389
1781.6675,0.009546
1783.5312,0.009545
1785.3948,0.009596
1787.2585,0.009696
1789.1222,0.009635
1790.9858,0.009576
1792.8495,0.009703
1794.7132,0.009773
1796.5768,0.009823
1798.4405,0.009868
1800.3042,0.009754
1802.1678,0.009687
1804.0315,0.009720
1805.8952,0.009586
1807.7589,0.009312
1809.6225,0.009293
1811.4862,0.009466
1813.3499,0.009571
1815.2135,0.009541
1817.0772,0.009419
1818.9409,0.009520
1820.8045,0.009696
1822.6682,0.009827
1824.5319,0.009927
1826.3955,0.009769
1828.2592,0.009619
1830.1229,0.009774
1831.9865,0.009925
1833.8502,0.009765
1835.7139,0.009746
1837.5776,0.009831
1839.4412,0.009723
1841.3049,0.009566
1843.1686,0.009920
1845.0322,0.010345
1846.8959,0.010105
1848.7596,0.009909
1850.6232,0.010110
1852.4869,0.010201
1854.3506,0.010053
1856.2142,0.010022
1858.0779,0.010198
1859.9416,0.010282
1861.8052,0.010271
1863.6689,0.010171
1865.5326,0.010064
1867.3963,0.010153
1869.2599,0.010495
1871.1236,0.010687
1872.9873,0.010616
1874.8509,0.010541
1876.7146,0.010594
1878.5783,0.010432
1880.4419,0.010351
1882.3056,0.010691
1884.1693,0.010891
1886.0329,0.010842
1887.8966,0.010667
1889.7603,0.010427
1891.6240,0.010466
1893.4876,0.010573
1895.3513,0.010792
1897.2150,0.010890
1899.0786,0.010534
1900.9423,0.010426
1902.8060,0.010848
1904.6696,0.010986
1906.5333,0.011076
1908.3970,0.011527
1910.2606,0.011451
1912.1243,0.010877
1913.9880,0.010659
1915.8516,0.010936
1917.7153,0.011459
1919.5790,0.011142
1921.4427,0.010558
1923.3063,0.010788
1925.1700,0.010663
1927.0337,0.010166
1928.8973,0.010547
1930.7610,0.010895
1932.6247,0.010627
1934.4883,0.010910
1936.3520,0.011623
1938.2157,0.011572
1940.0793,0.011361
1941.9430,0.011538
1943.8067,0.011090
1945.6704,0.010562
1947.5340,0.010814
1949.3977,0.010801
1951.2614,0.010640
1953.1250,0.010500
1954.9887,0.009680
1956.8524,0.009318
1958.7160,0.009576
1960.5797,0.008927
1962.4434,0.009136
1964.3070,0.010354
1966.1707,0.009941
1968.0344,0.008355
1969.8980,0.007740
1971.7617,0.007951
1973.6254,0.007449
1975.4891,0.006828
1977.3527,0.008310
1979.2164,0.010417
1981.0801,0.010200
1982.9437,0.009502
1984.8074,0.010455
1986.6711,0.011522
1988.5347,0.011670
1990.3984,0.011397
1992.2621,0.010435
1994.1257,0.008938
1995.9894,0.009368
1997.8531,0.010806
1999.7167,0.011464
2001.5804,0.012022
2003.4441,0.011561
2005.3078,0.010173
2007.1714,0.009859
2009.0351,0.009338
2010.8988,0.010048
2012.7624,0.012412
2014.6261,0.012341
2016.4898,0.010582
2018.3534,0.010619
2020.2171,0.010875
2022.0808,0.011078
2023.9444,0.011832
2025.8081,0.011861
2027.6718,0.011281
2029.5355,0.011176
2031.3991,0.012834
2033.2628,0.014685
2035.1265,0.013914
2036.9901,0.013124
2038.8538,0.013404
2040.7175,0.012690
2042.5811,0.012467
2044.4448,0.013312
2046.3085,0.013352
2048.1721,0.013455
2050.0358,0.014229
2051.8995,0.014683
2053.7631,0.014596
2055.6268,0.014702
2057.4905,0.014652
2059.3542,0.014627
2061.2178,0.014990
2063.0815,0.014691
2064.9452,0.014019
2066.8088,0.013762
2068.6725,0.013738
2070.5362,0.013842
2072.3998,0.013745
2074.2635,0.013691
2076.1272,0.014465
2077.9908,0.015393
2079.8545,0.015213
2081.7182,0.014543
2083.5819,0.014436
2085.4455,0.014223
2087.3092,0.014132
2089.1729,0.014599
2091.0365,0.014452
2092.9002,0.014163
2094.7639,0.014585
2096.6275,0.014819
2098.4912,0.013782
2100.3549,0.013164
2102.2185,0.013820
2104.0822,0.014246
2105.9459,0.014103
2107.8095,0.013790
2109.6732,0.014473
2111.5369,0.015138
2113.4006,0.014969
2115.2642,0.014497
2117.1279,0.014264
2118.9916,0.014382
2120.8552,0.014049
2122.7189,0.013763
2124.5826,0.014457
2126.4462,0.014889
2128.3099,0.013960
2130.1736,0.013793
2132.0372,0.013868
2133.9009,0.012785
2135.7646,0.012471
2137.6282,0.012068
2139.4919,0.011140
2141.3556,0.011422
2143.2193,0.011075
2145.0829,0.010381
2146.9466,0.011624
2148.8103,0.012020
2150.6739,0.010553
2152.5376,0.008987
2154.4013,0.006952
2156.2649,0.005211
2158.1286,0.004649
2159.9923,0.007015
2161.8559,0.009238
2163.7196,0.008221
2165.5833,0.008884
2167.4470,0.010328
2169.3106,0.009451
2171.1743,0.007949
2173.0380,0.007822
2174.9016,0.008436
2176.7653,0.009020
2178.6290,0.009655
2180.4926,0.010422
2182.3563,0.010895
2184.2200,0.011415
2186.0836,0.012799
2187.9473,0.012927
2189.8110,0.011435
2191.6746,0.011175
2193.5383,0.012468
2195.4020,0.013787
2197.2657,0.014070
2199.1293,0.013557
2200.9930,0.013321
2202.8567,0.013792
2204.7203,0.013714
2206.5840,0.012903
2208.4477,0.013262
2210.3113,0.014445
2212.1750,0.014934
2214.0387,0.014863
2215.9023,0.014840
2217.7660,0.014822
2219.6297,0.015340
2221.4934,0.015486
2223.3570,0.015385
2225.2207,0.015611
2227.0844,0.015282
2228.9480,0.015697
2230.8117,0.016940
2232.6754,0.017388
2234.5390,0.017407
2236.4027,0.017501
2238.2664,0.017381
2240.1300,0.017196
2241.9937,0.017840
2243.8574,0.018548
2245.7210,0.018500
2247.5847,0.018519
2249.4484,0.018185
2251.3121,0.018169
2253.1757,0.018844
2255.0394,0.019605
2256.9031,0.019744
2258.7667,0.019110
2260.6304,0.018821
2262.4941,0.019293
2264.3577,0.020153
2266.2214,0.020515
2268.0851,0.020214
2269.9487,0.020205
2271.8124,0.020618
2273.6761,0.020625
2275.5397,0.020670
2277.4034,0.021168
2279.2671,0.021847
2281.1308,0.022192
2282.9944,0.022256
2284.8581,0.022464
2286.7218,0.022651
2288.5854,0.022856
2290.4491,0.022782
2292.3128,0.022529
2294.1764,0.022630
2296.0401,0.022970
2297.9038,0.023238
2299.7674,0.023156
2301.6311,0.022987
2303.4948,0.023257
2305.3585,0.023779
2307.2221,0.023978
2309.0858,0.023721
2310.9495,0.023628
2312.8131,0.023804
2314.6768,0.023711
2316.5405,0.023373
2318.4041,0.023279
2320.2678,0.023889
2322.1315,0.024628
2323.9951,0.024578
2325.8588,0.023863
2327.7225,0.023259
2329.5861,0.023244
2331.4498,0.023410
2333.3135,0.023165
2335.1772,0.022930
2337.0408,0.023417
2338.9045,0.023903
2340.7682,0.023858
2342.6318,0.023991
2344.4955,0.024462
2346.3592,0.024684
2348.2228,0.024249
2350.0865,0.023659
2351.9502,0.023414
2353.8138,0.023781
2355.6775,0.024145
2357.5412,0.023773
2359.4049,0.023687
2361.2685,0.023776
2363.1322,0.023554
2364.9959,0.023704
2366.8595,0.024367
2368.7232,0.024754
2370.5869,0.024856
2372.4505,0.025242
2374.3142,0.025528
2376.1779,0.025773
2378.0415,0.025890
2379.9052,0.025787
2381.7689,0.025763
2383.6325,0.025804
2385.4962,0.025792
2387.3599,0.025816
2389.2236,0.026179
2391.0872,0.026577
2392.9509,0.026389
2394.8146,0.026160
2396.6782,0.026428
2398.5419,0.026765
2400.4056,0.026761
2402.2692,0.026531
2404.1329,0.026534
2405.9966,0.026712
2407.8602,0.026896
2409.7239,0.027007
2411.5876,0.026808
2413.4512,0.026643
2415.3149,0.026707
2417.1786,0.026947
2419.0423,0.027151
2420.9059,0.027221
2422.7696,0.027617
2424.6333,0.027935
2426.4969,0.027611
2428.3606,0.027666
2430.2243,0.028273
2432.0879,0.028550
2433.9516,0.028415
2435.8153,0.028576
2437.6789,0.029114
2439.5426,0.029568
2441.4063,0.029636
2443.2700,0.029146
2445.1336,0.028938
2446.9973,0.029399
2448.8610,0.029607
2450.7246,0.029633
2452.5883,0.029780
2454.4520,0.030002
2456.3156,0.030147
2458.1793,0.030232
2460.0430,0.030408
2461.9066,0.030554
2463.7703,0.030691
2465.6340,0.030998
2467.4976,0.031005
2469.3613,0.031104
2471.2250,0.031597
2473.0887,0.031633
2474.9523,0.031379
2476.8160,0.031464
2478.6797,0.031901
2480.5433,0.032417
2482.4070,0.032821
2484.2707,0.033031
2486.1343,0.033135
2487.9980,0.033074
2489.8617,0.032978
2491.7253,0.033281
2493.5890,0.033674
2495.4527,0.033533
2497.3164,0.033295
2499.1800,0.033497
2501.0437,0.033729
2502.9074,0.033941
2504.7710,0.033819
2506.6347,0.033469
2508.4984,0.033569
2510.3620,0.034298
2512.2257,0.035012
2514.0894,0.034943
2515.9530,0.034803
2517.8167,0.035199
2519.6804,0.035170
2521.5440,0.034964
2523.4077,0.035402
2525.2714,0.036103
2527.1351,0.035962
2528.9987,0.035624
2530.8624,0.036161
2532.7261,0.036832
2534.5897,0.037098
2536.4534,0.037257
2538.3171,0.037260
2540.1807,0.037231
2542.0444,0.037570
2543.9081,0.037878
2545.7717,0.037654
2547.6354,0.037279
2549.4991,0.037039
2551.3627,0.037163
2553.2264,0.037683
2555.0901,0.037986
2556.9538,0.037788
2558.8174,0.037548
2560.6811,0.037476
2562.5448,0.037966
2564.4084,0.038237
2566.2721,0.037804
2568.1358,0.037995
2569.9994,0.038884
2571.8631,0.039416
2573.7268,0.039487
2575.5904,0.039344
2577.4541,0.039439
2579.3178,0.039751
2581.1815,0.040175
2583.0451,0.040532
2584.9088,0.040870
2586.7725,0.040885
2588.6361,0.040686
2590.4998,0.041096
2592.3635,0.041974
2594.2271,0.041996
2596.0908,0.041826
2597.9545,0.042285
2599.8181,0.042412
2601.6818,0.042456
2603.5455,0.042759
2605.4091,0.043184
2607.2728,0.043510
2609.1365,0.043325
2611.0002,0.043298
2612.8638,0.043420
2614.7275,0.043367
2616.5912,0.043210
2618.4548,0.043466
2620.3185,0.043685
2622.1822,0.043386
2624.0458,0.043215
2625.9095,0.043457
2627.7732,0.043508
2629.6368,0.043299
2631.5005,0.043151
2633.3642,0.043352
2635.2279,0.043508
2637.0915,0.043439
2638.9552,0.043430
2640.8189,0.043574
2642.6825,0.043535
2644.5462,0.043360
2646.4099,0.043253
2648.2735,0.043117
2650.1372,0.042948
2652.0009,0.042827
2653.8645,0.042641
2655.7282,0.042334
2657.5919,0.041936
2659.4555,0.041714
2661.3192,0.041724
2663.1829,0.041611
2665.0466,0.041389
2666.9102,0.041262
2668.7739,0.041205
2670.6376,0.041504
2672.5012,0.041920
2674.3649,0.042104
2676.2286,0.042229
2678.0922,0.042444
2679.9559,0.042777
2681.8196,0.043084
2683.6832,0.043293
2685.5469,0.043399
2687.4106,0.043520
2689.2742,0.043844
2691.1379,0.044165
2693.0016,0.044461
2694.8653,0.044630
2696.7289,0.044786
2698.5926,0.045145
2700.4563,0.045388
2702.3199,0.045476
2704.1836,0.045611
2706.0473,0.045822
2707.9109,0.046199
2709.7746,0.046430
2711.6383,0.046275
2713.5019,0.046256
2715.3656,0.046523
2717.2293,0.046486
2719.0930,0.046345
2720.9566,0.046547
2722.8203,0.046826
2724.6840,0.046896
2726.5476,0.047004
2728.4113,0.047183
2730.2750,0.047123
2732.1386,0.047029
2734.0023,0.047050
2735.8660,0.046988
2737.7296,0.047043
2739.5933,0.046668
2741.4570,0.046275
2743.3206,0.046301
2745.1843,0.046290
2747.0480,0.046328
2748.9117,0.046562
2750.7753,0.046950
2752.6390,0.047032
2754.5027,0.046872
2756.3663,0.046906
2758.2300,0.047217
2760.0937,0.047850
2761.9573,0.048442
2763.8210,0.048680
2765.6847,0.048892
2767.5483,0.049346
2769.4120,0.049662
2771.2757,0.049814
2773.1394,0.050190
2775.0030,0.050575
2776.8667,0.050947
2778.7304,0.051281
2780.5940,0.051270
2782.4577,0.051222
2784.3214,0.051120
2786.1850,0.050848
2788.0487,0.050604
2789.9124,0.050697
2791.7760,0.050757
2793.6397,0.050747
2795.5034,0.050702
2797.3670,0.050453
2799.2307,0.050372
2801.0944,0.050248
2802.9581,0.050020
2804.8217,0.050258
2806.6854,0.050316
2808.5491,0.049985
2810.4127,0.050092
2812.2764,0.050608
2814.1401,0.050568
2816.0037,0.050418
2817.8674,0.050570
2819.7311,0.050919
2821.5947,0.051211
2823.4584,0.051140
2825.3221,0.051024
2827.1857,0.051075
2829.0494,0.050795
2830.9131,0.050465
2832.7768,0.050800
2834.6404,0.051283
2836.5041,0.051313
2838.3678,0.051555
2840.2314,0.052016
2842.0951,0.052262
2843.9588,0.052243
2845.8224,0.052406
2847.6861,0.052701
2849.5498,0.053157
2851.4134,0.053563
2853.2771,0.053803
2855.1408,0.053933
2857.0045,0.054110
2858.8681,0.054339
2860.7318,0.054616
2862.5955,0.054911
2864.4591,0.055135
2866.3228,0.055132
2868.1865,0.055293
2870.0501,0.055346
2871.9138,0.055133
2873.7775,0.055119
2875.6411,0.055543
2877.5048,0.055576
2879.3685,0.055415
2881.2321,0.055543
2883.0958,0.055727
2884.9595,0.055693
2886.8232,0.055550
2888.6868,0.055591
2890.5505,0.055872
2892.4142,0.056180
2894.2778,0.056129
2896.1415,0.056172
2898.0052,0.056526
2899.8688,0.056524
2901.7325,0.056613
2903.5962,0.056923
2905.4598,0.057007
2907.3235,0.056918
2909.1872,0.057174
2911.0509,0.057774
2912.9145,0.058249
2914.7782,0.058437
2916.6419,0.058657
2918.5055,0.058918
2920.3692,0.059384
2922.2329,0.059870
2924.0965,0.060271
2925.9602,0.060413
2927.8239,0.060568
2929.6875,0.061073
2931.5512,0.061825
2933.4149,0.062043
2935.2785,0.061860
2937.1422,0.061419
2939.0059,0.061048
2940.8696,0.061179
2942.7332,0.061305
2944.5969,0.061279
2946.4606,0.061604
2948.3242,0.061780
2950.1879,0.061781
2952.0516,0.061650
2953.9152,0.061646
2955.7789,0.061695
2957.6426,0.061625
2959.5062,0.061375
2961.3699,0.060546
2963.2336,0.059959
2965.0972,0.060090
2966.9609,0.060241
2968.8246,0.060552
2970.6883,0.060942
2972.5519,0.061233
2974.4156,0.061952
2976.2793,0.062720
2978.1429,0.062788
2980.0066,0.063161
2981.8703,0.064015
2983.7339,0.064275
2985.5976,0.063668
2987.4613,0.063172
2989.3249,0.063426
2991.1886,0.063661
2993.0523,0.063130
2994.9160,0.062859
2996.7796,0.063294
2998.6433,0.063848
3000.5070,0.063873
3002.3706,0.064169
3004.2343,0.064743
3006.0980,0.064622
3007.9616,0.064513
3009.8253,0.064644
3011.6890,0.064397
3013.5526,0.064367
3015.4163,0.064627
3017.2800,0.064883
3019.1436,0.064870
3021.0073,0.064847
3022.8710,0.064625
3024.7347,0.064350
3026.5983,0.064278
3028.4620,0.063758
3030.3257,0.063133
3032.1893,0.063367
3034.0530,0.063823
3035.9167,0.063811
3037.7803,0.063157
3039.6440,0.063048
3041.5077,0.063801
3043.3713,0.063901
3045.2350,0.063456
3047.0987,0.063535
3048.9624,0.063612
3050.8260,0.063717
3052.6897,0.063803
3054.5534,0.063663
3056.4170,0.063338
3058.2807,0.063135
3060.1444,0.063303
3062.0080,0.063230
3063.8717,0.063062
3065.7354,0.063344
3067.5990,0.063305
3069.4627,0.063238
3071.3264,0.063189
3073.1900,0.063060
3075.0537,0.062713
3076.9174,0.062690
3078.7811,0.062966
3080.6447,0.063071
3082.5084,0.063308
3084.3721,0.063356
3086.2357,0.062993
3088.0994,0.062547
3089.9631,0.062550
3091.8267,0.062781
3093.6904,0.062562
3095.5541,0.062396
3097.4177,0.062041
3099.2814,0.061997
3101.1451,0.062310
3103.0087,0.062821
3104.8724,0.062885
3106.7361,0.062413
3108.5998,0.061961
3110.4634,0.061866
3112.3271,0.061978
3114.1908,0.062158
3116.0544,0.062155
3117.9181,0.062254
3119.7818,0.062421
3121.6454,0.062855
3123.5091,0.063118
3125.3728,0.062704
3127.2364,0.062352
3129.1001,0.062514
3130.9638,0.062354
3132.8275,0.062282
3134.6911,0.062359
3136.5548,0.062461
3138.4185,0.062655
3140.2821,0.062834
3142.1458,0.062235
3144.0095,0.061937
3145.8731,0.062677
3147.7368,0.063280
3149.6005,0.063531
3151.4641,0.064277
3153.3278,0.065360
3155.1915,0.066370
3157.0551,0.066455
3158.9188,0.065953
3160.7825,0.065454
3162.6462,0.065808
3164.5098,0.066187
3166.3735,0.065965
3168.2372,0.065496
3170.1008,0.064929
3171.9645,0.064210
3173.8282,0.064157
3175.6918,0.063682
3177.5555,0.062763
3179.4192,0.062150
3181.2828,0.061532
3183.1465,0.061087
3185.0102,0.060496
3186.8739,0.059825
3188.7375,0.059853
3190.6012,0.059281
3192.4649,0.058648
3194.3285,0.058987
3196.1922,0.059469
3198.0559,0.059381
3199.9195,0.059566
3201.7832,0.059862
3203.6469,0.059881
3205.5105,0.060280
3207.3742,0.060742
3209.2379,0.060520
3211.1015,0.060335
3212.9652,0.059432
3214.8289,0.058333
3216.6926,0.057795
3218.5562,0.056198
3220.4199,0.054797
3222.2836,0.054188
3224.1472,0.052942
3226.0109,0.051080
3227.8746,0.049510
3229.7382,0.048554
3231.6019,0.047511
3233.4656,0.046797
3235.3292,0.046989
3237.1929,0.047049
3239.0566,0.046384
3240.9202,0.046338
3242.7839,0.045930
3244.6476,0.046117
3246.5113,0.046886
3248.3749,0.046435
3250.2386,0.045654
3252.1023,0.046603
3253.9659,0.047396
3255.8296,0.047674
3257.6933,0.047949
3259.5569,0.048321
3261.4206,0.047989
3263.2843,0.048288
3265.1479,0.048757
3267.0116,0.048916
3268.8753,0.048790
3270.7390,0.048738
3272.6026,0.048399
3274.4663,0.049128
3276.3300,0.049919
3278.1936,0.049064
3280.0573,0.048294
3281.9210,0.048327
3283.7846,0.047358
3285.6483,0.046549
3287.5120,0.045846
3289.3756,0.045549
3291.2393,0.045795
3293.1030,0.045854
3294.9666,0.045847
3296.8303,0.045907
3298.6940,0.045516
3300.5577,0.045176
3302.4213,0.045049
3304.2850,0.044955
3306.1487,0.044879
3308.0123,0.044755
3309.8760,0.044777
3311.7397,0.044996
3313.6033,0.044836
3315.4670,0.044914
3317.3307,0.045209
3319.1943,0.044352
3321.0580,0.043317
3322.9217,0.043637
3324.7854,0.043395
3326.6490,0.042246
3328.5127,0.042379
3330.3764,0.042709
3332.2400,0.042009
3334.1037,0.040851
3335.9674,0.040056
3337.8310,0.039193
3339.6947,0.037963
3341.5584,0.038070
3343.4220,0.038055
3345.2857,0.037303
3347.1494,0.036031
3349.0130,0.034807
3350.8767,0.034163
3352.7404,0.034562
3354.6041,0.034162
3356.4677,0.032944
3358.3314,0.031784
3360.1951,0.031947
3362.0587,0.032446
3363.9224,0.032208
3365.7861,0.032461
3367.6497,0.033608
3369.5134,0.033186
3371.3771,0.032454
3373.2407,0.032414
3375.1044,0.033173
3376.9681,0.034384
3378.8317,0.035241
3380.6954,0.035980
3382.5591,0.037191
3384.4228,0.037999
3386.2864,0.038933
3388.1501,0.040134
3390.0138,0.041391
3391.8774,0.043397
3393.7411,0.046355
3395.6048,0.047579
3397.4684,0.048561
3399.3321,0.049724
3401.1958,0.050138
3403.0594,0.049558
3404.9231,0.048405
3406.7868,0.046584
3408.6505,0.043757
3410.5141,0.040669
3412.3778,0.037954
3414.2415,0.035142
3416.1051,0.032358
3417.9688,0.029046
3419.8325,0.026422
3421.6961,0.025606
3423.5598,0.024492
3425.4235,0.021596
3427.2871,0.019855
3429.1508,0.018801
3431.0145,0.017392
3432.8781,0.016815
3434.7418,0.016682
3436.6055,0.015757
3438.4692,0.015264
3440.3328,0.015666
3442.1965,0.015015
3444.0602,0.012956
3445.9238,0.012515
3447.7875,0.012928
3449.6512,0.012424
3451.5148,0.012099
3453.3785,0.012400
3455.2422,0.011901
3457.1058,0.011425
3458.9695,0.011504
3460.8332,0.011952
3462.6969,0.011709
3464.5605,0.010274
3466.4242,0.010134
3468.2879,0.011232
3470.1515,0.011356
3472.0152,0.010668
3473.8789,0.009747
3475.7425,0.009371
3477.6062,0.010097
3479.4699,0.010688
3481.3335,0.009745
3483.1972,0.008600
3485.0609,0.008264
3486.9245,0.008951
3488.7882,0.008981
3490.6519,0.009026
3492.5156,0.008408
3494.3792,0.008446
3496.2429,0.008789
3498.1066,0.009163
3499.9702,0.008916
3501.8339,0.008322
3503.6976,0.007583
3505.5612,0.008149
3507.4249,0.008414
3509.2886,0.007131
3511.1522,0.006978
3513.0159,0.007128
3514.8796,0.006653
3516.7432,0.008006
3518.6069,0.008747
3520.4706,0.008424
3522.3343,0.007963
3524.1979,0.007702
3526.0616,0.006536
3527.9253,0.006371
3529.7889,0.005757
3531.6526,0.005878
3533.5163,0.005892
3535.3799,0.005931
3537.2436,0.005898
3539.1073,0.005864
3540.9709,0.006423
3542.8346,0.007000
3544.6983,0.007833
3546.5620,0.007582
3548.4256,0.006839
3550.2893,0.007293
3552.1530,0.006893
3554.0166,0.006403
3555.8803,0.006757
3557.7440,0.006470
3559.6076,0.005378
3561.4713,0.005789
3563.3350,0.006281
3565.1986,0.005813
3567.0623,0.005010
3568.9260,0.005255
3570.7896,0.005111
3572.6533,0.006141
3574.5170,0.007326
3576.3807,0.007103
3578.2443,0.006425
3580.1080,0.006926
3581.9717,0.006575
3583.8353,0.006344
3585.6990,0.007017
3587.5627,0.006233
3589.4263,0.004696
3591.2900,0.005970
3593.1537,0.006341
3595.0173,0.006832
3596.8810,0.007606
3598.7447,0.006670
3600.6084,0.006237
3602.4720,0.007348
3604.3357,0.008155
3606.1994,0.007580
3608.0630,0.006956
3609.9267,0.007258
3611.7904,0.007602
3613.6540,0.006773
3615.5177,0.005980
3617.3814,0.006635
3619.2450,0.006058
3621.1087,0.005096
3622.9724,0.006359
3624.8360,0.007897
3626.6997,0.007639
3628.5634,0.007079
3630.4271,0.006608
3632.2907,0.007131
3634.1544,0.007882
3636.0181,0.008416
3637.8817,0.008216
3639.7454,0.007688
3641.6091,0.007911
3643.4727,0.007925
3645.3364,0.006528
3647.2001,0.004616
3649.0637,0.003930
3650.9274,0.006129
3652.7911,0.007697
3654.6547,0.008557
3656.5184,0.008505
3658.3821,0.008434
3660.2458,0.008452
3662.1094,0.008498
3663.9731,0.009149
3665.8368,0.008572
3667.7004,0.007359
3669.5641,0.007400
3671.4278,0.007669
3673.2914,0.007874
3675.1551,0.007537
3677.0188,0.006160
3678.8824,0.006639
3680.7461,0.007522
3682.6098,0.007923
3684.4735,0.008516
3686.3371,0.008679
3688.2008,0.008589
3690.0645,0.007360
3691.9281,0.007480
3693.7918,0.008815
3695.6555,0.009636
3697.5191,0.009663
3699.3828,0.009624
3701.2465,0.009590
3703.1101,0.009506
3704.9738,0.008921
3706.8375,0.008580
3708.7011,0.009079
3710.5648,0.009120
3712.4285,0.008772
3714.2922,0.008454
3716.1558,0.008548
3718.0195,0.009299
3719.8832,0.009466
3721.7468,0.008997
3723.6105,0.008548
3725.4742,0.008749
3727.3378,0.009021
3729.2015,0.009523
3731.0652,0.009615
3732.9288,0.008978
3734.7925,0.007211
3736.6562,0.006836
3738.5199,0.007104
3740.3835,0.007606
3742.2472,0.008525
3744.1109,0.008606
3745.9745,0.006701
3747.8382,0.006437
3749.7019,0.006445
3751.5655,0.005965
3753.4292,0.007669
3755.2929,0.008883
3757.1565,0.009086
3759.0202,0.009487
3760.8839,0.009710
3762.7475,0.009435
3764.6112,0.009514
3766.4749,0.009666
3768.3386,0.009376
3770.2022,0.009334
3772.0659,0.010103
3773.9296,0.010394
3775.7932,0.010049
3777.6569,0.010702
3779.5206,0.010438
3781.3842,0.010187
3783.2479,0.010408
3785.1116,0.009869
3786.9752,0.010062
3788.8389,0.010293
3790.7026,0.010396
3792.5662,0.010283
3794.4299,0.009848
3796.2936,0.009313
3798.1573,0.008874
3800.0209,0.009641
3801.8846,0.009452
3803.7483,0.008846
3805.6119,0.009729
3807.4756,0.009779
3809.3393,0.009641
3811.2029,0.010434
3813.0666,0.009984
3814.9303,0.009249
3816.7939,0.009365
3818.6576,0.009861
3820.5213,0.009849
3822.3850,0.009472
3824.2486,0.009934
3826.1123,0.010555
3827.9760,0.010016
3829.8396,0.010081
3831.7033,0.010402
3833.5670,0.010671
3835.4306,0.010532
3837.2943,0.009559
3839.1580,0.008629
3841.0216,0.008414
3842.8853,0.009039
3844.7490,0.009948
3846.6126,0.010330
3848.4763,0.010342
3850.3400,0.009816
3852.2037,0.009454
3854.0673,0.007939
3855.9310,0.007939
3857.7947,0.009806
3859.6583,0.010075
3861.5220,0.009871
3863.3857,0.010486
3865.2493,0.010599
3867.1130,0.010485
3868.9767,0.010296
3870.8403,0.009528
3872.7040,0.009785
3874.5677,0.010584
3876.4314,0.011235
3878.2950,0.011269
3880.1587,0.010381
3882.0224,0.010454
3883.8860,0.010056
3885.7497,0.010746
3887.6134,0.011183
3889.4770,0.011103
3891.3407,0.010741
3893.2044,0.010481
3895.0680,0.010344
3896.9317,0.010203
3898.7954,0.009732
3900.6590,0.009464
3902.5227,0.010027
3904.3864,0.011263
3906.2501,0.011570
3908.1137,0.011694
3909.9774,0.011631
3911.8411,0.011636
3913.7047,0.011091
3915.5684,0.010344
3917.4321,0.010191
3919.2957,0.010939
3921.1594,0.011092
3923.0231,0.010719
3924.8867,0.010614
3926.7504,0.011168
3928.6141,0.011844
3930.4777,0.011755
3932.3414,0.010757
3934.2051,0.010796
3936.0688,0.011634
3937.9324,0.012182
3939.7961,0.012296
3941.6598,0.011910
3943.5234,0.011420
3945.3871,0.011536
3947.2508,0.011841
3949.1144,0.011608
3950.9781,0.011117
3952.8418,0.011838
3954.7054,0.011886
3956.5691,0.011435
3958.4328,0.011917
3960.2965,0.012739
3962.1601,0.012507
3964.0238,0.011971
3965.8875,0.011284
3967.7511,0.011548
3969.6148,0.012120
3971.4785,0.012560
3973.3421,0.012079
3975.2058,0.011354
3977.0695,0.010962
3978.9331,0.011240
3980.7968,0.011775
3982.6605,0.012040
3984.5241,0.012188
3986.3878,0.012350
3988.2515,0.012563
3990.1152,0.012734
3991.9788,0.012475
3993.8425,0.012474
3995.7062,0.011888
3997.5698,0.011552
3999.4335,0.012025
