Wavenumber,Intensity
650.4205,0.143171
652.2841,0.142938
654.1478,0.139008
656.0115,0.133703
657.8751,0.131222
659.7388,0.129628
661.6025,0.131236
663.4661,0.132388
665.3298,0.131833
667.1935,0.130594
669.0571,0.132329
670.9208,0.131915
672.7845,0.131073
674.6481,0.130011
676.5118,0.128084
678.3755,0.123408
680.2392,0.118192
682.1028,0.113239
683.9665,0.108295
685.8302,0.102563
687.6938,0.098619
689.5575,0.095762
691.4212,0.092255
693.2848,0.088669
695.1485,0.086346
697.0122,0.084652
698.8758,0.083472
700.7395,0.082167
702.6032,0.081556
704.4669,0.081343
706.3305,0.079860
708.1942,0.077329
710.0579,0.075658
711.9215,0.074716
713.7852,0.073852
715.6489,0.073543
717.5125,0.072144
719.3762,0.070485
721.2399,0.069415
723.1035,0.068918
724.9672,0.067807
726.8309,0.066047
728.6945,0.064176
730.5582,0.062064
732.4219,0.060889
734.2856,0.060064
736.1492,0.058805
738.0129,0.057594
739.8766,0.057936
741.7402,0.059071
743.6039,0.059804
745.4676,0.060564
747.3312,0.061430
749.1949,0.062001
751.0586,0.061956
752.9222,0.061849
754.7859,0.062373
756.6496,0.063251
758.5132,0.064012
760.3769,0.064355
762.2406,0.065794
764.1043,0.067953
765.9679,0.070536
767.8316,0.074662
769.6953,0.080431
771.5589,0.087426
773.4226,0.095838
775.2863,0.102356
777.1499,0.100050
779.0136,0.088346
780.8773,0.075724
782.7409,0.067372
784.6046,0.062904
786.4683,0.061691
788.3320,0.062338
790.1956,0.063400
792.0593,0.064947
793.9230,0.067138
795.7866,0.069490
797.6503,0.072212
799.5140,0.075717
801.3776,0.080374
803.2413,0.087129
805.1050,0.097081
806.9686,0.110122
808.8323,0.118158
810.6960,0.107235
812.5596,0.082068
814.4233,0.061279
816.2870,0.051438
818.1507,0.048126
820.0143,0.047582
821.8780,0.048325
823.7417,0.049150
825.6053,0.050414
827.4690,0.052485
829.3327,0.054501
831.1963,0.055443
833.0600,0.055302
834.9237,0.055402
836.7873,0.056943
838.6510,0.060179
840.5147,0.064446
842.3784,0.069468
844.2420,0.074809
846.1057,0.078521
847.9694,0.078180
849.8330,0.072934
851.6967,0.065607
853.5604,0.058179
855.4240,0.050889
857.2877,0.044620
859.1514,0.040575
861.0150,0.038670
862.8787,0.038079
864.7424,0.038084
866.6060,0.038424
868.4697,0.038816
870.3334,0.039267
872.1971,0.039701
874.0607,0.040273
875.9244,0.041073
877.7881,0.041760
879.6517,0.042665
881.5154,0.043760
883.3791,0.044784
885.2427,0.046082
887.1064,0.047646
888.9701,0.049533
890.8337,0.051841
892.6974,0.054348
894.5611,0.056515
896.4247,0.057190
898.2884,0.055484
900.1521,0.052046
902.0158,0.048712
903.8794,0.047053
905.7431,0.047038
907.6068,0.047953
909.4704,0.049313
911.3341,0.050913
913.1978,0.052935
915.0614,0.054650
916.9251,0.054935
918.7888,0.053689
920.6524,0.053359
922.5161,0.055774
924.3798,0.059121
926.2435,0.058685
928.1071,0.052675
929.9708,0.045585
931.8345,0.041480
933.6981,0.040270
935.5618,0.040569
937.4255,0.041381
939.2891,0.042182
941.1528,0.042912
943.0165,0.043655
944.8801,0.044347
946.7438,0.044989
948.6075,0.045705
950.4711,0.046421
952.3348,0.047146
954.1985,0.047816
956.0622,0.048471
957.9258,0.049279
959.7895,0.050056
961.6532,0.050738
963.5168,0.051541
965.3805,0.052538
967.2442,0.053728
969.1078,0.055125
970.9715,0.056511
972.8352,0.057915
974.6988,0.060106
976.5625,0.063418
978.4262,0.068016
980.2899,0.074019
982.1535,0.077143
984.0172,0.072149
985.8809,0.064716
987.7445,0.061782
989.6082,0.062570
991.4719,0.064889
993.3355,0.068110
995.1992,0.071963
997.0629,0.075664
998.9265,0.076376
1000.7902,0.071560
1002.6539,0.063710
1004.5175,0.058054
1006.3812,0.056104
1008.2449,0.056347
1010.1086,0.057315
1011.9722,0.058464
1013.8359,0.059785
1015.6996,0.061199
1017.5632,0.062754
1019.4269,0.064369
1021.2906,0.065814
1023.1542,0.067214
1025.0179,0.068861
1026.8816,0.070641
1028.7452,0.072321
1030.6089,0.074177
1032.4726,0.076446
1034.3362,0.079219
1036.1999,0.082333
1038.0636,0.085959
1039.9273,0.090244
1041.7909,0.095270
1043.6546,0.101048
1045.5183,0.107794
1047.3819,0.115232
1049.2456,0.121353
1051.1093,0.121626
1052.9729,0.111605
1054.8366,0.093970
1056.7003,0.077937
1058.5639,0.068887
1060.4276,0.065770
1062.2913,0.065729
1064.1550,0.066854
1066.0186,0.068547
1067.8823,0.070845
1069.7460,0.073548
1071.6096,0.076395
1073.4733,0.079380
1075.3370,0.082917
1077.2006,0.087353
1079.0643,0.092597
1080.9280,0.098018
1082.7916,0.102239
1084.6553,0.103342
1086.5190,0.100177
1088.3826,0.093529
1090.2463,0.087221
1092.1100,0.085223
1093.9737,0.087952
1095.8373,0.093406
1097.7010,0.099733
1099.5647,0.106127
1101.4283,0.111641
1103.2920,0.113719
1105.1557,0.110349
1107.0193,0.102776
1108.8830,0.094550
1110.7467,0.088066
1112.6103,0.083725
1114.4740,0.080986
1116.3377,0.079545
1118.2014,0.079415
1120.0650,0.080340
1121.9287,0.082256
1123.7924,0.085060
1125.6560,0.088386
1127.5197,0.091212
1129.3834,0.092116
1131.2470,0.089690
1133.1107,0.084439
1134.9744,0.078739
1136.8380,0.074843
1138.7017,0.073324
1140.5654,0.073674
1142.4290,0.075113
1144.2927,0.077178
1146.1564,0.079843
1148.0201,0.083053
1149.8837,0.086757
1151.7474,0.091042
1153.6111,0.096001
1155.4747,0.101668
1157.3384,0.107702
1159.2021,0.112707
1161.0657,0.114692
1162.9294,0.112255
1164.7931,0.105805
1166.6567,0.096657
1168.5204,0.086238
1170.3841,0.076978
1172.2477,0.070744
1174.1114,0.067278
1175.9751,0.065602
1177.8388,0.064988
1179.7024,0.065251
1181.5661,0.066291
1183.4298,0.067863
1185.2934,0.069684
1187.1571,0.071698
1189.0208,0.073809
1190.8844,0.076155
1192.7481,0.078945
1194.6118,0.082260
1196.4754,0.086406
1198.3391,0.091477
1200.2028,0.096084
1202.0665,0.096903
1203.9301,0.090842
1205.7938,0.080478
1207.6575,0.072122
1209.5211,0.068618
1211.3848,0.068484
1213.2485,0.069660
1215.1121,0.071188
1216.9758,0.072778
1218.8395,0.074309
1220.7031,0.075759
1222.5668,0.077072
1224.4305,0.078358
1226.2941,0.079729
1228.1578,0.081051
1230.0215,0.082215
1231.8852,0.083428
1233.7488,0.084835
1235.6125,0.086213
1237.4762,0.087671
1239.3398,0.089371
1241.2035,0.091189
1243.0672,0.093142
1244.9308,0.095474
1246.7945,0.098144
1248.6582,0.100992
1250.5218,0.103952
1252.3855,0.106467
1254.2492,0.107612
1256.1129,0.106383
1257.9765,0.102958
1259.8402,0.098877
1261.7039,0.096058
1263.5675,0.095456
1265.4312,0.096756
1267.2949,0.098927
1269.1585,0.101406
1271.0222,0.104276
1272.8859,0.107303
1274.7495,0.110499
1276.6132,0.113781
1278.4769,0.116397
1280.3405,0.116908
1282.2042,0.113979
1284.0679,0.108510
1285.9316,0.103174
1287.7952,0.099891
1289.6589,0.099041
1291.5226,0.100371
1293.3862,0.103163
1295.2499,0.106900
1297.1136,0.111161
1298.9772,0.115536
1300.8409,0.120079
1302.7046,0.124688
1304.5682,0.128613
1306.4319,0.130969
1308.2956,0.131110
1310.1592,0.129207
1312.0229,0.126549
1313.8866,0.123948
1315.7503,0.120916
1317.6139,0.117245
1319.4776,0.113636
1321.3413,0.112160
1323.2049,0.114108
1325.0686,0.118905
1326.9323,0.124474
1328.7959,0.128857
1330.6596,0.130627
1332.5233,0.128405
1334.3869,0.121679
1336.2506,0.111368
1338.1143,0.098913
1339.9780,0.086319
1341.8416,0.077314
1343.7053,0.072807
1345.5690,0.071075
1347.4326,0.071954
1349.2963,0.074886
1351.1600,0.079151
1353.0236,0.084382
1354.8873,0.090428
1356.7510,0.095757
1358.6146,0.097688
1360.4783,0.093947
1362.3420,0.085439
1364.2056,0.077297
1366.0693,0.074647
1367.9330,0.075741
1369.7967,0.078390
1371.6603,0.081321
1373.5240,0.085791
1375.3877,0.090862
1377.2513,0.094267
1379.1150,0.098155
1380.9787,0.102583
1382.8423,0.106556
1384.7060,0.110471
1386.5697,0.115954
1388.4333,0.122315
1390.2970,0.125653
1392.1607,0.128297
1394.0244,0.132103
1395.8880,0.135972
1397.7517,0.137717
1399.6154,0.139341
1401.4790,0.140757
1403.3427,0.142360
1405.2064,0.143869
1407.0700,0.142474
1408.9337,0.137636
1410.7974,0.130504
1412.6610,0.123515
1414.5247,0.119484
1416.3884,0.116357
1418.2520,0.110384
1420.1157,0.101762
1421.9794,0.098016
1423.8431,0.094882
1425.7067,0.089407
1427.5704,0.084441
1429.4341,0.080399
1431.2977,0.077726
1433.1614,0.077001
1435.0251,0.078077
1436.8887,0.081570
1438.7524,0.084199
1440.6161,0.085978
1442.4797,0.089162
1444.3434,0.093072
1446.2071,0.097671
1448.0707,0.103222
1449.9344,0.103499
1451.7981,0.094748
1453.6618,0.083637
1455.5254,0.078368
1457.3891,0.081050
1459.2528,0.085556
1461.1164,0.087141
1462.9801,0.089370
1464.8438,0.092755
1466.7074,0.094582
1468.5711,0.094782
1470.4348,0.095718
1472.2984,0.099004
1474.1621,0.102471
1476.0258,0.103879
1477.8895,0.105450
1479.7531,0.106741
1481.6168,0.107617
1483.4805,0.107054
1485.3441,0.104697
1487.2078,0.100955
1489.0715,0.096184
1490.9351,0.091040
1492.7988,0.086803
1494.6625,0.083048
1496.5261,0.077722
1498.3898,0.072554
1500.2535,0.069164
1502.1171,0.066126
1503.9808,0.063404
1505.8445,0.061392
1507.7082,0.059223
1509.5718,0.058139
1511.4355,0.057388
1513.2992,0.056795
1515.1628,0.056542
1517.0265,0.056654
1518.8902,0.056123
1520.7538,0.057194
1522.6175,0.058899
1524.4812,0.058987
1526.3448,0.060090
1528.2085,0.061634
1530.0722,0.062029
1531.9359,0.063314
1533.7995,0.066211
1535.6632,0.066722
1537.5269,0.066431
1539.3905,0.069977
1541.2542,0.077120
1543.1179,0.078588
1544.9815,0.080437
1546.8452,0.081774
1548.7089,0.083379
1550.5725,0.086736
1552.4362,0.088921
1554.2999,0.090861
1556.1635,0.093114
1558.0272,0.098720
1559.8909,0.111926
1561.7546,0.109050
1563.6182,0.108485
1565.4819,0.111750
1567.3456,0.115136
1569.2092,0.119532
1571.0729,0.124184
1572.9366,0.125813
1574.8002,0.128449
1576.6639,0.133820
1578.5276,0.136077
1580.3912,0.136244
1582.2549,0.136508
1584.1186,0.135658
1585.9822,0.133469
1587.8459,0.130708
1589.7096,0.127709
1591.5733,0.124744
1593.4369,0.122778
1595.3006,0.122398
1597.1643,0.123451
1599.0279,0.125990
1600.8916,0.129569
1602.7553,0.134036
1604.6189,0.138792
1606.4826,0.142492
1608.3463,0.144798
1610.2099,0.146025
1612.0736,0.146729
1613.9373,0.147020
1615.8010,0.146176
1617.6646,0.143888
1619.5283,0.142958
1621.3920,0.140879
1623.2556,0.135297
1625.1193,0.129285
1626.9830,0.125161
1628.8466,0.118934
1630.7103,0.113380
1632.5740,0.109168
1634.4376,0.103605
1636.3013,0.093546
1638.1650,0.088849
1640.0286,0.086931
1641.8923,0.083428
1643.7560,0.079539
1645.6197,0.075260
1647.4833,0.068829
1649.3470,0.066059
1651.2107,0.064628
1653.0743,0.058114
1654.9380,0.052057
1656.8017,0.053608
1658.6653,0.052919
1660.5290,0.051242
1662.3927,0.049850
1664.2563,0.049136
1666.1200,0.049632
1667.9837,0.051192
1669.8474,0.053895
1671.7110,0.057058
1673.5747,0.060284
1675.4384,0.065769
1677.3020,0.072314
1679.1657,0.076342
1681.0294,0.080072
1682.8930,0.080431
1684.7567,0.073306
1686.6204,0.067183
1688.4840,0.061796
1690.3477,0.052594
1692.2114,0.044194
1694.0750,0.038239
1695.9387,0.031144
1697.8024,0.026060
1699.6661,0.024237
1701.5297,0.021350
1703.3934,0.020944
1705.2571,0.020042
1707.1207,0.018111
1708.9844,0.017256
1710.8481,0.016570
1712.7117,0.015705
1714.5754,0.014808
1716.4391,0.014117
1718.3027,0.013669
1720.1664,0.013700
1722.0301,0.013620
1723.8937,0.013418
1725.7574,0.013149
1727.6211,0.012655
1729.4848,0.011959
1731.3484,0.011432
1733.2121,0.010922
1735.0758,0.010396
1736.9394,0.010241
1738.8031,0.010188
1740.6668,0.009886
1742.5304,0.009733
1744.3941,0.009741
1746.2578,0.009643
1748.1214,0.009286
1749.9851,0.008841
1751.8488,0.008739
1753.7125,0.008971
1755.5761,0.008992
1757.4398,0.008787
1759.3035,0.008645
1761.1671,0.008798
1763.0308,0.008905
1764.8945,0.008846
1766.7581,0.008736
1768.6218,0.008692
1770.4855,0.008519
1772.3491,0.008420
1774.2128,0.008607
1776.0765,0.008714
1777.9401,0.008733
1779.8038,0.008910
1781.6675,0.009050
1783.5312,0.009091
1785.3948,0.009222
1787.2585,0.009246
1789.1222,0.009047
1790.9858,0.009066
1792.8495,0.009263
1794.7132,0.009240
1796.5768,0.009091
1798.4405,0.008850
1800.3042,0.008658
1802.1678,0.008612
1804.0315,0.008638
1805.8952,0.008789
1807.7589,0.008733
1809.6225,0.008612
1811.4862,0.008538
1813.3499,0.008518
1815.2135,0.008602
1817.0772,0.008649
1818.9409,0.008732
1820.8045,0.008800
1822.6682,0.008788
1824.5319,0.008907
1826.3955,0.009017
1828.2592,0.009096
1830.1229,0.009071
1831.9865,0.008885
1833.8502,0.008725
1835.7139,0.008755
1837.5776,0.008925
1839.4412,0.008983
1841.3049,0.008854
1843.1686,0.009103
1845.0322,0.009111
1846.8959,0.008919
1848.7596,0.009225
1850.6232,0.009386
1852.4869,0.009233
1854.3506,0.009115
1856.2142,0.009154
1858.0779,0.009221
1859.9416,0.009443
1861.8052,0.009440
1863.6689,0.009051
1865.5326,0.009163
1867.3963,0.009534
1869.2599,0.009393
1871.1236,0.009273
1872.9873,0.009410
1874.8509,0.009708
1876.7146,0.010011
1878.5783,0.009732
1880.4419,0.009594
1882.3056,0.009667
1884.1693,0.009473
1886.0329,0.009296
1887.8966,0.009434
1889.7603,0.009636
1891.6240,0.009574
1893.4876,0.009592
1895.3513,0.009918
1897.2150,0.009903
1899.0786,0.009623
1900.9423,0.009786
1902.8060,0.010218
1904.6696,0.010070
1906.5333,0.009775
1908.3970,0.009664
1910.2606,0.009472
1912.1243,0.009412
1913.9880,0.009427
1915.8516,0.009622
1917.7153,0.010299
1919.5790,0.010416
1921.4427,0.009925
1923.3063,0.009621
1925.1700,0.009575
1927.0337,0.009737
1928.8973,0.010041
1930.7610,0.010010
1932.6247,0.009923
1934.4883,0.010234
1936.3520,0.010103
1938.2157,0.009827
1940.0793,0.009853
1941.9430,0.009755
1943.8067,0.009197
1945.6704,0.009005
1947.5340,0.009248
1949.3977,0.009050
1951.2614,0.008756
1953.1250,0.008624
1954.9887,0.008653
1956.8524,0.008474
1958.7160,0.008632
1960.5797,0.009509
1962.4434,0.009226
1964.3070,0.007407
1966.1707,0.006044
1968.0344,0.006123
1969.8980,0.006448
1971.7617,0.006184
1973.6254,0.006974
1975.4891,0.008266
1977.3527,0.008107
1979.2164,0.008563
1981.0801,0.010157
1982.9437,0.010388
1984.8074,0.010426
1986.6711,0.010534
1988.5347,0.010299
1990.3984,0.010170
1992.2621,0.010320
1994.1257,0.010425
1995.9894,0.010701
1997.8531,0.010412
1999.7167,0.009857
2001.5804,0.010662
2003.4441,0.011725
2005.3078,0.011206
2007.1714,0.010041
2009.0351,0.009541
2010.8988,0.009273
2012.7624,0.009721
2014.6261,0.011258
2016.4898,0.010898
2018.3534,0.009459
2020.2171,0.010559
2022.0808,0.012152
2023.9444,0.012185
2025.8081,0.012506
2027.6718,0.012552
2029.5355,0.012025
2031.3991,0.012227
2033.2628,0.012784
2035.1265,0.014010
2036.9901,0.014078
2038.8538,0.012925
2040.7175,0.012434
2042.5811,0.012101
2044.4448,0.012637
2046.3085,0.013458
2048.1721,0.013571
2050.0358,0.014775
2051.8995,0.015383
2053.7631,0.014616
2055.6268,0.014368
2057.4905,0.013834
2059.3542,0.013240
2061.2178,0.013091
2063.0815,0.012794
2064.9452,0.012524
2066.8088,0.012591
2068.6725,0.012784
2070.5362,0.013056
2072.3998,0.013411
2074.2635,0.013100
2076.1272,0.012907
2077.9908,0.013386
2079.8545,0.013256
2081.7182,0.013218
2083.5819,0.013205
2085.4455,0.012820
2087.3092,0.013034
2089.1729,0.013440
2091.0365,0.013564
2092.9002,0.012897
2094.7639,0.011728
2096.6275,0.012025
2098.4912,0.012866
2100.3549,0.012793
2102.2185,0.012613
2104.0822,0.012631
2105.9459,0.012588
2107.8095,0.012926
2109.6732,0.013350
2111.5369,0.012976
2113.4006,0.012704
2115.2642,0.013280
2117.1279,0.013539
2118.9916,0.012899
2120.8552,0.012970
2122.7189,0.013915
2124.5826,0.014026
2126.4462,0.013249
2128.3099,0.012738
2130.1736,0.012455
2132.0372,0.011451
2133.9009,0.010395
2135.7646,0.010797
2137.6282,0.011773
2139.4919,0.011153
2141.3556,0.009839
2143.2193,0.009257
2145.0829,0.009513
2146.9466,0.009676
2148.8103,0.008953
2150.6739,0.008452
2152.5376,0.006815
2154.4013,0.004096
2156.2649,0.003343
2158.1286,0.003467
2159.9923,0.005500
2161.8559,0.008470
2163.7196,0.007909
2165.5833,0.007195
2167.4470,0.008605
2169.3106,0.009355
2171.1743,0.008672
2173.0380,0.007625
2174.9016,0.007425
2176.7653,0.008797
2178.6290,0.010102
2180.4926,0.009643
2182.3563,0.008939
2184.2200,0.008977
2186.0836,0.010302
2187.9473,0.012782
2189.8110,0.013870
2191.6746,0.012829
2193.5383,0.011655
2195.4020,0.011550
2197.2657,0.011602
2199.1293,0.011461
2200.9930,0.011704
2202.8567,0.011913
2204.7203,0.012321
2206.5840,0.013205
2208.4477,0.013614
2210.3113,0.013105
2212.1750,0.012575
2214.0387,0.013109
2215.9023,0.013639
2217.7660,0.013701
2219.6297,0.013928
2221.4934,0.014280
2223.3570,0.014748
2225.2207,0.014759
2227.0844,0.014206
2228.9480,0.014449
2230.8117,0.015468
2232.6754,0.016133
2234.5390,0.015975
2236.4027,0.015552
2238.2664,0.015780
2240.1300,0.016187
2241.9937,0.016784
2243.8574,0.017477
2245.7210,0.017542
2247.5847,0.017450
2249.4484,0.017505
2251.3121,0.017079
2253.1757,0.017293
2255.0394,0.018293
2256.9031,0.018665
2258.7667,0.018778
2260.6304,0.018397
2262.4941,0.018320
2264.3577,0.019183
2266.2214,0.019338
2268.0851,0.019229
2269.9487,0.019698
2271.8124,0.020145
2273.6761,0.020456
2275.5397,0.020449
2277.4034,0.020314
2279.2671,0.020408
2281.1308,0.020766
2282.9944,0.021689
2284.8581,0.022246
2286.7218,0.021851
2288.5854,0.021588
2290.4491,0.021818
2292.3128,0.022029
2294.1764,0.022034
2296.0401,0.022148
2297.9038,0.022377
2299.7674,0.022314
2301.6311,0.022123
2303.4948,0.022142
2305.3585,0.022157
2307.2221,0.022400
2309.0858,0.022883
2310.9495,0.023243
2312.8131,0.023172
2314.6768,0.022998
2316.5405,0.023229
2318.4041,0.023417
2320.2678,0.023451
2322.1315,0.023768
2323.9951,0.024345
2325.8588,0.024243
2327.7225,0.023256
2329.5861,0.022583
2331.4498,0.022577
2333.3135,0.022586
2335.1772,0.022548
2337.0408,0.022658
2338.9045,0.022872
2340.7682,0.023154
2342.6318,0.023669
2344.4955,0.023811
2346.3592,0.023592
2348.2228,0.023578
2350.0865,0.023692
2351.9502,0.023814
2353.8138,0.023764
2355.6775,0.023647
2357.5412,0.023867
2359.4049,0.024135
2361.2685,0.023953
2363.1322,0.023789
2364.9959,0.023725
2366.8595,0.023761
2368.7232,0.024291
2370.5869,0.024758
2372.4505,0.024933
2374.3142,0.024985
2376.1779,0.025003
2378.0415,0.025187
2379.9052,0.025631
2381.7689,0.026017
2383.6325,0.026015
2385.4962,0.025833
2387.3599,0.025989
2389.2236,0.026064
2391.0872,0.025761
2392.9509,0.025888
2394.8146,0.026344
2396.6782,0.026596
2398.5419,0.026776
2400.4056,0.026851
2402.2692,0.026852
2404.1329,0.026780
2405.9966,0.026730
2407.8602,0.026900
2409.7239,0.026822
2411.5876,0.026663
2413.4512,0.027116
2415.3149,0.027634
2417.1786,0.027770
2419.0423,0.027814
2420.9059,0.028084
2422.7696,0.028090
2424.6333,0.027925
2426.4969,0.028440
2428.3606,0.028703
2430.2243,0.028497
2432.0879,0.028872
2433.9516,0.029223
2435.8153,0.029054
2437.6789,0.029138
2439.5426,0.029430
2441.4063,0.029379
2443.2700,0.029522
2445.1336,0.029700
2446.9973,0.029902
2448.8610,0.030191
2450.7246,0.030188
2452.5883,0.030502
2454.4520,0.030909
2456.3156,0.031183
2458.1793,0.031454
2460.0430,0.031554
2461.9066,0.031685
2463.7703,0.032036
2465.6340,0.032551
2467.4976,0.032551
2469.3613,0.032068
2471.2250,0.032160
2473.0887,0.032822
2474.9523,0.032994
2476.8160,0.033154
2478.6797,0.033648
2480.5433,0.033779
2482.4070,0.033919
2484.2707,0.034367
2486.1343,0.034689
2487.9980,0.034845
2489.8617,0.034937
2491.7253,0.035013
2493.5890,0.035274
2495.4527,0.035533
2497.3164,0.035417
2499.1800,0.035387
2501.0437,0.035543
2502.9074,0.035166
2504.7710,0.034930
2506.6347,0.035666
2508.4984,0.036486
2510.3620,0.036645
2512.2257,0.036419
2514.0894,0.036639
2515.9530,0.036717
2517.8167,0.036624
2519.6804,0.037240
2521.5440,0.037738
2523.4077,0.037745
2525.2714,0.038124
2527.1351,0.038792
2528.9987,0.038881
2530.8624,0.038585
2532.7261,0.038829
2534.5897,0.039203
2536.4534,0.039414
2538.3171,0.039718
2540.1807,0.039834
2542.0444,0.039875
2543.9081,0.040364
2545.7717,0.040534
2547.6354,0.040150
2549.4991,0.039761
2551.3627,0.039432
2553.2264,0.039667
2555.0901,0.040013
2556.9538,0.039725
2558.8174,0.039799
2560.6811,0.040055
2562.5448,0.040023
2564.4084,0.040544
2566.2721,0.041343
2568.1358,0.041571
2569.9994,0.041272
2571.8631,0.041150
2573.7268,0.041752
2575.5904,0.042426
2577.4541,0.042527
2579.3178,0.042615
2581.1815,0.043004
2583.0451,0.043355
2584.9088,0.043527
2586.7725,0.043777
2588.6361,0.044237
2590.4998,0.044590
2592.3635,0.044557
2594.2271,0.044811
2596.0908,0.045420
2597.9545,0.045500
2599.8181,0.045626
2601.6818,0.045975
2603.5455,0.046294
2605.4091,0.046416
2607.2728,0.046476
2609.1365,0.046292
2611.0002,0.046039
2612.8638,0.046446
2614.7275,0.046816
2616.5912,0.046697
2618.4548,0.046706
2620.3185,0.046729
2622.1822,0.046452
2624.0458,0.046206
2625.9095,0.046174
2627.7732,0.046196
2629.6368,0.046339
2631.5005,0.046263
2633.3642,0.045936
2635.2279,0.046175
2637.0915,0.046565
2638.9552,0.046434
2640.8189,0.046223
2642.6825,0.046120
2644.5462,0.045934
2646.4099,0.045743
2648.2735,0.045660
2650.1372,0.045279
2652.0009,0.044801
2653.8645,0.044382
2655.7282,0.044031
2657.5919,0.044022
2659.4555,0.043861
2661.3192,0.043505
2663.1829,0.043383
2665.0466,0.043339
2666.9102,0.043292
2668.7739,0.043386
2670.6376,0.043606
2672.5012,0.043710
2674.3649,0.043842
2676.2286,0.043989
2678.0922,0.044125
2679.9559,0.044482
2681.8196,0.044952
2683.6832,0.045235
2685.5469,0.045368
2687.4106,0.045687
2689.2742,0.046093
2691.1379,0.046396
2693.0016,0.046728
2694.8653,0.046838
2696.7289,0.046928
2698.5926,0.047066
2700.4563,0.047248
2702.3199,0.047527
2704.1836,0.047827
2706.0473,0.047949
2707.9109,0.048126
2709.7746,0.048363
2711.6383,0.048435
2713.5019,0.048459
2715.3656,0.048538
2717.2293,0.048526
2719.0930,0.048428
2720.9566,0.048335
2722.8203,0.048358
2724.6840,0.048261
2726.5476,0.048212
2728.4113,0.048310
2730.2750,0.048099
2732.1386,0.047785
2734.0023,0.047771
2735.8660,0.047716
2737.7296,0.047507
2739.5933,0.047246
2741.4570,0.047058
2743.3206,0.047046
2745.1843,0.046987
2747.0480,0.046719
2748.9117,0.046654
2750.7753,0.046833
2752.6390,0.046921
2754.5027,0.046898
2756.3663,0.047248
2758.2300,0.047679
2760.0937,0.047871
2761.9573,0.048108
2763.8210,0.048427
2765.6847,0.048829
2767.5483,0.049359
2769.4120,0.049604
2771.2757,0.049635
2773.1394,0.049916
2775.0030,0.050390
2776.8667,0.050617
2778.7304,0.050597
2780.5940,0.050526
2782.4577,0.050638
2784.3214,0.050677
2786.1850,0.050524
2788.0487,0.050434
2789.9124,0.050660
2791.7760,0.050951
2793.6397,0.050740
2795.5034,0.050470
2797.3670,0.050361
2799.2307,0.050323
2801.0944,0.050380
2802.9581,0.050245
2804.8217,0.050255
2806.6854,0.050364
2808.5491,0.050439
2810.4127,0.050561
2812.2764,0.050968
2814.1401,0.051051
2816.0037,0.051124
2817.8674,0.051644
2819.7311,0.051766
2821.5947,0.051610
2823.4584,0.051768
2825.3221,0.051811
2827.1857,0.051744
2829.0494,0.051754
2830.9131,0.051976
2832.7768,0.052023
2834.6404,0.052073
2836.5041,0.052357
2838.3678,0.052833
2840.2314,0.053375
2842.0951,0.053315
2843.9588,0.052742
2845.8224,0.052642
2847.6861,0.053354
2849.5498,0.054118
2851.4134,0.054215
2853.2771,0.054041
2855.1408,0.054495
2857.0045,0.055234
2858.8681,0.055371
2860.7318,0.055202
2862.5955,0.055122
2864.4591,0.055045
2866.3228,0.055293
2868.1865,0.055495
2870.0501,0.055212
2871.9138,0.054970
2873.7775,0.055079
2875.6411,0.055345
2877.5048,0.055623
2879.3685,0.055651
2881.2321,0.055378
2883.0958,0.055313
2884.9595,0.055072
2886.8232,0.054955
2888.6868,0.055083
2890.5505,0.054912
2892.4142,0.054916
2894.2778,0.055230
2896.1415,0.055299
2898.0052,0.055472
2899.8688,0.055611
2901.7325,0.055417
2903.5962,0.055445
2905.4598,0.055876
2907.3235,0.056206
2909.1872,0.056243
2911.0509,0.056345
2912.9145,0.056586
2914.7782,0.056821
2916.6419,0.057300
2918.5055,0.057757
2920.3692,0.058105
2922.2329,0.058462
2924.0965,0.058763
2925.9602,0.059023
2927.8239,0.059177
2929.6875,0.059430
2931.5512,0.059857
2933.4149,0.059615
2935.2785,0.059226
2937.1422,0.059138
2939.0059,0.058985
2940.8696,0.058714
2942.7332,0.058529
2944.5969,0.058948
2946.4606,0.059663
2948.3242,0.059590
2950.1879,0.059515
2952.0516,0.059544
2953.9152,0.059420
2955.7789,0.059200
2957.6426,0.058815
2959.5062,0.058292
2961.3699,0.057482
2963.2336,0.057016
2965.0972,0.056963
2966.9609,0.056744
2968.8246,0.056824
2970.6883,0.057174
2972.5519,0.057622
2974.4156,0.057938
2976.2793,0.058152
2978.1429,0.058676
2980.0066,0.059178
2981.8703,0.059265
2983.7339,0.059424
2985.5976,0.059703
2987.4613,0.059959
2989.3249,0.059823
2991.1886,0.059032
2993.0523,0.058467
2994.9160,0.058853
2996.7796,0.059157
2998.6433,0.058781
3000.5070,0.058468
3002.3706,0.058791
3004.2343,0.059194
3006.0980,0.059135
3007.9616,0.058950
3009.8253,0.059035
3011.6890,0.059125
3013.5526,0.058904
3015.4163,0.058755
3017.2800,0.058820
3019.1436,0.058288
3021.0073,0.057611
3022.8710,0.057183
3024.7347,0.056654
3026.5983,0.056590
3028.4620,0.057099
3030.3257,0.057225
3032.1893,0.057195
3034.0530,0.056870
3035.9167,0.056488
3037.7803,0.056594
3039.6440,0.056709
3041.5077,0.056069
3043.3713,0.055859
3045.2350,0.056077
3047.0987,0.056207
3048.9624,0.056143
3050.8260,0.056296
3052.6897,0.055975
3054.5534,0.055653
3056.4170,0.055709
3058.2807,0.055720
3060.1444,0.055439
3062.0080,0.055139
3063.8717,0.055183
3065.7354,0.055656
3067.5990,0.056093
3069.4627,0.055900
3071.3264,0.055245
3073.1900,0.055078
3075.0537,0.055584
3076.9174,0.056133
3078.7811,0.056020
3080.6447,0.056001
3082.5084,0.055940
3084.3721,0.055770
3086.2357,0.055962
3088.0994,0.056354
3089.9631,0.056347
3091.8267,0.056214
3093.6904,0.056350
3095.5541,0.056600
3097.4177,0.056883
3099.2814,0.057146
3101.1451,0.057297
3103.0087,0.057425
3104.8724,0.057143
3106.7361,0.057241
3108.5998,0.058241
3110.4634,0.058518
3112.3271,0.058306
3114.1908,0.058014
3116.0544,0.057911
3117.9181,0.058926
3119.7818,0.059429
3121.6454,0.059550
3123.5091,0.059807
3125.3728,0.059970
3127.2364,0.059897
3129.1001,0.059785
3130.9638,0.059817
3132.8275,0.060168
3134.6911,0.060468
3136.5548,0.060305
3138.4185,0.060822
3140.2821,0.061681
3142.1458,0.061994
3144.0095,0.062187
3145.8731,0.062203
3147.7368,0.062726
3149.6005,0.063521
3151.4641,0.063928
3153.3278,0.064414
3155.1915,0.065205
3157.0551,0.065881
3158.9188,0.066202
3160.7825,0.066038
3162.6462,0.065953
3164.5098,0.065567
3166.3735,0.065201
3168.2372,0.064980
3170.1008,0.064807
3171.9645,0.063921
3173.8282,0.062867
3175.6918,0.062300
3177.5555,0.061812
3179.4192,0.060985
3181.2828,0.060025
3183.1465,0.059371
3185.0102,0.059288
3186.8739,0.059023
3188.7375,0.058807
3190.6012,0.058657
3192.4649,0.058680
3194.3285,0.058578
3196.1922,0.058481
3198.0559,0.058417
3199.9195,0.058325
3201.7832,0.058601
3203.6469,0.059213
3205.5105,0.060216
3207.3742,0.060939
3209.2379,0.060285
3211.1015,0.058886
3212.9652,0.057760
3214.8289,0.057709
3216.6926,0.056790
3218.5562,0.054166
3220.4199,0.052058
3222.2836,0.051058
3224.1472,0.049123
3226.0109,0.047320
3227.8746,0.046204
3229.7382,0.045266
3231.6019,0.044717
3233.4656,0.044105
3235.3292,0.043589
3237.1929,0.043231
3239.0566,0.042376
3240.9202,0.041740
3242.7839,0.041340
3244.6476,0.041270
3246.5113,0.041461
3248.3749,0.041938
3250.2386,0.042836
3252.1023,0.043359
3253.9659,0.043700
3255.8296,0.044020
3257.6933,0.044263
3259.5569,0.044277
3261.4206,0.044629
3263.2843,0.044912
3265.1479,0.044898
3267.0116,0.044774
3268.8753,0.045271
3270.7390,0.045662
3272.6026,0.045160
3274.4663,0.044528
3276.3300,0.044053
3278.1936,0.043777
3280.0573,0.043268
3281.9210,0.042978
3283.7846,0.042958
3285.6483,0.043026
3287.5120,0.042287
3289.3756,0.042477
3291.2393,0.042788
3293.1030,0.042316
3294.9666,0.042228
3296.8303,0.042296
3298.6940,0.041593
3300.5577,0.040753
3302.4213,0.040713
3304.2850,0.040895
3306.1487,0.041377
3308.0123,0.042146
3309.8760,0.042420
3311.7397,0.042234
3313.6033,0.042327
3315.4670,0.042975
3317.3307,0.042206
3319.1943,0.041307
3321.0580,0.041169
3322.9217,0.041730
3324.7854,0.041172
3326.6490,0.040234
3328.5127,0.039619
3330.3764,0.038728
3332.2400,0.038236
3334.1037,0.038255
3335.9674,0.036859
3337.8310,0.035143
3339.6947,0.034973
3341.5584,0.035521
3343.4220,0.034884
3345.2857,0.033924
3347.1494,0.032663
3349.0130,0.031355
3350.8767,0.030272
3352.7404,0.030153
3354.6041,0.030517
3356.4677,0.030451
3358.3314,0.030358
3360.1951,0.030645
3362.0587,0.030412
3363.9224,0.029993
3365.7861,0.029616
3367.6497,0.029763
3369.5134,0.030964
3371.3771,0.032484
3373.2407,0.032588
3375.1044,0.032686
3376.9681,0.034022
3378.8317,0.034732
3380.6954,0.036241
3382.5591,0.037723
3384.4228,0.038580
3386.2864,0.040467
3388.1501,0.042444
3390.0138,0.044572
3391.8774,0.046321
3393.7411,0.047590
3395.6048,0.048957
3397.4684,0.050268
3399.3321,0.050823
3401.1958,0.050240
3403.0594,0.048972
3404.9231,0.047848
3406.7868,0.046877
3408.6505,0.044785
3410.5141,0.040616
3412.3778,0.036034
3414.2415,0.032232
3416.1051,0.029126
3417.9688,0.026929
3419.8325,0.024874
3421.6961,0.022157
3423.5598,0.019547
3425.4235,0.018247
3427.2871,0.017595
3429.1508,0.015353
3431.0145,0.013927
3432.8781,0.013966
3434.7418,0.013917
3436.6055,0.013724
3438.4692,0.014676
3440.3328,0.013690
3442.1965,0.012578
3444.0602,0.012084
3445.9238,0.011110
3447.7875,0.009924
3449.6512,0.009959
3451.5148,0.010107
3453.3785,0.009629
3455.2422,0.009279
3457.1058,0.009832
3458.9695,0.010352
3460.8332,0.010126
3462.6969,0.008833
3464.5605,0.008365
3466.4242,0.008375
3468.2879,0.008287
3470.1515,0.008334
3472.0152,0.008749
3473.8789,0.008387
3475.7425,0.008024
3477.6062,0.007773
3479.4699,0.007459
3481.3335,0.007023
3483.1972,0.007516
3485.0609,0.008492
3486.9245,0.008612
3488.7882,0.007039
3490.6519,0.006246
3492.5156,0.006656
3494.3792,0.006261
3496.2429,0.007008
3498.1066,0.007798
3499.9702,0.006315
3501.8339,0.005221
3503.6976,0.005854
3505.5612,0.007177
3507.4249,0.007413
3509.2886,0.007868
3511.1522,0.007811
3513.0159,0.007066
3514.8796,0.006895
3516.7432,0.006818
3518.6069,0.006598
3520.4706,0.007628
3522.3343,0.006198
3524.1979,0.004809
3526.0616,0.005371
3527.9253,0.006192
3529.7889,0.005573
3531.6526,0.005443
3533.5163,0.006186
3535.3799,0.006437
3537.2436,0.006109
3539.1073,0.006115
3540.9709,0.006490
3542.8346,0.006831
3544.6983,0.006493
3546.5620,0.006542
3548.4256,0.005645
3550.2893,0.004614
3552.1530,0.004349
3554.0166,0.005570
3555.8803,0.006565
3557.7440,0.006370
3559.6076,0.005161
3561.4713,0.004839
3563.3350,0.005373
3565.1986,0.005912
3567.0623,0.005201
3568.9260,0.003310
3570.7896,0.004768
3572.6533,0.006721
3574.5170,0.006191
3576.3807,0.005644
3578.2443,0.006646
3580.1080,0.007519
3581.9717,0.007901
3583.8353,0.006357
3585.6990,0.004678
3587.5627,0.005068
3589.4263,0.005650
3591.2900,0.006690
3593.1537,0.006298
3595.0173,0.005775
3596.8810,0.005108
3598.7447,0.005848
3600.6084,0.007760
3602.4720,0.007882
3604.3357,0.007359
3606.1994,0.007469
3608.0630,0.006247
3609.9267,0.005543
3611.7904,0.005735
3613.6540,0.005252
3615.5177,0.005464
3617.3814,0.006073
3619.2450,0.006385
3621.1087,0.005927
3622.9724,0.006618
3624.8360,0.007117
3626.6997,0.007043
3628.5634,0.007412
3630.4271,0.007841
3632.2907,0.007239
3634.1544,0.007644
3636.0181,0.007933
3637.8817,0.007626
3639.7454,0.007321
3641.6091,0.007490
3643.4727,0.007600
3645.3364,0.006621
3647.2001,0.006361
3649.0637,0.005440
3650.9274,0.003226
3652.7911,0.005613
3654.6547,0.007698
3656.5184,0.007819
3658.3821,0.008007
3660.2458,0.007866
3662.1094,0.007661
3663.9731,0.007830
3665.8368,0.008120
3667.7004,0.007710
3669.5641,0.006259
3671.4278,0.004514
3673.2914,0.005709
3675.1551,0.007805
3677.0188,0.008269
3678.8824,0.007293
3680.7461,0.007042
3682.6098,0.007623
3684.4735,0.008292
3686.3371,0.008022
3688.2008,0.007435
3690.0645,0.007413
3691.9281,0.008027
3693.7918,0.007953
3695.6555,0.008547
3697.5191,0.008881
3699.3828,0.008359
3701.2465,0.008115
3703.1101,0.008136
3704.9738,0.008393
3706.8375,0.007962
3708.7011,0.007202
3710.5648,0.007555
3712.4285,0.008324
3714.2922,0.008034
3716.1558,0.007698
3718.0195,0.007983
3719.8832,0.008563
3721.7468,0.008903
3723.6105,0.008978
3725.4742,0.008312
3727.3378,0.007488
3729.2015,0.008196
3731.0652,0.008790
3732.9288,0.008038
3734.7925,0.006274
3736.6562,0.006543
3738.5199,0.007414
3740.3835,0.008525
3742.2472,0.008659
3744.1109,0.007684
3745.9745,0.006306
3747.8382,0.006428
3749.7019,0.007622
3751.5655,0.007691
3753.4292,0.007462
3755.2929,0.008653
3757.1565,0.009175
3759.0202,0.008242
3760.8839,0.007673
3762.7475,0.008312
3764.6112,0.009326
3766.4749,0.010128
3768.3386,0.009753
3770.2022,0.008971
3772.0659,0.008582
3773.9296,0.009115
3775.7932,0.009992
3777.6569,0.009976
3779.5206,0.009369
3781.3842,0.009033
3783.2479,0.009669
3785.1116,0.010733
3786.9752,0.010323
3788.8389,0.009565
3790.7026,0.009805
3792.5662,0.010041
3794.4299,0.009302
3796.2936,0.008446
3798.1573,0.008616
3800.0209,0.009132
3801.8846,0.008961
3803.7483,0.009040
3805.6119,0.010380
3807.4756,0.010828
3809.3393,0.010070
3811.2029,0.009337
3813.0666,0.009126
3814.9303,0.009366
3816.7939,0.008806
3818.6576,0.008288
3820.5213,0.008971
3822.3850,0.009230
3824.2486,0.009191
3826.1123,0.009198
3827.9760,0.009624
3829.8396,0.009736
3831.7033,0.009438
3833.5670,0.009696
3835.4306,0.009503
3837.2943,0.009764
3839.1580,0.009629
3841.0216,0.009870
3842.8853,0.010042
3844.7490,0.010351
3846.6126,0.009967
3848.4763,0.009788
3850.3400,0.009568
3852.2037,0.009008
3854.0673,0.008530
3855.9310,0.009365
3857.7947,0.009385
3859.6583,0.009218
3861.5220,0.008543
3863.3857,0.008219
3865.2493,0.008726
3867.1130,0.010113
3868.9767,0.010787
3870.8403,0.010428
3872.7040,0.010161
3874.5677,0.010103
3876.4314,0.009871
3878.2950,0.009739
3880.1587,0.009765
3882.0224,0.010523
3883.8860,0.010448
3885.7497,0.010144
3887.6134,0.010178
3889.4770,0.010602
3891.3407,0.011296
3893.2044,0.011885
3895.0680,0.010717
3896.9317,0.009918
3898.7954,0.009732
3900.6590,0.010006
3902.5227,0.009754
3904.3864,0.009684
3906.2501,0.010949
3908.1137,0.011562
3909.9774,0.010878
3911.8411,0.010849
3913.7047,0.011579
3915.5684,0.011459
3917.4321,0.010463
3919.2957,0.010462
3921.1594,0.011278
3923.0231,0.011558
3924.8867,0.011589
3926.7504,0.011577
3928.6141,0.011292
3930.4777,0.011341
3932.3414,0.011649
3934.2051,0.011466
3936.0688,0.011102
3937.9324,0.011188
3939.7961,0.011002
3941.6598,0.010958
3943.5234,0.010898
3945.3871,0.010703
3947.2508,0.011632
3949.1144,0.012269
3950.9781,0.011849
3952.8418,0.011891
3954.7054,0.011833
3956.5691,0.011911
3958.4328,0.011551
3960.2965,0.011833
3962.1601,0.012023
3964.0238,0.011626
3965.8875,0.011557
3967.7511,0.012003
3969.6148,0.011641
3971.4785,0.011892
3973.3421,0.012199
3975.2058,0.012338
3977.0695,0.011916
3978.9331,0.012146
3980.7968,0.012226
3982.6605,0.011526
3984.5241,0.011807
3986.3878,0.012604
3988.2515,0.012080
3990.1152,0.011927
3991.9788,0.012338
3993.8425,0.012325
3995.7062,0.011579
3997.5698,0.011293
3999.4335,0.011824
