Wavenumber,Intensity
650.4205,0.141791
652.2841,0.138446
654.1478,0.134411
656.0115,0.130894
657.8751,0.128588
659.7388,0.128925
661.6025,0.129111
663.4661,0.126754
665.3298,0.124703
667.1935,0.122762
669.0571,0.122958
670.9208,0.122355
672.7845,0.121521
674.6481,0.119642
676.5118,0.119129
678.3755,0.119722
680.2392,0.120380
682.1028,0.118859
683.9665,0.117973
685.8302,0.118706
687.6938,0.118689
689.5575,0.118053
691.4212,0.118296
693.2848,0.117248
695.1485,0.116652
697.0122,0.117151
698.8758,0.117794
700.7395,0.118145
702.6032,0.118815
704.4669,0.117376
706.3305,0.114687
708.1942,0.111661
710.0579,0.108924
711.9215,0.106502
713.7852,0.104025
715.6489,0.100847
717.5125,0.098405
719.3762,0.096759
721.2399,0.094805
723.1035,0.092411
724.9672,0.091101
726.8309,0.089238
728.6945,0.087187
730.5582,0.086426
732.4219,0.085522
734.2856,0.084380
736.1492,0.083784
738.0129,0.082852
739.8766,0.082462
741.7402,0.082317
743.6039,0.082640
745.4676,0.082565
747.3312,0.081883
749.1949,0.081577
751.0586,0.080817
752.9222,0.080080
754.7859,0.079469
756.6496,0.078875
758.5132,0.078641
760.3769,0.077984
762.2406,0.076990
764.1043,0.076987
765.9679,0.077190
767.8316,0.076821
769.6953,0.076535
771.5589,0.076608
773.4226,0.076900
775.2863,0.077414
777.1499,0.078394
779.0136,0.079360
780.8773,0.080138
782.7409,0.080644
784.6046,0.081154
786.4683,0.081842
788.3320,0.082654
790.1956,0.083297
792.0593,0.083524
793.9230,0.083431
795.7866,0.083574
797.6503,0.083248
799.5140,0.083007
801.3776,0.082985
803.2413,0.082660
805.1050,0.082086
806.9686,0.081449
808.8323,0.080682
810.6960,0.079601
812.5596,0.078325
814.4233,0.077277
816.2870,0.076194
818.1507,0.074771
820.0143,0.073474
821.8780,0.072522
823.7417,0.071481
825.6053,0.070984
827.4690,0.070940
829.3327,0.070645
831.1963,0.068340
833.0600,0.064473
834.9237,0.061186
836.7873,0.059412
838.6510,0.058759
840.5147,0.058531
842.3784,0.058320
844.2420,0.058115
846.1057,0.058157
847.9694,0.058438
849.8330,0.058578
851.6967,0.058526
853.5604,0.058505
855.4240,0.058551
857.2877,0.058886
859.1514,0.059337
861.0150,0.059648
862.8787,0.059915
864.7424,0.060381
866.6060,0.061045
868.4697,0.061624
870.3334,0.061938
872.1971,0.062213
874.0607,0.062763
875.9244,0.063207
877.7881,0.063587
879.6517,0.063954
881.5154,0.064438
883.3791,0.064986
885.2427,0.065631
887.1064,0.066246
888.9701,0.067000
890.8337,0.067551
892.6974,0.067673
894.5611,0.067705
896.4247,0.067614
898.2884,0.067556
900.1521,0.067846
902.0158,0.068169
903.8794,0.068806
905.7431,0.069954
907.6068,0.071550
909.4704,0.073215
911.3341,0.074922
913.1978,0.076945
915.0614,0.078180
916.9251,0.076292
918.7888,0.072144
920.6524,0.069122
922.5161,0.068027
924.3798,0.068211
926.2435,0.068986
928.1071,0.069803
929.9708,0.070489
931.8345,0.071138
933.6981,0.071960
935.5618,0.072972
937.4255,0.074146
939.2891,0.075368
941.1528,0.076587
943.0165,0.077873
944.8801,0.079519
946.7438,0.081177
948.6075,0.082720
950.4711,0.084329
952.3348,0.086090
954.1985,0.088014
956.0622,0.089880
957.9258,0.091552
959.7895,0.092997
961.6532,0.094325
963.5168,0.095775
965.3805,0.097308
967.2442,0.099054
969.1078,0.101010
970.9715,0.103113
972.8352,0.105453
974.6988,0.108510
976.5625,0.112984
978.4262,0.119695
980.2899,0.128045
982.1535,0.132277
984.0172,0.126356
985.8809,0.118117
987.7445,0.115667
989.6082,0.117363
991.4719,0.119814
993.3355,0.121878
995.1992,0.123814
997.0629,0.125801
998.9265,0.127812
1000.7902,0.129756
1002.6539,0.131603
1004.5175,0.133538
1006.3812,0.135344
1008.2449,0.136906
1010.1086,0.138118
1011.9722,0.139136
1013.8359,0.139835
1015.6996,0.140092
1017.5632,0.140202
1019.4269,0.140199
1021.2906,0.139800
1023.1542,0.139300
1025.0179,0.138723
1026.8816,0.138076
1028.7452,0.137338
1030.6089,0.136661
1032.4726,0.136041
1034.3362,0.135556
1036.1999,0.135136
1038.0636,0.134835
1039.9273,0.134804
1041.7909,0.134821
1043.6546,0.134660
1045.5183,0.134354
1047.3819,0.133356
1049.2456,0.131031
1051.1093,0.127260
1052.9729,0.122630
1054.8366,0.118353
1056.7003,0.115252
1058.5639,0.113185
1060.4276,0.111875
1062.2913,0.110813
1064.1550,0.109836
1066.0186,0.109035
1067.8823,0.108276
1069.7460,0.107418
1071.6096,0.106349
1073.4733,0.105165
1075.3370,0.104014
1077.2006,0.102937
1079.0643,0.102081
1080.9280,0.101391
1082.7916,0.100808
1084.6553,0.100366
1086.5190,0.100118
1088.3826,0.099773
1090.2463,0.099202
1092.1100,0.098638
1093.9737,0.098105
1095.8373,0.097676
1097.7010,0.097421
1099.5647,0.097222
1101.4283,0.097123
1103.2920,0.096948
1105.1557,0.096498
1107.0193,0.095257
1108.8830,0.092805
1110.7467,0.089251
1112.6103,0.085079
1114.4740,0.080854
1116.3377,0.077151
1118.2014,0.074031
1120.0650,0.071507
1121.9287,0.069578
1123.7924,0.067990
1125.6560,0.066694
1127.5197,0.065533
1129.3834,0.064253
1131.2470,0.062999
1133.1107,0.061905
1134.9744,0.060809
1136.8380,0.059676
1138.7017,0.058867
1140.5654,0.058412
1142.4290,0.058242
1144.2927,0.058492
1146.1564,0.058854
1148.0201,0.059249
1149.8837,0.059859
1151.7474,0.060399
1153.6111,0.060626
1155.4747,0.060597
1157.3384,0.060282
1159.2021,0.059613
1161.0657,0.058735
1162.9294,0.057796
1164.7931,0.056938
1166.6567,0.056093
1168.5204,0.055351
1170.3841,0.054719
1172.2477,0.053654
1174.1114,0.051926
1175.9751,0.049746
1177.8388,0.047472
1179.7024,0.045750
1181.5661,0.044868
1183.4298,0.044634
1185.2934,0.044818
1187.1571,0.045203
1189.0208,0.045694
1190.8844,0.046144
1192.7481,0.046327
1194.6118,0.046247
1196.4754,0.046048
1198.3391,0.045752
1200.2028,0.045549
1202.0665,0.045443
1203.9301,0.045296
1205.7938,0.045205
1207.6575,0.045230
1209.5211,0.045435
1211.3848,0.046083
1213.2485,0.047043
1215.1121,0.048025
1216.9758,0.049106
1218.8395,0.050320
1220.7031,0.051612
1222.5668,0.052905
1224.4305,0.054120
1226.2941,0.055430
1228.1578,0.056860
1230.0215,0.058276
1231.8852,0.059513
1233.7488,0.060692
1235.6125,0.061687
1237.4762,0.062373
1239.3398,0.062954
1241.2035,0.063333
1243.0672,0.063536
1244.9308,0.063618
1246.7945,0.063701
1248.6582,0.063830
1250.5218,0.063875
1252.3855,0.063888
1254.2492,0.063898
1256.1129,0.063888
1257.9765,0.063793
1259.8402,0.063670
1261.7039,0.063664
1263.5675,0.063708
1265.4312,0.063694
1267.2949,0.063603
1269.1585,0.063440
1271.0222,0.063164
1272.8859,0.063024
1274.7495,0.062935
1276.6132,0.062832
1278.4769,0.062848
1280.3405,0.062983
1282.2042,0.062992
1284.0679,0.062909
1285.9316,0.062957
1287.7952,0.063213
1289.6589,0.063550
1291.5226,0.064024
1293.3862,0.064635
1295.2499,0.065406
1297.1136,0.066510
1298.9772,0.067955
1300.8409,0.069676
1302.7046,0.071541
1304.5682,0.072924
1306.4319,0.072647
1308.2956,0.069424
1310.1592,0.063745
1312.0229,0.058078
1313.8866,0.054459
1315.7503,0.053286
1317.6139,0.053458
1319.4776,0.054113
1321.3413,0.054778
1323.2049,0.055516
1325.0686,0.056453
1326.9323,0.057495
1328.7959,0.058572
1330.6596,0.059503
1332.5233,0.060088
1334.3869,0.060169
1336.2506,0.060097
1338.1143,0.060609
1339.9780,0.061594
1341.8416,0.061593
1343.7053,0.061215
1345.5690,0.061418
1347.4326,0.062082
1349.2963,0.063071
1351.1600,0.064220
1353.0236,0.065467
1354.8873,0.067063
1356.7510,0.068570
1358.6146,0.069688
1360.4783,0.071012
1362.3420,0.073553
1364.2056,0.075584
1366.0693,0.076086
1367.9330,0.076998
1369.7967,0.078027
1371.6603,0.078450
1373.5240,0.079547
1375.3877,0.080660
1377.2513,0.080798
1379.1150,0.081466
1380.9787,0.082562
1382.8423,0.083642
1384.7060,0.085047
1386.5697,0.087597
1388.4333,0.090692
1390.2970,0.091862
1392.1607,0.092394
1394.0244,0.093030
1395.8880,0.092596
1397.7517,0.090820
1399.6154,0.088584
1401.4790,0.085955
1403.3427,0.083813
1405.2064,0.080856
1407.0700,0.076020
1408.9337,0.070768
1410.7974,0.065731
1412.6610,0.061710
1414.5247,0.059282
1416.3884,0.058531
1418.2520,0.059629
1420.1157,0.061500
1421.9794,0.061434
1423.8431,0.060063
1425.7067,0.056641
1427.5704,0.053318
1429.4341,0.051246
1431.2977,0.049933
1433.1614,0.049053
1435.0251,0.049064
1436.8887,0.050322
1438.7524,0.050599
1440.6161,0.050147
1442.4797,0.050214
1444.3434,0.050244
1446.2071,0.050288
1448.0707,0.050325
1449.9344,0.049614
1451.7981,0.048212
1453.6618,0.046503
1455.5254,0.045702
1457.3891,0.047445
1459.2528,0.047142
1461.1164,0.045517
1462.9801,0.044927
1464.8438,0.045226
1466.7074,0.044471
1468.5711,0.042998
1470.4348,0.041957
1472.2984,0.042312
1474.1621,0.042899
1476.0258,0.042512
1477.8895,0.041902
1479.7531,0.041554
1481.6168,0.041606
1483.4805,0.041302
1485.3441,0.040873
1487.2078,0.041249
1489.0715,0.042656
1490.9351,0.043753
1492.7988,0.042880
1494.6625,0.042429
1496.5261,0.043442
1498.3898,0.044756
1500.2535,0.044655
1502.1171,0.043976
1503.9808,0.043382
1505.8445,0.044564
1507.7082,0.049813
1509.5718,0.049423
1511.4355,0.048434
1513.2992,0.048215
1515.1628,0.048416
1517.0265,0.049592
1518.8902,0.049944
1520.7538,0.050786
1522.6175,0.052620
1524.4812,0.052809
1526.3448,0.053577
1528.2085,0.054103
1530.0722,0.053828
1531.9359,0.054409
1533.7995,0.056243
1535.6632,0.055875
1537.5269,0.054898
1539.3905,0.056828
1541.2542,0.062266
1543.1179,0.062878
1544.9815,0.063008
1546.8452,0.062905
1548.7089,0.063377
1550.5725,0.064862
1552.4362,0.065406
1554.2999,0.065809
1556.1635,0.066415
1558.0272,0.069617
1559.8909,0.078808
1561.7546,0.075804
1563.6182,0.074383
1565.4819,0.075285
1567.3456,0.076664
1569.2092,0.079556
1571.0729,0.082253
1572.9366,0.082225
1574.8002,0.083893
1576.6639,0.089077
1578.5276,0.091449
1580.3912,0.091957
1582.2549,0.093722
1584.1186,0.095590
1585.9822,0.097284
1587.8459,0.098891
1589.7096,0.100145
1591.5733,0.100855
1593.4369,0.101417
1595.3006,0.101616
1597.1643,0.101251
1599.0279,0.100421
1600.8916,0.099503
1602.7553,0.098233
1604.6189,0.097003
1606.4826,0.095695
1608.3463,0.094248
1610.2099,0.092491
1612.0736,0.090562
1613.9373,0.088413
1615.8010,0.086547
1617.6646,0.083385
1619.5283,0.080428
1621.3920,0.078288
1623.2556,0.075700
1625.1193,0.072181
1626.9830,0.069413
1628.8466,0.065827
1630.7103,0.062117
1632.5740,0.059227
1634.4376,0.057044
1636.3013,0.054157
1638.1650,0.051674
1640.0286,0.050345
1641.8923,0.049356
1643.7560,0.048644
1645.6197,0.048764
1647.4833,0.049115
1649.3470,0.048503
1651.2107,0.048355
1653.0743,0.050002
1654.9380,0.050875
1656.8017,0.049605
1658.6653,0.048813
1660.5290,0.048324
1662.3927,0.047944
1664.2563,0.047072
1666.1200,0.045924
1667.9837,0.045101
1669.8474,0.044530
1671.7110,0.043917
1673.5747,0.043696
1675.4384,0.044038
1677.3020,0.044177
1679.1657,0.044317
1681.0294,0.044825
1682.8930,0.045800
1684.7567,0.047895
1686.6204,0.048216
1688.4840,0.047520
1690.3477,0.046687
1692.2114,0.045338
1694.0750,0.044226
1695.9387,0.043456
1697.8024,0.042225
1699.6661,0.041547
1701.5297,0.040431
1703.3934,0.038507
1705.2571,0.036774
1707.1207,0.034843
1708.9844,0.033302
1710.8481,0.031966
1712.7117,0.030760
1714.5754,0.029950
1716.4391,0.029789
1718.3027,0.029873
1720.1664,0.029308
1722.0301,0.028679
1723.8937,0.028020
1725.7574,0.027033
1727.6211,0.025954
1729.4848,0.024919
1731.3484,0.023809
1733.2121,0.023093
1735.0758,0.022236
1736.9394,0.020888
1738.8031,0.020043
1740.6668,0.019158
1742.5304,0.018459
1744.3941,0.017630
1746.2578,0.016636
1748.1214,0.016036
1749.9851,0.015585
1751.8488,0.014926
1753.7125,0.014291
1755.5761,0.013932
1757.4398,0.013704
1759.3035,0.013408
1761.1671,0.013330
1763.0308,0.013275
1764.8945,0.012828
1766.7581,0.012509
1768.6218,0.012530
1770.4855,0.012510
1772.3491,0.012698
1774.2128,0.012783
1776.0765,0.012468
1777.9401,0.012440
1779.8038,0.012676
1781.6675,0.012752
1783.5312,0.012669
1785.3948,0.012693
1787.2585,0.012746
1789.1222,0.012564
1790.9858,0.012527
1792.8495,0.012973
1794.7132,0.012873
1796.5768,0.012578
1798.4405,0.012724
1800.3042,0.013009
1802.1678,0.013025
1804.0315,0.013019
1805.8952,0.013045
1807.7589,0.012986
1809.6225,0.012941
1811.4862,0.012909
1813.3499,0.012802
1815.2135,0.012716
1817.0772,0.012669
1818.9409,0.012751
1820.8045,0.012814
1822.6682,0.012654
1824.5319,0.012662
1826.3955,0.012830
1828.2592,0.013036
1830.1229,0.013350
1831.9865,0.013120
1833.8502,0.012810
1835.7139,0.012834
1837.5776,0.012844
1839.4412,0.012620
1841.3049,0.012512
1843.1686,0.012541
1845.0322,0.012681
1846.8959,0.012979
1848.7596,0.013053
1850.6232,0.012931
1852.4869,0.012893
1854.3506,0.013048
1856.2142,0.013137
1858.0779,0.013146
1859.9416,0.013242
1861.8052,0.013177
1863.6689,0.012938
1865.5326,0.012862
1867.3963,0.012969
1869.2599,0.013011
1871.1236,0.013151
1872.9873,0.013119
1874.8509,0.012910
1876.7146,0.012759
1878.5783,0.012598
1880.4419,0.012544
1882.3056,0.012859
1884.1693,0.013189
1886.0329,0.012977
1887.8966,0.013000
1889.7603,0.013431
1891.6240,0.013254
1893.4876,0.012968
1895.3513,0.013055
1897.2150,0.013093
1899.0786,0.013066
1900.9423,0.013032
1902.8060,0.012862
1904.6696,0.012753
1906.5333,0.012746
1908.3970,0.012947
1910.2606,0.013389
1912.1243,0.013356
1913.9880,0.012705
1915.8516,0.012398
1917.7153,0.012834
1919.5790,0.013004
1921.4427,0.012471
1923.3063,0.012241
1925.1700,0.012539
1927.0337,0.012495
1928.8973,0.012079
1930.7610,0.011733
1932.6247,0.011818
1934.4883,0.012029
1936.3520,0.012134
1938.2157,0.011884
1940.0793,0.011546
1941.9430,0.011914
1943.8067,0.011512
1945.6704,0.010335
1947.5340,0.011096
1949.3977,0.011704
1951.2614,0.011093
1953.1250,0.011037
1954.9887,0.011093
1956.8524,0.010904
1958.7160,0.010112
1960.5797,0.009128
1962.4434,0.009172
1964.3070,0.008739
1966.1707,0.008135
1968.0344,0.007410
1969.8980,0.006966
1971.7617,0.007743
1973.6254,0.008511
1975.4891,0.008526
1977.3527,0.008407
1979.2164,0.008685
1981.0801,0.009694
1982.9437,0.009520
1984.8074,0.007682
1986.6711,0.007685
1988.5347,0.008897
1990.3984,0.009899
1992.2621,0.010704
1994.1257,0.009735
1995.9894,0.009174
1997.8531,0.008700
1999.7167,0.007990
2001.5804,0.008981
2003.4441,0.009251
2005.3078,0.007836
2007.1714,0.007262
2009.0351,0.007557
2010.8988,0.007625
2012.7624,0.007721
2014.6261,0.007733
2016.4898,0.006829
2018.3534,0.006612
2020.2171,0.007229
2022.0808,0.006713
2023.9444,0.006286
2025.8081,0.006685
2027.6718,0.007133
2029.5355,0.007251
2031.3991,0.007169
2033.2628,0.007935
2035.1265,0.009577
2036.9901,0.010193
2038.8538,0.009007
2040.7175,0.008620
2042.5811,0.009871
2044.4448,0.010674
2046.3085,0.010474
2048.1721,0.010668
2050.0358,0.011461
2051.8995,0.011652
2053.7631,0.011789
2055.6268,0.012442
2057.4905,0.012499
2059.3542,0.011928
2061.2178,0.012089
2063.0815,0.012347
2064.9452,0.012688
2066.8088,0.013319
2068.6725,0.013451
2070.5362,0.013492
2072.3998,0.013850
2074.2635,0.013757
2076.1272,0.013176
2077.9908,0.013086
2079.8545,0.013433
2081.7182,0.014019
2083.5819,0.014495
2085.4455,0.014506
2087.3092,0.014847
2089.1729,0.014889
2091.0365,0.014365
2092.9002,0.014136
2094.7639,0.014532
2096.6275,0.015430
2098.4912,0.015539
2100.3549,0.014610
2102.2185,0.014536
2104.0822,0.015037
2105.9459,0.014335
2107.8095,0.013611
2109.6732,0.014089
2111.5369,0.015019
2113.4006,0.015369
2115.2642,0.015215
2117.1279,0.015143
2118.9916,0.014978
2120.8552,0.014685
2122.7189,0.014447
2124.5826,0.014397
2126.4462,0.014595
2128.3099,0.014200
2130.1736,0.013327
2132.0372,0.013155
2133.9009,0.012870
2135.7646,0.012518
2137.6282,0.012509
2139.4919,0.012243
2141.3556,0.011897
2143.2193,0.011038
2145.0829,0.011045
2146.9466,0.011188
2148.8103,0.009791
2150.6739,0.007600
2152.5376,0.006072
2154.4013,0.006499
2156.2649,0.005764
2158.1286,0.005748
2159.9923,0.007451
2161.8559,0.008164
2163.7196,0.009229
2165.5833,0.009807
2167.4470,0.009040
2169.3106,0.008394
2171.1743,0.009550
2173.0380,0.009994
2174.9016,0.008531
2176.7653,0.008024
2178.6290,0.008822
2180.4926,0.010640
2182.3563,0.011463
2184.2200,0.011310
2186.0836,0.011925
2187.9473,0.011393
2189.8110,0.010920
2191.6746,0.011557
2193.5383,0.012156
2195.4020,0.012466
2197.2657,0.013026
2199.1293,0.013573
2200.9930,0.013177
2202.8567,0.012492
2204.7203,0.012302
2206.5840,0.012424
2208.4477,0.013034
2210.3113,0.013393
2212.1750,0.013290
2214.0387,0.013884
2215.9023,0.014787
2217.7660,0.014260
2219.6297,0.013675
2221.4934,0.014610
2223.3570,0.015086
2225.2207,0.014412
2227.0844,0.013814
2228.9480,0.013995
2230.8117,0.014264
2232.6754,0.014844
2234.5390,0.014936
2236.4027,0.014749
2238.2664,0.014539
2240.1300,0.014142
2241.9937,0.015123
2243.8574,0.016732
2245.7210,0.016791
2247.5847,0.015803
2249.4484,0.015484
2251.3121,0.016088
2253.1757,0.016480
2255.0394,0.016288
2256.9031,0.016368
2258.7667,0.016476
2260.6304,0.016600
2262.4941,0.017106
2264.3577,0.017272
2266.2214,0.016897
2268.0851,0.016780
2269.9487,0.017145
2271.8124,0.017409
2273.6761,0.017674
2275.5397,0.018564
2277.4034,0.019161
2279.2671,0.019017
2281.1308,0.019168
2282.9944,0.019569
2284.8581,0.019366
2286.7218,0.018950
2288.5854,0.019152
2290.4491,0.019585
2292.3128,0.019726
2294.1764,0.019809
2296.0401,0.019686
2297.9038,0.019227
2299.7674,0.019411
2301.6311,0.019705
2303.4948,0.019395
2305.3585,0.019592
2307.2221,0.019625
2309.0858,0.019405
2310.9495,0.019681
2312.8131,0.019634
2314.6768,0.019511
2316.5405,0.019717
2318.4041,0.019874
2320.2678,0.020231
2322.1315,0.020694
2323.9951,0.020805
2325.8588,0.020229
2327.7225,0.019321
2329.5861,0.019208
2331.4498,0.019544
2333.3135,0.019502
2335.1772,0.019400
2337.0408,0.019456
2338.9045,0.019483
2340.7682,0.019556
2342.6318,0.019743
2344.4955,0.020066
2346.3592,0.020143
2348.2228,0.019584
2350.0865,0.019093
2351.9502,0.018989
2353.8138,0.019139
2355.6775,0.019263
2357.5412,0.019453
2359.4049,0.019634
2361.2685,0.019426
2363.1322,0.019205
2364.9959,0.019086
2366.8595,0.019121
2368.7232,0.019442
2370.5869,0.019865
2372.4505,0.020006
2374.3142,0.019718
2376.1779,0.019506
2378.0415,0.019694
2379.9052,0.019958
2381.7689,0.020102
2383.6325,0.020005
2385.4962,0.019802
2387.3599,0.019823
2389.2236,0.020007
2391.0872,0.019899
2392.9509,0.019836
2394.8146,0.020203
2396.6782,0.020254
2398.5419,0.020066
2400.4056,0.020159
2402.2692,0.020005
2404.1329,0.019681
2405.9966,0.019919
2407.8602,0.020609
2409.7239,0.020859
2411.5876,0.020489
2413.4512,0.020228
2415.3149,0.020437
2417.1786,0.020573
2419.0423,0.020377
2420.9059,0.020372
2422.7696,0.020665
2424.6333,0.020837
2426.4969,0.021050
2428.3606,0.021211
2430.2243,0.021080
2432.0879,0.021013
2433.9516,0.020810
2435.8153,0.020514
2437.6789,0.020669
2439.5426,0.020923
2441.4063,0.020961
2443.2700,0.021210
2445.1336,0.021483
2446.9973,0.021554
2448.8610,0.021582
2450.7246,0.021224
2452.5883,0.020780
2454.4520,0.021194
2456.3156,0.021549
2458.1793,0.021145
2460.0430,0.020941
2461.9066,0.021188
2463.7703,0.021479
2465.6340,0.021675
2467.4976,0.021835
2469.3613,0.021627
2471.2250,0.021504
2473.0887,0.021781
2474.9523,0.021785
2476.8160,0.021403
2478.6797,0.021081
2480.5433,0.021107
2482.4070,0.021470
2484.2707,0.021798
2486.1343,0.021759
2487.9980,0.021699
2489.8617,0.021790
2491.7253,0.021669
2493.5890,0.021636
2495.4527,0.022025
2497.3164,0.022349
2499.1800,0.022398
2501.0437,0.022418
2502.9074,0.022525
2504.7710,0.022613
2506.6347,0.022452
2508.4984,0.022248
2510.3620,0.022424
2512.2257,0.022821
2514.0894,0.022883
2515.9530,0.022548
2517.8167,0.022701
2519.6804,0.023227
2521.5440,0.023429
2523.4077,0.023442
2525.2714,0.023492
2527.1351,0.023530
2528.9987,0.023327
2530.8624,0.023151
2532.7261,0.023106
2534.5897,0.023093
2536.4534,0.023535
2538.3171,0.023915
2540.1807,0.023655
2542.0444,0.023468
2543.9081,0.023471
2545.7717,0.023562
2547.6354,0.023861
2549.4991,0.024301
2551.3627,0.024151
2553.2264,0.023637
2555.0901,0.023946
2556.9538,0.024163
2558.8174,0.023778
2560.6811,0.023875
2562.5448,0.024253
2564.4084,0.024364
2566.2721,0.024606
2568.1358,0.024648
2569.9994,0.024249
2571.8631,0.024174
2573.7268,0.024896
2575.5904,0.025420
2577.4541,0.025206
2579.3178,0.025012
2581.1815,0.025252
2583.0451,0.025283
2584.9088,0.025122
2586.7725,0.025399
2588.6361,0.025801
2590.4998,0.025948
2592.3635,0.025952
2594.2271,0.026156
2596.0908,0.026416
2597.9545,0.026678
2599.8181,0.026775
2601.6818,0.026546
2603.5455,0.026640
2605.4091,0.026844
2607.2728,0.026793
2609.1365,0.026665
2611.0002,0.026712
2612.8638,0.027107
2614.7275,0.027466
2616.5912,0.027594
2618.4548,0.027631
2620.3185,0.027633
2622.1822,0.027587
2624.0458,0.027606
2625.9095,0.027913
2627.7732,0.028310
2629.6368,0.028394
2631.5005,0.028375
2633.3642,0.028455
2635.2279,0.028678
2637.0915,0.029050
2638.9552,0.029211
2640.8189,0.029241
2642.6825,0.029363
2644.5462,0.029565
2646.4099,0.029635
2648.2735,0.029563
2650.1372,0.029502
2652.0009,0.029574
2653.8645,0.029689
2655.7282,0.029793
2657.5919,0.029860
2659.4555,0.029680
2661.3192,0.029616
2663.1829,0.029861
2665.0466,0.029974
2666.9102,0.030098
2668.7739,0.030105
2670.6376,0.029898
2672.5012,0.029954
2674.3649,0.030168
2676.2286,0.030240
2678.0922,0.030377
2679.9559,0.030707
2681.8196,0.031031
2683.6832,0.031166
2685.5469,0.031020
2687.4106,0.030921
2689.2742,0.031060
2691.1379,0.031236
2693.0016,0.031475
2694.8653,0.031640
2696.7289,0.031659
2698.5926,0.031843
2700.4563,0.032174
2702.3199,0.032326
2704.1836,0.032249
2706.0473,0.032265
2707.9109,0.032518
2709.7746,0.032745
2711.6383,0.032823
2713.5019,0.032851
2715.3656,0.032967
2717.2293,0.033201
2719.0930,0.033268
2720.9566,0.033384
2722.8203,0.033744
2724.6840,0.033866
2726.5476,0.033983
2728.4113,0.034258
2730.2750,0.034417
2732.1386,0.034464
2734.0023,0.034518
2735.8660,0.034627
2737.7296,0.034894
2739.5933,0.035125
2741.4570,0.035100
2743.3206,0.035145
2745.1843,0.035220
2747.0480,0.035460
2748.9117,0.035942
2750.7753,0.036431
2752.6390,0.036709
2754.5027,0.036552
2756.3663,0.036681
2758.2300,0.037178
2760.0937,0.037234
2761.9573,0.037163
2763.8210,0.037308
2765.6847,0.037556
2767.5483,0.037898
2769.4120,0.038244
2771.2757,0.038535
2773.1394,0.038697
2775.0030,0.038981
2776.8667,0.039237
2778.7304,0.039412
2780.5940,0.039663
2782.4577,0.039896
2784.3214,0.039731
2786.1850,0.039625
2788.0487,0.039801
2789.9124,0.039888
2791.7760,0.039835
2793.6397,0.039521
2795.5034,0.039511
2797.3670,0.039658
2799.2307,0.039690
2801.0944,0.039677
2802.9581,0.039279
2804.8217,0.039236
2806.6854,0.039552
2808.5491,0.039476
2810.4127,0.039354
2812.2764,0.039562
2814.1401,0.039669
2816.0037,0.039823
2817.8674,0.040030
2819.7311,0.040218
2821.5947,0.040458
2823.4584,0.040643
2825.3221,0.040695
2827.1857,0.040628
2829.0494,0.040661
2830.9131,0.040699
2832.7768,0.040813
2834.6404,0.040982
2836.5041,0.041068
2838.3678,0.041543
2840.2314,0.042025
2842.0951,0.042246
2843.9588,0.042468
2845.8224,0.042966
2847.6861,0.043375
2849.5498,0.043391
2851.4134,0.043581
2853.2771,0.044065
2855.1408,0.044438
2857.0045,0.044737
2858.8681,0.045241
2860.7318,0.045760
2862.5955,0.045796
2864.4591,0.045833
2866.3228,0.046215
2868.1865,0.046630
2870.0501,0.046918
2871.9138,0.047276
2873.7775,0.047572
2875.6411,0.047689
2877.5048,0.047917
2879.3685,0.048118
2881.2321,0.048283
2883.0958,0.048663
2884.9595,0.048993
2886.8232,0.049208
2888.6868,0.049129
2890.5505,0.048743
2892.4142,0.048731
2894.2778,0.049104
2896.1415,0.049320
2898.0052,0.049548
2899.8688,0.049578
2901.7325,0.049454
2903.5962,0.049321
2905.4598,0.049187
2907.3235,0.049304
2909.1872,0.049281
2911.0509,0.049130
2912.9145,0.049423
2914.7782,0.049980
2916.6419,0.050363
2918.5055,0.050437
2920.3692,0.050320
2922.2329,0.050459
2924.0965,0.050711
2925.9602,0.050548
2927.8239,0.050759
2929.6875,0.051273
2931.5512,0.050937
2933.4149,0.050553
2935.2785,0.050782
2937.1422,0.050661
2939.0059,0.050196
2940.8696,0.049848
2942.7332,0.049581
2944.5969,0.049580
2946.4606,0.050030
2948.3242,0.050331
2950.1879,0.050210
2952.0516,0.050111
2953.9152,0.050078
2955.7789,0.049849
2957.6426,0.049645
2959.5062,0.049500
2961.3699,0.049610
2963.2336,0.049964
2965.0972,0.050261
2966.9609,0.050481
2968.8246,0.050792
2970.6883,0.050980
2972.5519,0.051039
2974.4156,0.051000
2976.2793,0.051011
2978.1429,0.051234
2980.0066,0.051696
2981.8703,0.051703
2983.7339,0.051690
2985.5976,0.052047
2987.4613,0.052305
2989.3249,0.052429
2991.1886,0.052873
2993.0523,0.053412
2994.9160,0.053675
2996.7796,0.053944
2998.6433,0.054035
3000.5070,0.054044
3002.3706,0.054294
3004.2343,0.054578
3006.0980,0.054900
3007.9616,0.055178
3009.8253,0.055351
3011.6890,0.055872
3013.5526,0.056556
3015.4163,0.056647
3017.2800,0.056624
3019.1436,0.056595
3021.0073,0.056918
3022.8710,0.057536
3024.7347,0.057807
3026.5983,0.057783
3028.4620,0.057773
3030.3257,0.057647
3032.1893,0.058012
3034.0530,0.058469
3035.9167,0.059100
3037.7803,0.059508
3039.6440,0.059478
3041.5077,0.059587
3043.3713,0.059729
3045.2350,0.060086
3047.0987,0.060448
3048.9624,0.060258
3050.8260,0.060395
3052.6897,0.060939
3054.5534,0.061166
3056.4170,0.061139
3058.2807,0.061437
3060.1444,0.061704
3062.0080,0.061900
3063.8717,0.062080
3065.7354,0.062356
3067.5990,0.062938
3069.4627,0.063341
3071.3264,0.062910
3073.1900,0.062666
3075.0537,0.062663
3076.9174,0.062698
3078.7811,0.063031
3080.6447,0.063838
3082.5084,0.064417
3084.3721,0.064190
3086.2357,0.063764
3088.0994,0.063669
3089.9631,0.063738
3091.8267,0.063400
3093.6904,0.063077
3095.5541,0.063234
3097.4177,0.063127
3099.2814,0.063148
3101.1451,0.063397
3103.0087,0.062965
3104.8724,0.062529
3106.7361,0.063296
3108.5998,0.063814
3110.4634,0.063090
3112.3271,0.062712
3114.1908,0.063217
3116.0544,0.063317
3117.9181,0.063323
3119.7818,0.063369
3121.6454,0.063197
3123.5091,0.063028
3125.3728,0.062971
3127.2364,0.062893
3129.1001,0.062701
3130.9638,0.062365
3132.8275,0.062334
3134.6911,0.062365
3136.5548,0.062503
3138.4185,0.062333
3140.2821,0.062283
3142.1458,0.062310
3144.0095,0.062166
3145.8731,0.062171
3147.7368,0.062264
3149.6005,0.062490
3151.4641,0.062851
3153.3278,0.062860
3155.1915,0.062600
3157.0551,0.062765
3158.9188,0.063019
3160.7825,0.063009
3162.6462,0.062674
3164.5098,0.062151
3166.3735,0.062194
3168.2372,0.062184
3170.1008,0.062308
3171.9645,0.062254
3173.8282,0.061466
3175.6918,0.061579
3177.5555,0.062409
3179.4192,0.061959
3181.2828,0.061899
3183.1465,0.062355
3185.0102,0.062218
3186.8739,0.061775
3188.7375,0.061688
3190.6012,0.061905
3192.4649,0.062387
3194.3285,0.062782
3196.1922,0.063144
3198.0559,0.062791
3199.9195,0.062623
3201.7832,0.062968
3203.6469,0.062792
3205.5105,0.062188
3207.3742,0.061863
3209.2379,0.062387
3211.1015,0.062907
3212.9652,0.062543
3214.8289,0.062478
3216.6926,0.063204
3218.5562,0.063797
3220.4199,0.063996
3222.2836,0.063695
3224.1472,0.063411
3226.0109,0.063371
3227.8746,0.062821
3229.7382,0.062740
3231.6019,0.063365
3233.4656,0.063486
3235.3292,0.063393
3237.1929,0.064182
3239.0566,0.065064
3240.9202,0.064966
3242.7839,0.063986
3244.6476,0.064300
3246.5113,0.065099
3248.3749,0.064820
3250.2386,0.063720
3252.1023,0.063678
3253.9659,0.065102
3255.8296,0.065961
3257.6933,0.065935
3259.5569,0.065535
3261.4206,0.065311
3263.2843,0.065709
3265.1479,0.065259
3267.0116,0.064926
3268.8753,0.065248
3270.7390,0.065738
3272.6026,0.065706
3274.4663,0.065398
3276.3300,0.065370
3278.1936,0.065571
3280.0573,0.066020
3281.9210,0.065809
3283.7846,0.064557
3285.6483,0.064450
3287.5120,0.065207
3289.3756,0.065090
3291.2393,0.064336
3293.1030,0.064086
3294.9666,0.063177
3296.8303,0.062483
3298.6940,0.062597
3300.5577,0.062302
3302.4213,0.061857
3304.2850,0.061921
3306.1487,0.062236
3308.0123,0.062116
3309.8760,0.061020
3311.7397,0.060856
3313.6033,0.060749
3315.4670,0.060251
3317.3307,0.060821
3319.1943,0.061704
3321.0580,0.061930
3322.9217,0.061410
3324.7854,0.060952
3326.6490,0.060544
3328.5127,0.060632
3330.3764,0.061377
3332.2400,0.061310
3334.1037,0.060744
3335.9674,0.060565
3337.8310,0.060275
3339.6947,0.058551
3341.5584,0.057304
3343.4220,0.058418
3345.2857,0.059410
3347.1494,0.057663
3349.0130,0.055971
3350.8767,0.055733
3352.7404,0.056087
3354.6041,0.056860
3356.4677,0.056107
3358.3314,0.054288
3360.1951,0.053863
3362.0587,0.054231
3363.9224,0.054952
3365.7861,0.054775
3367.6497,0.053721
3369.5134,0.053389
3371.3771,0.053987
3373.2407,0.054531
3375.1044,0.054289
3376.9681,0.053678
3378.8317,0.053466
3380.6954,0.053165
3382.5591,0.052749
3384.4228,0.052606
3386.2864,0.053268
3388.1501,0.054257
3390.0138,0.053832
3391.8774,0.052538
3393.7411,0.053076
3395.6048,0.053792
3397.4684,0.053636
3399.3321,0.051927
3401.1958,0.051872
3403.0594,0.053064
3404.9231,0.051862
3406.7868,0.049651
3408.6505,0.049372
3410.5141,0.049082
3412.3778,0.048716
3414.2415,0.048340
3416.1051,0.047330
3417.9688,0.045622
3419.8325,0.044306
3421.6961,0.043638
3423.5598,0.043742
3425.4235,0.042887
3427.2871,0.042699
3429.1508,0.043458
3431.0145,0.042105
3432.8781,0.040177
3434.7418,0.040241
3436.6055,0.040093
3438.4692,0.038900
3440.3328,0.037769
3442.1965,0.037301
3444.0602,0.037683
3445.9238,0.037692
3447.7875,0.037240
3449.6512,0.037200
3451.5148,0.036199
3453.3785,0.035213
3455.2422,0.035758
3457.1058,0.035941
3458.9695,0.035073
3460.8332,0.035238
3462.6969,0.035276
3464.5605,0.033856
3466.4242,0.033004
3468.2879,0.033766
3470.1515,0.033774
3472.0152,0.033507
3473.8789,0.033042
3475.7425,0.031843
3477.6062,0.031291
3479.4699,0.031445
3481.3335,0.031600
3483.1972,0.031686
3485.0609,0.030386
3486.9245,0.029525
3488.7882,0.029113
3490.6519,0.029619
3492.5156,0.030212
3494.3792,0.029551
3496.2429,0.027733
3498.1066,0.027582
3499.9702,0.028570
3501.8339,0.027948
3503.6976,0.025342
3505.5612,0.024280
3507.4249,0.025350
3509.2886,0.026415
3511.1522,0.026431
3513.0159,0.025681
3514.8796,0.025250
3516.7432,0.024917
3518.6069,0.024510
3520.4706,0.024389
3522.3343,0.023207
3524.1979,0.022316
3526.0616,0.022144
3527.9253,0.022503
3529.7889,0.021598
3531.6526,0.021094
3533.5163,0.021716
3535.3799,0.021991
3537.2436,0.022183
3539.1073,0.022709
3540.9709,0.021223
3542.8346,0.019916
3544.6983,0.020469
3546.5620,0.019768
3548.4256,0.018857
3550.2893,0.019568
3552.1530,0.019333
3554.0166,0.018533
3555.8803,0.019057
3557.7440,0.019176
3559.6076,0.019091
3561.4713,0.019041
3563.3350,0.017434
3565.1986,0.016139
3567.0623,0.014900
3568.9260,0.014126
3570.7896,0.015513
3572.6533,0.016116
3574.5170,0.016241
3576.3807,0.016662
3578.2443,0.016196
3580.1080,0.015531
3581.9717,0.014651
3583.8353,0.015497
3585.6990,0.015960
3587.5627,0.013351
3589.4263,0.012000
3591.2900,0.013867
3593.1537,0.013837
3595.0173,0.013086
3596.8810,0.012674
3598.7447,0.012363
3600.6084,0.012359
3602.4720,0.012604
3604.3357,0.012428
3606.1994,0.012071
3608.0630,0.011630
3609.9267,0.010695
3611.7904,0.010019
3613.6540,0.010500
3615.5177,0.011186
3617.3814,0.012050
3619.2450,0.011268
3621.1087,0.009350
3622.9724,0.009629
3624.8360,0.010072
3626.6997,0.010119
3628.5634,0.010949
3630.4271,0.009417
3632.2907,0.007506
3634.1544,0.008807
3636.0181,0.009863
3637.8817,0.009619
3639.7454,0.009305
3641.6091,0.009092
3643.4727,0.009003
3645.3364,0.009236
3647.2001,0.008603
3649.0637,0.007696
3650.9274,0.007536
3652.7911,0.007269
3654.6547,0.007641
3656.5184,0.008545
3658.3821,0.008813
3660.2458,0.008911
3662.1094,0.009543
3663.9731,0.009045
3665.8368,0.008906
3667.7004,0.008602
3669.5641,0.007309
3671.4278,0.006074
3673.2914,0.006503
3675.1551,0.007082
3677.0188,0.006991
3678.8824,0.007011
3680.7461,0.007667
3682.6098,0.008195
3684.4735,0.007783
3686.3371,0.007181
3688.2008,0.006770
3690.0645,0.006037
3691.9281,0.006634
3693.7918,0.008008
3695.6555,0.009124
3697.5191,0.009751
3699.3828,0.008907
3701.2465,0.007727
3703.1101,0.007914
3704.9738,0.008537
3706.8375,0.007922
3708.7011,0.007851
3710.5648,0.008073
3712.4285,0.007505
3714.2922,0.008269
3716.1558,0.008452
3718.0195,0.007928
3719.8832,0.007782
3721.7468,0.007518
3723.6105,0.007553
3725.4742,0.008446
3727.3378,0.008079
3729.2015,0.008265
3731.0652,0.009217
3732.9288,0.009154
3734.7925,0.008180
3736.6562,0.007843
3738.5199,0.007350
3740.3835,0.007865
3742.2472,0.008089
3744.1109,0.007479
3745.9745,0.005763
3747.8382,0.005258
3749.7019,0.005824
3751.5655,0.005643
3753.4292,0.006476
3755.2929,0.007777
3757.1565,0.009284
3759.0202,0.010034
3760.8839,0.009431
3762.7475,0.009059
3764.6112,0.009131
3766.4749,0.009077
3768.3386,0.009195
3770.2022,0.008743
3772.0659,0.008168
3773.9296,0.008922
3775.7932,0.009219
3777.6569,0.009102
3779.5206,0.009480
3781.3842,0.009569
3783.2479,0.009809
3785.1116,0.010182
3786.9752,0.010026
3788.8389,0.010040
3790.7026,0.010136
3792.5662,0.009682
3794.4299,0.009020
3796.2936,0.009101
3798.1573,0.009508
3800.0209,0.009304
3801.8846,0.009359
3803.7483,0.008917
3805.6119,0.008735
3807.4756,0.009646
3809.3393,0.010495
3811.2029,0.010463
3813.0666,0.010059
3814.9303,0.009693
3816.7939,0.008597
3818.6576,0.008468
3820.5213,0.009025
3822.3850,0.008988
3824.2486,0.009605
3826.1123,0.010645
3827.9760,0.010757
3829.8396,0.010115
3831.7033,0.009332
3833.5670,0.009266
3835.4306,0.009766
3837.2943,0.009757
3839.1580,0.009573
3841.0216,0.009359
3842.8853,0.008775
3844.7490,0.009327
3846.6126,0.010492
3848.4763,0.010606
3850.3400,0.009599
3852.2037,0.008747
3854.0673,0.007904
3855.9310,0.008275
3857.7947,0.009950
3859.6583,0.009733
3861.5220,0.009472
3863.3857,0.009504
3865.2493,0.008721
3867.1130,0.008657
3868.9767,0.009394
3870.8403,0.010133
3872.7040,0.011140
3874.5677,0.010877
3876.4314,0.010425
3878.2950,0.010928
3880.1587,0.010523
3882.0224,0.010109
3883.8860,0.010178
3885.7497,0.009667
3887.6134,0.009342
3889.4770,0.010169
3891.3407,0.010882
3893.2044,0.011034
3895.0680,0.010966
3896.9317,0.010575
3898.7954,0.009837
3900.6590,0.009955
3902.5227,0.010192
3904.3864,0.010660
3906.2501,0.011353
3908.1137,0.011926
3909.9774,0.011906
3911.8411,0.011724
3913.7047,0.011265
3915.5684,0.010955
3917.4321,0.010746
3919.2957,0.010775
3921.1594,0.010841
3923.0231,0.010922
3924.8867,0.011014
3926.7504,0.011806
3928.6141,0.011481
3930.4777,0.010661
3932.3414,0.010801
3934.2051,0.011478
3936.0688,0.011784
3937.9324,0.011807
3939.7961,0.011733
3941.6598,0.011289
3943.5234,0.011666
3945.3871,0.011703
3947.2508,0.011106
3949.1144,0.011147
3950.9781,0.011341
3952.8418,0.011061
3954.7054,0.010549
3956.5691,0.011096
3958.4328,0.011639
3960.2965,0.011735
3962.1601,0.011382
3964.0238,0.011133
3965.8875,0.011129
3967.7511,0.011733
3969.6148,0.012136
3971.4785,0.012345
3973.3421,0.012062
3975.2058,0.011709
3977.0695,0.011494
3978.9331,0.011807
3980.7968,0.012098
3982.6605,0.012367
3984.5241,0.012189
3986.3878,0.011707
3988.2515,0.011830
3990.1152,0.012198
3991.9788,0.011889
3993.8425,0.012022
3995.7062,0.012410
3997.5698,0.012292
3999.4335,0.012055
