Wavenumber,Intensity
650.4205,0.118122
652.2841,0.118829
654.1478,0.121426
656.0115,0.126191
657.8751,0.131480
659.7388,0.133776
661.6025,0.138715
663.4661,0.144610
665.3298,0.149293
667.1935,0.152926
669.0571,0.151899
670.9208,0.145040
672.7845,0.138384
674.6481,0.131195
676.5118,0.125946
678.3755,0.122377
680.2392,0.119076
682.1028,0.115058
683.9665,0.112352
685.8302,0.109710
687.6938,0.108139
689.5575,0.106395
691.4212,0.104390
693.2848,0.102494
695.1485,0.100884
697.0122,0.099966
698.8758,0.100290
700.7395,0.101621
702.6032,0.102570
704.4669,0.100910
706.3305,0.097469
708.1942,0.092140
710.0579,0.086929
711.9215,0.082577
713.7852,0.078143
715.6489,0.074820
717.5125,0.072577
719.3762,0.070307
721.2399,0.068025
723.1035,0.066112
724.9672,0.064296
726.8309,0.062896
728.6945,0.062514
730.5582,0.062245
732.4219,0.061834
734.2856,0.060199
736.1492,0.057065
738.0129,0.055069
739.8766,0.055581
741.7402,0.057828
743.6039,0.058866
745.4676,0.058292
747.3312,0.057391
749.1949,0.056533
751.0586,0.055809
752.9222,0.055463
754.7859,0.055388
756.6496,0.055271
758.5132,0.055422
760.3769,0.055908
762.2406,0.056457
764.1043,0.056481
765.9679,0.055863
767.8316,0.055507
769.6953,0.055796
771.5589,0.056015
773.4226,0.056260
775.2863,0.056670
777.1499,0.057474
779.0136,0.058422
780.8773,0.059479
782.7409,0.060888
784.6046,0.062588
786.4683,0.063866
788.3320,0.064285
790.1956,0.064480
792.0593,0.064873
793.9230,0.065351
795.7866,0.066568
797.6503,0.068306
799.5140,0.069717
801.3776,0.070901
803.2413,0.071338
805.1050,0.070249
806.9686,0.068821
808.8323,0.067999
810.6960,0.067818
812.5596,0.067358
814.4233,0.066100
816.2870,0.064567
818.1507,0.063396
820.0143,0.062697
821.8780,0.062371
823.7417,0.062381
825.6053,0.062914
827.4690,0.064021
829.3327,0.064903
831.1963,0.063138
833.0600,0.058341
834.9237,0.054068
836.7873,0.052373
838.6510,0.051961
840.5147,0.051999
842.3784,0.052655
844.2420,0.053266
846.1057,0.053803
847.9694,0.055005
849.8330,0.056521
851.6967,0.058137
853.5604,0.060311
855.4240,0.062550
857.2877,0.063535
859.1514,0.062593
861.0150,0.060383
862.8787,0.058811
864.7424,0.058177
866.6060,0.057868
868.4697,0.057806
870.3334,0.058065
872.1971,0.058566
874.0607,0.059226
875.9244,0.059835
877.7881,0.060325
879.6517,0.060928
881.5154,0.061830
883.3791,0.062610
885.2427,0.063231
887.1064,0.064042
888.9701,0.065012
890.8337,0.066052
892.6974,0.067444
894.5611,0.068852
896.4247,0.070337
898.2884,0.072373
900.1521,0.074872
902.0158,0.077354
903.8794,0.079753
905.7431,0.081911
907.6068,0.083874
909.4704,0.086188
911.3341,0.089089
913.1978,0.092072
915.0614,0.093156
916.9251,0.089474
918.7888,0.083111
920.6524,0.078655
922.5161,0.077175
924.3798,0.077547
926.2435,0.078862
928.1071,0.080444
929.9708,0.082468
931.8345,0.085040
933.6981,0.087588
935.5618,0.089266
937.4255,0.089674
939.2891,0.089323
941.1528,0.089491
943.0165,0.090427
944.8801,0.091713
946.7438,0.093323
948.6075,0.095117
950.4711,0.096948
952.3348,0.098990
954.1985,0.101164
956.0622,0.103318
957.9258,0.104916
959.7895,0.106060
961.6532,0.107360
963.5168,0.109149
965.3805,0.111438
967.2442,0.114058
969.1078,0.116827
970.9715,0.119888
972.8352,0.123270
974.6988,0.127573
976.5625,0.133775
978.4262,0.142780
980.2899,0.153551
982.1535,0.157612
984.0172,0.147690
985.8809,0.135051
987.7445,0.130495
989.6082,0.131417
991.4719,0.133766
993.3355,0.136754
995.1992,0.140084
997.0629,0.143586
998.9265,0.146957
1000.7902,0.149736
1002.6539,0.152059
1004.5175,0.154774
1006.3812,0.157688
1008.2449,0.160082
1010.1086,0.161046
1011.9722,0.160120
1013.8359,0.157493
1015.6996,0.153591
1017.5632,0.149004
1019.4269,0.144471
1021.2906,0.140169
1023.1542,0.136116
1025.0179,0.132251
1026.8816,0.128883
1028.7452,0.125758
1030.6089,0.122230
1032.4726,0.118380
1034.3362,0.115018
1036.1999,0.112264
1038.0636,0.109875
1039.9273,0.107936
1041.7909,0.106399
1043.6546,0.105070
1045.5183,0.103701
1047.3819,0.101971
1049.2456,0.099236
1051.1093,0.094962
1052.9729,0.090112
1054.8366,0.086038
1056.7003,0.083278
1058.5639,0.081679
1060.4276,0.080831
1062.2913,0.080296
1064.1550,0.079799
1066.0186,0.079556
1067.8823,0.079720
1069.7460,0.080077
1071.6096,0.080487
1073.4733,0.080772
1075.3370,0.080890
1077.2006,0.080955
1079.0643,0.081114
1080.9280,0.081364
1082.7916,0.081826
1084.6553,0.082434
1086.5190,0.083094
1088.3826,0.083959
1090.2463,0.085097
1092.1100,0.086529
1093.9737,0.088294
1095.8373,0.090299
1097.7010,0.092491
1099.5647,0.094609
1101.4283,0.096440
1103.2920,0.097827
1105.1557,0.098557
1107.0193,0.098065
1108.8830,0.095664
1110.7467,0.091500
1112.6103,0.086334
1114.4740,0.080903
1116.3377,0.075835
1118.2014,0.071707
1120.0650,0.068859
1121.9287,0.066936
1123.7924,0.065404
1125.6560,0.063947
1127.5197,0.062308
1129.3834,0.060363
1131.2470,0.058484
1133.1107,0.056918
1134.9744,0.055790
1136.8380,0.054995
1138.7017,0.054308
1140.5654,0.053840
1142.4290,0.053519
1144.2927,0.052885
1146.1564,0.051785
1148.0201,0.050714
1149.8837,0.050064
1151.7474,0.049924
1153.6111,0.050254
1155.4747,0.050777
1157.3384,0.050951
1159.2021,0.050416
1161.0657,0.049493
1162.9294,0.048943
1164.7931,0.049042
1166.6567,0.049758
1168.5204,0.050967
1170.3841,0.052305
1172.2477,0.053172
1174.1114,0.052908
1175.9751,0.051375
1177.8388,0.049382
1179.7024,0.047847
1181.5661,0.047089
1183.4298,0.047167
1185.2934,0.047819
1187.1571,0.048634
1189.0208,0.049229
1190.8844,0.049007
1192.7481,0.047785
1194.6118,0.046282
1196.4754,0.045253
1198.3391,0.044873
1200.2028,0.044823
1202.0665,0.044604
1203.9301,0.044212
1205.7938,0.043967
1207.6575,0.043857
1209.5211,0.043811
1211.3848,0.043806
1213.2485,0.043837
1215.1121,0.043957
1216.9758,0.044215
1218.8395,0.044498
1220.7031,0.044674
1222.5668,0.044789
1224.4305,0.044786
1226.2941,0.044638
1228.1578,0.044474
1230.0215,0.044411
1231.8852,0.044490
1233.7488,0.044573
1235.6125,0.044750
1237.4762,0.045191
1239.3398,0.045611
1241.2035,0.045697
1243.0672,0.045450
1244.9308,0.045110
1246.7945,0.044906
1248.6582,0.044978
1250.5218,0.045207
1252.3855,0.045511
1254.2492,0.045954
1256.1129,0.046363
1257.9765,0.046549
1259.8402,0.046869
1261.7039,0.047578
1263.5675,0.048273
1265.4312,0.048525
1267.2949,0.048344
1269.1585,0.048085
1271.0222,0.048019
1272.8859,0.048225
1274.7495,0.048673
1276.6132,0.049285
1278.4769,0.050144
1280.3405,0.051422
1282.2042,0.053023
1284.0679,0.054714
1285.9316,0.056009
1287.7952,0.056646
1289.6589,0.057150
1291.5226,0.057909
1293.3862,0.058829
1295.2499,0.060236
1297.1136,0.062622
1298.9772,0.065944
1300.8409,0.069983
1302.7046,0.074292
1304.5682,0.077394
1306.4319,0.077137
1308.2956,0.072204
1310.1592,0.063751
1312.0229,0.055477
1313.8866,0.050352
1315.7503,0.048604
1317.6139,0.048951
1319.4776,0.050297
1321.3413,0.051551
1323.2049,0.052461
1325.0686,0.053501
1326.9323,0.054692
1328.7959,0.055830
1330.6596,0.056786
1332.5233,0.057270
1334.3869,0.057113
1336.2506,0.057098
1338.1143,0.058205
1339.9780,0.059657
1341.8416,0.059097
1343.7053,0.057480
1345.5690,0.056875
1347.4326,0.057542
1349.2963,0.058701
1351.1600,0.059506
1353.0236,0.059926
1354.8873,0.060771
1356.7510,0.062130
1358.6146,0.063279
1360.4783,0.064012
1362.3420,0.064985
1364.2056,0.065638
1366.0693,0.065723
1367.9330,0.066870
1369.7967,0.068650
1371.6603,0.069925
1373.5240,0.072313
1375.3877,0.075377
1377.2513,0.077188
1379.1150,0.079315
1380.9787,0.081945
1382.8423,0.084346
1384.7060,0.086878
1386.5697,0.091048
1388.4333,0.096454
1390.2970,0.098979
1392.1607,0.099679
1394.0244,0.100160
1395.8880,0.099046
1397.7517,0.095895
1399.6154,0.092321
1401.4790,0.088565
1403.3427,0.084978
1405.2064,0.079999
1407.0700,0.072718
1408.9337,0.065060
1410.7974,0.058274
1412.6610,0.053730
1414.5247,0.051686
1416.3884,0.051664
1418.2520,0.054310
1420.1157,0.058748
1421.9794,0.059770
1423.8431,0.057851
1425.7067,0.052730
1427.5704,0.047068
1429.4341,0.043415
1431.2977,0.041789
1433.1614,0.041217
1435.0251,0.041901
1436.8887,0.044887
1438.7524,0.046613
1440.6161,0.046501
1442.4797,0.047092
1444.3434,0.047982
1446.2071,0.049037
1448.0707,0.050486
1449.9344,0.050663
1451.7981,0.049182
1453.6618,0.047279
1455.5254,0.046947
1457.3891,0.051150
1459.2528,0.054098
1461.1164,0.053519
1462.9801,0.053637
1464.8438,0.054288
1466.7074,0.053294
1468.5711,0.051167
1470.4348,0.049856
1472.2984,0.050337
1474.1621,0.051172
1476.0258,0.050927
1477.8895,0.050685
1479.7531,0.050747
1481.6168,0.051663
1483.4805,0.052497
1485.3441,0.052897
1487.2078,0.053688
1489.0715,0.055269
1490.9351,0.056748
1492.7988,0.056020
1494.6625,0.055447
1496.5261,0.057038
1498.3898,0.058832
1500.2535,0.058405
1502.1171,0.056672
1503.9808,0.054557
1505.8445,0.053939
1507.7082,0.056632
1509.5718,0.056085
1511.4355,0.054819
1513.2992,0.054066
1515.1628,0.053662
1517.0265,0.054216
1518.8902,0.054573
1520.7538,0.055825
1522.6175,0.058724
1524.4812,0.059329
1526.3448,0.060188
1528.2085,0.060732
1530.0722,0.059664
1531.9359,0.059090
1533.7995,0.059847
1535.6632,0.059108
1537.5269,0.057654
1539.3905,0.058780
1541.2542,0.063212
1543.1179,0.064189
1544.9815,0.064649
1546.8452,0.064655
1548.7089,0.064541
1550.5725,0.065185
1552.4362,0.065302
1554.2999,0.065004
1556.1635,0.064683
1558.0272,0.066399
1559.8909,0.074904
1561.7546,0.074695
1563.6182,0.073371
1565.4819,0.074120
1567.3456,0.075303
1569.2092,0.077831
1571.0729,0.081053
1572.9366,0.081206
1574.8002,0.082154
1576.6639,0.086781
1578.5276,0.089621
1580.3912,0.089885
1582.2549,0.090959
1584.1186,0.092179
1585.9822,0.093277
1587.8459,0.094300
1589.7096,0.095049
1591.5733,0.095591
1593.4369,0.096071
1595.3006,0.096129
1597.1643,0.095522
1599.0279,0.094309
1600.8916,0.092878
1602.7553,0.091355
1604.6189,0.089706
1606.4826,0.088301
1608.3463,0.087150
1610.2099,0.086149
1612.0736,0.084998
1613.9373,0.083462
1615.8010,0.082351
1617.6646,0.081431
1619.5283,0.079178
1621.3920,0.076657
1623.2556,0.073901
1625.1193,0.070300
1626.9830,0.066507
1628.8466,0.061695
1630.7103,0.056213
1632.5740,0.051304
1634.4376,0.046768
1636.3013,0.042612
1638.1650,0.040577
1640.0286,0.039621
1641.8923,0.038510
1643.7560,0.037535
1645.6197,0.036872
1647.4833,0.036703
1649.3470,0.036276
1651.2107,0.036049
1653.0743,0.037618
1654.9380,0.040283
1656.8017,0.039904
1658.6653,0.039599
1660.5290,0.039384
1662.3927,0.039277
1664.2563,0.038979
1666.1200,0.038108
1667.9837,0.036986
1669.8474,0.036421
1671.7110,0.036566
1673.5747,0.036661
1675.4384,0.037683
1677.3020,0.039150
1679.1657,0.039896
1681.0294,0.040974
1682.8930,0.042392
1684.7567,0.045622
1686.6204,0.047073
1688.4840,0.046282
1690.3477,0.045474
1692.2114,0.044071
1694.0750,0.042332
1695.9387,0.040369
1697.8024,0.038328
1699.6661,0.036960
1701.5297,0.034599
1703.3934,0.031933
1705.2571,0.028532
1707.1207,0.024419
1708.9844,0.021736
1710.8481,0.019624
1712.7117,0.017687
1714.5754,0.016176
1716.4391,0.015062
1718.3027,0.014627
1720.1664,0.014319
1722.0301,0.013924
1723.8937,0.013254
1725.7574,0.012378
1727.6211,0.011434
1729.4848,0.010501
1731.3484,0.009683
1733.2121,0.009264
1735.0758,0.008859
1736.9394,0.008718
1738.8031,0.008754
1740.6668,0.008709
1742.5304,0.008500
1744.3941,0.008273
1746.2578,0.008071
1748.1214,0.007839
1749.9851,0.007612
1751.8488,0.007748
1753.7125,0.007740
1755.5761,0.007711
1757.4398,0.007657
1759.3035,0.007470
1761.1671,0.007394
1763.0308,0.007391
1764.8945,0.007211
1766.7581,0.007078
1768.6218,0.006884
1770.4855,0.006723
1772.3491,0.006648
1774.2128,0.006588
1776.0765,0.006711
1777.9401,0.006813
1779.8038,0.006748
1781.6675,0.006965
1783.5312,0.007119
1785.3948,0.006933
1787.2585,0.006714
1789.1222,0.006834
1790.9858,0.007019
1792.8495,0.006943
1794.7132,0.006896
1796.5768,0.007148
1798.4405,0.007084
1800.3042,0.006840
1802.1678,0.006879
1804.0315,0.006982
1805.8952,0.006920
1807.7589,0.006904
1809.6225,0.006863
1811.4862,0.006920
1813.3499,0.006973
1815.2135,0.006901
1817.0772,0.006802
1818.9409,0.006956
1820.8045,0.007252
1822.6682,0.007284
1824.5319,0.007024
1826.3955,0.006775
1828.2592,0.006687
1830.1229,0.006780
1831.9865,0.006813
1833.8502,0.006927
1835.7139,0.006765
1837.5776,0.006537
1839.4412,0.006579
1841.3049,0.006742
1843.1686,0.006656
1845.0322,0.006446
1846.8959,0.006461
1848.7596,0.006582
1850.6232,0.006660
1852.4869,0.006812
1854.3506,0.006696
1856.2142,0.006475
1858.0779,0.006544
1859.9416,0.006845
1861.8052,0.007060
1863.6689,0.007028
1865.5326,0.006903
1867.3963,0.006894
1869.2599,0.006433
1871.1236,0.005985
1872.9873,0.006137
1874.8509,0.006500
1876.7146,0.006805
1878.5783,0.006795
1880.4419,0.006375
1882.3056,0.006396
1884.1693,0.006333
1886.0329,0.006345
1887.8966,0.006583
1889.7603,0.006543
1891.6240,0.006191
1893.4876,0.006103
1895.3513,0.006032
1897.2150,0.005916
1899.0786,0.006033
1900.9423,0.006206
1902.8060,0.006225
1904.6696,0.006250
1906.5333,0.006391
1908.3970,0.006716
1910.2606,0.006839
1912.1243,0.006747
1913.9880,0.006705
1915.8516,0.006806
1917.7153,0.006127
1919.5790,0.005465
1921.4427,0.005682
1923.3063,0.005881
1925.1700,0.006045
1927.0337,0.006363
1928.8973,0.005982
1930.7610,0.005535
1932.6247,0.005596
1934.4883,0.005541
1936.3520,0.005146
1938.2157,0.005408
1940.0793,0.005837
1941.9430,0.005328
1943.8067,0.004970
1945.6704,0.005269
1947.5340,0.004740
1949.3977,0.004092
1951.2614,0.004242
1953.1250,0.005028
1954.9887,0.004388
1956.8524,0.003155
1958.7160,0.002968
1960.5797,0.003944
1962.4434,0.003883
1964.3070,0.002763
1966.1707,0.001583
1968.0344,0.001068
1969.8980,0.001001
1971.7617,0.001015
1973.6254,0.000762
1975.4891,0.000539
1977.3527,0.000411
1979.2164,0.000610
1981.0801,0.001194
1982.9437,0.002431
1984.8074,0.002535
1986.6711,0.002096
1988.5347,0.002164
1990.3984,0.002310
1992.2621,0.002345
1994.1257,0.003033
1995.9894,0.003559
1997.8531,0.003004
1999.7167,0.002681
2001.5804,0.001677
2003.4441,0.000986
2005.3078,0.002090
2007.1714,0.001902
2009.0351,0.001461
2010.8988,0.001631
2012.7624,0.001916
2014.6261,0.001795
2016.4898,0.000988
2018.3534,-0.000117
2020.2171,-0.000457
2022.0808,0.000104
2023.9444,0.000557
2025.8081,0.000620
2027.6718,0.001198
2029.5355,0.000964
2031.3991,0.000882
2033.2628,0.001308
2035.1265,0.001013
2036.9901,0.000697
2038.8538,0.001737
2040.7175,0.002211
2042.5811,0.001708
2044.4448,0.002040
2046.3085,0.002697
2048.1721,0.003678
2050.0358,0.005241
2051.8995,0.005832
2053.7631,0.005646
2055.6268,0.004765
2057.4905,0.004966
2059.3542,0.005553
2061.2178,0.005462
2063.0815,0.005571
2064.9452,0.006383
2066.8088,0.006617
2068.6725,0.006889
2070.5362,0.007070
2072.3998,0.006707
2074.2635,0.006437
2076.1272,0.006895
2077.9908,0.007082
2079.8545,0.007441
2081.7182,0.008094
2083.5819,0.008088
2085.4455,0.007782
2087.3092,0.007768
2089.1729,0.007740
2091.0365,0.007655
2092.9002,0.007533
2094.7639,0.007503
2096.6275,0.007501
2098.4912,0.007753
2100.3549,0.007961
2102.2185,0.008007
2104.0822,0.008263
2105.9459,0.008424
2107.8095,0.008090
2109.6732,0.007877
2111.5369,0.008075
2113.4006,0.008288
2115.2642,0.007965
2117.1279,0.007897
2118.9916,0.008412
2120.8552,0.008361
2122.7189,0.007912
2124.5826,0.007330
2126.4462,0.006540
2128.3099,0.006612
2130.1736,0.006898
2132.0372,0.006626
2133.9009,0.005968
2135.7646,0.006076
2137.6282,0.006442
2139.4919,0.005760
2141.3556,0.004455
2143.2193,0.004179
2145.0829,0.004456
2146.9466,0.004666
2148.8103,0.003549
2150.6739,0.002078
2152.5376,0.000631
2154.4013,0.000237
2156.2649,-0.000029
2158.1286,-0.001218
2159.9923,0.000136
2161.8559,0.002377
2163.7196,0.002537
2165.5833,0.002678
2167.4470,0.002305
2169.3106,0.003033
2171.1743,0.004122
2173.0380,0.002433
2174.9016,0.002131
2176.7653,0.004076
2178.6290,0.004338
2180.4926,0.003752
2182.3563,0.003771
2184.2200,0.003397
2186.0836,0.002828
2187.9473,0.004032
2189.8110,0.005217
2191.6746,0.005804
2193.5383,0.005324
2195.4020,0.005095
2197.2657,0.005864
2199.1293,0.006345
2200.9930,0.005648
2202.8567,0.005838
2204.7203,0.006948
2206.5840,0.007462
2208.4477,0.006973
2210.3113,0.006412
2212.1750,0.006279
2214.0387,0.006562
2215.9023,0.005865
2217.7660,0.006081
2219.6297,0.007135
2221.4934,0.007756
2223.3570,0.007830
2225.2207,0.007832
2227.0844,0.007217
2228.9480,0.006687
2230.8117,0.007675
2232.6754,0.007984
2234.5390,0.007687
2236.4027,0.007763
2238.2664,0.008032
2240.1300,0.008400
2241.9937,0.008977
2243.8574,0.009414
2245.7210,0.009046
2247.5847,0.008831
2249.4484,0.009338
2251.3121,0.009731
2253.1757,0.009315
2255.0394,0.009059
2256.9031,0.009158
2258.7667,0.009184
2260.6304,0.009234
2262.4941,0.009667
2264.3577,0.009732
2266.2214,0.009758
2268.0851,0.010219
2269.9487,0.010838
2271.8124,0.011198
2273.6761,0.011231
2275.5397,0.010973
2277.4034,0.010913
2279.2671,0.010899
2281.1308,0.011359
2282.9944,0.012008
2284.8581,0.012241
2286.7218,0.012086
2288.5854,0.012006
2290.4491,0.012221
2292.3128,0.012140
2294.1764,0.012280
2296.0401,0.012319
2297.9038,0.011918
2299.7674,0.011909
2301.6311,0.012364
2303.4948,0.012579
2305.3585,0.012310
2307.2221,0.012246
2309.0858,0.012543
2310.9495,0.012864
2312.8131,0.012739
2314.6768,0.012644
2316.5405,0.012787
2318.4041,0.012824
2320.2678,0.012818
2322.1315,0.013085
2323.9951,0.013279
2325.8588,0.013102
2327.7225,0.012630
2329.5861,0.012394
2331.4498,0.012350
2333.3135,0.012379
2335.1772,0.012417
2337.0408,0.012565
2338.9045,0.012468
2340.7682,0.012371
2342.6318,0.012591
2344.4955,0.012795
2346.3592,0.012364
2348.2228,0.012191
2350.0865,0.012555
2351.9502,0.012578
2353.8138,0.012451
2355.6775,0.012242
2357.5412,0.011884
2359.4049,0.011737
2361.2685,0.011944
2363.1322,0.011818
2364.9959,0.011801
2366.8595,0.012181
2368.7232,0.012482
2370.5869,0.012639
2372.4505,0.012620
2374.3142,0.012551
2376.1779,0.012633
2378.0415,0.012684
2379.9052,0.012752
2381.7689,0.012913
2383.6325,0.013034
2385.4962,0.012741
2387.3599,0.012676
2389.2236,0.012638
2391.0872,0.012717
2392.9509,0.012974
2394.8146,0.013121
2396.6782,0.013159
2398.5419,0.013325
2400.4056,0.013187
2402.2692,0.013003
2404.1329,0.013281
2405.9966,0.013456
2407.8602,0.013669
2409.7239,0.013837
2411.5876,0.013888
2413.4512,0.013588
2415.3149,0.013215
2417.1786,0.013475
2419.0423,0.013827
2420.9059,0.013919
2422.7696,0.013945
2424.6333,0.013719
2426.4969,0.013683
2428.3606,0.014136
2430.2243,0.014373
2432.0879,0.014035
2433.9516,0.013780
2435.8153,0.014137
2437.6789,0.014374
2439.5426,0.014370
2441.4063,0.014181
2443.2700,0.014184
2445.1336,0.014213
2446.9973,0.014490
2448.8610,0.014446
2450.7246,0.013990
2452.5883,0.013922
2454.4520,0.014303
2456.3156,0.014504
2458.1793,0.014184
2460.0430,0.013853
2461.9066,0.013972
2463.7703,0.014375
2465.6340,0.014870
2467.4976,0.014870
2469.3613,0.014688
2471.2250,0.014493
2473.0887,0.014559
2474.9523,0.014920
2476.8160,0.014849
2478.6797,0.015081
2480.5433,0.015195
2482.4070,0.015173
2484.2707,0.015264
2486.1343,0.015147
2487.9980,0.015112
2489.8617,0.015322
2491.7253,0.015559
2493.5890,0.015706
2495.4527,0.015566
2497.3164,0.015199
2499.1800,0.015542
2501.0437,0.016053
2502.9074,0.016224
2504.7710,0.015971
2506.6347,0.015909
2508.4984,0.016189
2510.3620,0.016123
2512.2257,0.015749
2514.0894,0.015756
2515.9530,0.016190
2517.8167,0.016314
2519.6804,0.015907
2521.5440,0.016047
2523.4077,0.016422
2525.2714,0.016676
2527.1351,0.016754
2528.9987,0.016492
2530.8624,0.016721
2532.7261,0.017001
2534.5897,0.016551
2536.4534,0.016369
2538.3171,0.016599
2540.1807,0.016607
2542.0444,0.016929
2543.9081,0.017279
2545.7717,0.017302
2547.6354,0.017149
2549.4991,0.016763
2551.3627,0.016927
2553.2264,0.017250
2555.0901,0.017065
2556.9538,0.016804
2558.8174,0.017100
2560.6811,0.017682
2562.5448,0.017989
2564.4084,0.018017
2566.2721,0.018063
2568.1358,0.018031
2569.9994,0.017636
2571.8631,0.017632
2573.7268,0.018223
2575.5904,0.018505
2577.4541,0.018585
2579.3178,0.018617
2581.1815,0.018405
2583.0451,0.018741
2584.9088,0.019206
2586.7725,0.019164
2588.6361,0.019036
2590.4998,0.019208
2592.3635,0.019254
2594.2271,0.019456
2596.0908,0.019555
2597.9545,0.019460
2599.8181,0.019574
2601.6818,0.019672
2603.5455,0.019817
2605.4091,0.019897
2607.2728,0.019986
2609.1365,0.020121
2611.0002,0.020022
2612.8638,0.020004
2614.7275,0.020100
2616.5912,0.020296
2618.4548,0.020515
2620.3185,0.020587
2622.1822,0.020508
2624.0458,0.020367
2625.9095,0.020836
2627.7732,0.021379
2629.6368,0.021503
2631.5005,0.021446
2633.3642,0.021474
2635.2279,0.021645
2637.0915,0.021730
2638.9552,0.021858
2640.8189,0.022114
2642.6825,0.022156
2644.5462,0.022162
2646.4099,0.022171
2648.2735,0.022284
2650.1372,0.022326
2652.0009,0.022164
2653.8645,0.022046
2655.7282,0.022189
2657.5919,0.022209
2659.4555,0.022094
2661.3192,0.022173
2663.1829,0.022290
2665.0466,0.022294
2666.9102,0.022467
2668.7739,0.022672
2670.6376,0.022641
2672.5012,0.022525
2674.3649,0.022625
2676.2286,0.022744
2678.0922,0.022917
2679.9559,0.023304
2681.8196,0.023646
2683.6832,0.023524
2685.5469,0.023683
2687.4106,0.024095
2689.2742,0.024142
2691.1379,0.024162
2693.0016,0.024433
2694.8653,0.024518
2696.7289,0.024570
2698.5926,0.024631
2700.4563,0.024649
2702.3199,0.024800
2704.1836,0.025075
2706.0473,0.025097
2707.9109,0.025011
2709.7746,0.025200
2711.6383,0.025621
2713.5019,0.025903
2715.3656,0.026028
2717.2293,0.026094
2719.0930,0.026246
2720.9566,0.026511
2722.8203,0.026708
2724.6840,0.026786
2726.5476,0.026934
2728.4113,0.027094
2730.2750,0.027466
2732.1386,0.027813
2734.0023,0.028028
2735.8660,0.028050
2737.7296,0.028109
2739.5933,0.028227
2741.4570,0.028445
2743.3206,0.028734
2745.1843,0.028887
2747.0480,0.029129
2748.9117,0.029505
2750.7753,0.029892
2752.6390,0.030190
2754.5027,0.030280
2756.3663,0.030480
2758.2300,0.030860
2760.0937,0.031236
2761.9573,0.031446
2763.8210,0.031496
2765.6847,0.031690
2767.5483,0.032191
2769.4120,0.032685
2771.2757,0.032692
2773.1394,0.032854
2775.0030,0.033272
2776.8667,0.033687
2778.7304,0.033979
2780.5940,0.033887
2782.4577,0.033959
2784.3214,0.034269
2786.1850,0.034289
2788.0487,0.034088
2789.9124,0.034016
2791.7760,0.033890
2793.6397,0.033555
2795.5034,0.033278
2797.3670,0.033257
2799.2307,0.033247
2801.0944,0.033158
2802.9581,0.032801
2804.8217,0.032654
2806.6854,0.032609
2808.5491,0.032348
2810.4127,0.032281
2812.2764,0.032429
2814.1401,0.032695
2816.0037,0.032871
2817.8674,0.032724
2819.7311,0.032753
2821.5947,0.032999
2823.4584,0.033076
2825.3221,0.032937
2827.1857,0.032998
2829.0494,0.033139
2830.9131,0.032972
2832.7768,0.032824
2834.6404,0.032807
2836.5041,0.032938
2838.3678,0.033234
2840.2314,0.033517
2842.0951,0.033867
2843.9588,0.034087
2845.8224,0.034575
2847.6861,0.034978
2849.5498,0.035350
2851.4134,0.035428
2853.2771,0.035707
2855.1408,0.036215
2857.0045,0.036559
2858.8681,0.036727
2860.7318,0.036891
2862.5955,0.037102
2864.4591,0.037129
2866.3228,0.037212
2868.1865,0.037484
2870.0501,0.037691
2871.9138,0.037895
2873.7775,0.038103
2875.6411,0.038290
2877.5048,0.038409
2879.3685,0.038676
2881.2321,0.038635
2883.0958,0.038656
2884.9595,0.038909
2886.8232,0.039017
2888.6868,0.039271
2890.5505,0.039800
2892.4142,0.040053
2894.2778,0.040043
2896.1415,0.040116
2898.0052,0.040125
2899.8688,0.040229
2901.7325,0.040118
2903.5962,0.039985
2905.4598,0.040083
2907.3235,0.040463
2909.1872,0.040520
2911.0509,0.040585
2912.9145,0.041170
2914.7782,0.041697
2916.6419,0.041958
2918.5055,0.041944
2920.3692,0.042143
2922.2329,0.042271
2924.0965,0.042680
2925.9602,0.043007
2927.8239,0.043090
2929.6875,0.043167
2931.5512,0.043217
2933.4149,0.043320
2935.2785,0.043441
2937.1422,0.043300
2939.0059,0.043229
2940.8696,0.043490
2942.7332,0.043936
2944.5969,0.043839
2946.4606,0.043460
2948.3242,0.043600
2950.1879,0.044069
2952.0516,0.044001
2953.9152,0.043843
2955.7789,0.044031
2957.6426,0.044280
2959.5062,0.044459
2961.3699,0.044184
2963.2336,0.044005
2965.0972,0.044357
2966.9609,0.044784
2968.8246,0.045074
2970.6883,0.044936
2972.5519,0.045117
2974.4156,0.045443
2976.2793,0.045464
2978.1429,0.045578
2980.0066,0.045850
2981.8703,0.046052
2983.7339,0.046078
2985.5976,0.045847
2987.4613,0.045800
2989.3249,0.045890
2991.1886,0.045967
2993.0523,0.046225
2994.9160,0.046549
2996.7796,0.046453
2998.6433,0.046890
3000.5070,0.047390
3002.3706,0.047768
3004.2343,0.048041
3006.0980,0.048371
3007.9616,0.048714
3009.8253,0.048742
3011.6890,0.048682
3013.5526,0.049168
3015.4163,0.049462
3017.2800,0.049347
3019.1436,0.049413
3021.0073,0.049581
3022.8710,0.049497
3024.7347,0.049943
3026.5983,0.049764
3028.4620,0.049393
3030.3257,0.049442
3032.1893,0.049440
3034.0530,0.049246
3035.9167,0.049729
3037.7803,0.050086
3039.6440,0.049974
3041.5077,0.049986
3043.3713,0.049827
3045.2350,0.049796
3047.0987,0.049924
3048.9624,0.049810
3050.8260,0.049887
3052.6897,0.050098
3054.5534,0.049955
3056.4170,0.049786
3058.2807,0.049646
3060.1444,0.049823
3062.0080,0.050117
3063.8717,0.049727
3065.7354,0.049584
3067.5990,0.049959
3069.4627,0.049688
3071.3264,0.049081
3073.1900,0.049130
3075.0537,0.049156
3076.9174,0.049374
3078.7811,0.049321
3080.6447,0.048687
3082.5084,0.048426
3084.3721,0.048461
3086.2357,0.047877
3088.0994,0.047072
3089.9631,0.046971
3091.8267,0.047241
3093.6904,0.046928
3095.5541,0.046443
3097.4177,0.045865
3099.2814,0.045530
3101.1451,0.045530
3103.0087,0.045354
3104.8724,0.044532
3106.7361,0.043755
3108.5998,0.043747
3110.4634,0.043867
3112.3271,0.043302
3114.1908,0.042880
3116.0544,0.042847
3117.9181,0.042601
3119.7818,0.042018
3121.6454,0.042034
3123.5091,0.041757
3125.3728,0.041333
3127.2364,0.040930
3129.1001,0.040360
3130.9638,0.040124
3132.8275,0.040127
3134.6911,0.040149
3136.5548,0.039577
3138.4185,0.038819
3140.2821,0.038799
3142.1458,0.039015
3144.0095,0.038790
3145.8731,0.038103
3147.7368,0.037318
3149.6005,0.036957
3151.4641,0.037160
3153.3278,0.037377
3155.1915,0.037392
3157.0551,0.036818
3158.9188,0.036547
3160.7825,0.036047
3162.6462,0.035558
3164.5098,0.035424
3166.3735,0.035261
3168.2372,0.034868
3170.1008,0.034594
3171.9645,0.034532
3173.8282,0.034189
3175.6918,0.033690
3177.5555,0.033650
3179.4192,0.033740
3181.2828,0.033834
3183.1465,0.033564
3185.0102,0.033196
3186.8739,0.032907
3188.7375,0.032880
3190.6012,0.032406
3192.4649,0.031813
3194.3285,0.031662
3196.1922,0.032262
3198.0559,0.032647
3199.9195,0.032094
3201.7832,0.032037
3203.6469,0.032496
3205.5105,0.032593
3207.3742,0.032159
3209.2379,0.031905
3211.1015,0.032348
3212.9652,0.032549
3214.8289,0.032176
3216.6926,0.031676
3218.5562,0.031752
3220.4199,0.032013
3222.2836,0.031981
3224.1472,0.032139
3226.0109,0.032350
3227.8746,0.031731
3229.7382,0.031720
3231.6019,0.032463
3233.4656,0.032330
3235.3292,0.032044
3237.1929,0.032322
3239.0566,0.032623
3240.9202,0.032915
3242.7839,0.032732
3244.6476,0.032448
3246.5113,0.032732
3248.3749,0.033271
3250.2386,0.033364
3252.1023,0.033275
3253.9659,0.033782
3255.8296,0.033958
3257.6933,0.033862
3259.5569,0.033557
3261.4206,0.033705
3263.2843,0.033685
3265.1479,0.033238
3267.0116,0.033864
3268.8753,0.034232
3270.7390,0.033904
3272.6026,0.034150
3274.4663,0.033651
3276.3300,0.032722
3278.1936,0.032712
3280.0573,0.033491
3281.9210,0.033448
3283.7846,0.033303
3285.6483,0.033359
3287.5120,0.032736
3289.3756,0.032191
3291.2393,0.031984
3293.1030,0.031866
3294.9666,0.032147
3296.8303,0.031850
3298.6940,0.030927
3300.5577,0.030339
3302.4213,0.030279
3304.2850,0.030126
3306.1487,0.029536
3308.0123,0.029645
3309.8760,0.029618
3311.7397,0.029366
3313.6033,0.029342
3315.4670,0.029080
3317.3307,0.029013
3319.1943,0.029269
3321.0580,0.029618
3322.9217,0.029187
3324.7854,0.029149
3326.6490,0.029256
3328.5127,0.028690
3330.3764,0.028514
3332.2400,0.028685
3334.1037,0.028620
3335.9674,0.028344
3337.8310,0.028978
3339.6947,0.029453
3341.5584,0.028718
3343.4220,0.027700
3345.2857,0.026924
3347.1494,0.026566
3349.0130,0.026458
3350.8767,0.026162
3352.7404,0.025607
3354.6041,0.024833
3356.4677,0.024539
3358.3314,0.024159
3360.1951,0.024218
3362.0587,0.023626
3363.9224,0.023010
3365.7861,0.022711
3367.6497,0.022469
3369.5134,0.022328
3371.3771,0.022272
3373.2407,0.022769
3375.1044,0.023312
3376.9681,0.023357
3378.8317,0.022901
3380.6954,0.022840
3382.5591,0.022117
3384.4228,0.021991
3386.2864,0.022702
3388.1501,0.022320
3390.0138,0.022457
3391.8774,0.023210
3393.7411,0.023211
3395.6048,0.023338
3397.4684,0.023430
3399.3321,0.023277
3401.1958,0.023906
3403.0594,0.024237
3404.9231,0.023130
3406.7868,0.021526
3408.6505,0.021296
3410.5141,0.021426
3412.3778,0.020240
3414.2415,0.019019
3416.1051,0.019149
3417.9688,0.019045
3419.8325,0.018500
3421.6961,0.017938
3423.5598,0.017778
3425.4235,0.017494
3427.2871,0.016708
3429.1508,0.015497
3431.0145,0.014221
3432.8781,0.014102
3434.7418,0.014765
3436.6055,0.014682
3438.4692,0.013884
3440.3328,0.012994
3442.1965,0.013106
3444.0602,0.012403
3445.9238,0.011600
3447.7875,0.012116
3449.6512,0.012418
3451.5148,0.011999
3453.3785,0.011574
3455.2422,0.011891
3457.1058,0.012045
3458.9695,0.011363
3460.8332,0.011540
3462.6969,0.011681
3464.5605,0.011077
3466.4242,0.010707
3468.2879,0.011542
3470.1515,0.011184
3472.0152,0.010474
3473.8789,0.010216
3475.7425,0.009569
3477.6062,0.009516
3479.4699,0.009881
3481.3335,0.010002
3483.1972,0.009278
3485.0609,0.008486
3486.9245,0.008986
3488.7882,0.009837
3490.6519,0.010074
3492.5156,0.009389
3494.3792,0.008905
3496.2429,0.008771
3498.1066,0.008927
3499.9702,0.009025
3501.8339,0.008475
3503.6976,0.008169
3505.5612,0.008489
3507.4249,0.008481
3509.2886,0.008192
3511.1522,0.007255
3513.0159,0.006846
3514.8796,0.007192
3516.7432,0.007625
3518.6069,0.007452
3520.4706,0.006158
3522.3343,0.005701
3524.1979,0.005790
3526.0616,0.005640
3527.9253,0.005403
3529.7889,0.005017
3531.6526,0.005847
3533.5163,0.006465
3535.3799,0.006813
3537.2436,0.006947
3539.1073,0.006195
3540.9709,0.006139
3542.8346,0.006715
3544.6983,0.006707
3546.5620,0.004970
3548.4256,0.004409
3550.2893,0.005232
3552.1530,0.005428
3554.0166,0.005293
3555.8803,0.005537
3557.7440,0.005540
3559.6076,0.005420
3561.4713,0.005147
3563.3350,0.004159
3565.1986,0.003395
3567.0623,0.003472
3568.9260,0.004562
3570.7896,0.005015
3572.6533,0.005554
3574.5170,0.006795
3576.3807,0.006453
3578.2443,0.005356
3580.1080,0.005069
3581.9717,0.004801
3583.8353,0.004312
3585.6990,0.003893
3587.5627,0.003405
3589.4263,0.003867
3591.2900,0.004777
3593.1537,0.005221
3595.0173,0.004879
3596.8810,0.004510
3598.7447,0.004988
3600.6084,0.005342
3602.4720,0.005455
3604.3357,0.005625
3606.1994,0.005723
3608.0630,0.005228
3609.9267,0.004034
3611.7904,0.003819
3613.6540,0.004486
3615.5177,0.004320
3617.3814,0.004718
3619.2450,0.004691
3621.1087,0.003867
3622.9724,0.004599
3624.8360,0.005490
3626.6997,0.005595
3628.5634,0.004502
3630.4271,0.003400
3632.2907,0.004435
3634.1544,0.005205
3636.0181,0.005749
3637.8817,0.006103
3639.7454,0.005784
3641.6091,0.005486
3643.4727,0.005561
3645.3364,0.005951
3647.2001,0.005596
3649.0637,0.004608
3650.9274,0.003932
3652.7911,0.004413
3654.6547,0.005150
3656.5184,0.006048
3658.3821,0.006381
3660.2458,0.006472
3662.1094,0.006679
3663.9731,0.006452
3665.8368,0.006874
3667.7004,0.007732
3669.5641,0.008668
3671.4278,0.010095
3673.2914,0.011674
3675.1551,0.011939
3677.0188,0.010619
3678.8824,0.007135
3680.7461,0.004661
3682.6098,0.003550
3684.4735,0.003550
3686.3371,0.003874
3688.2008,0.004028
3690.0645,0.003400
3691.9281,0.003659
3693.7918,0.004955
3695.6555,0.005048
3697.5191,0.004903
3699.3828,0.004951
3701.2465,0.005030
3703.1101,0.004980
3704.9738,0.005303
3706.8375,0.005166
3708.7011,0.004480
3710.5648,0.003720
3712.4285,0.003024
3714.2922,0.003775
3716.1558,0.004952
3718.0195,0.005502
3719.8832,0.005746
3721.7468,0.005198
3723.6105,0.004869
3725.4742,0.005002
3727.3378,0.004641
3729.2015,0.004744
3731.0652,0.005312
3732.9288,0.005169
3734.7925,0.004690
3736.6562,0.005316
3738.5199,0.005463
3740.3835,0.004733
3742.2472,0.004214
3744.1109,0.003384
3745.9745,0.002197
3747.8382,0.003115
3749.7019,0.004119
3751.5655,0.004149
3753.4292,0.004590
3755.2929,0.004813
3757.1565,0.005247
3759.0202,0.005599
3760.8839,0.005750
3762.7475,0.005386
3764.6112,0.004922
3766.4749,0.005219
3768.3386,0.005495
3770.2022,0.005488
3772.0659,0.005495
3773.9296,0.005931
3775.7932,0.006223
3777.6569,0.006271
3779.5206,0.005877
3781.3842,0.005018
3783.2479,0.005608
3785.1116,0.006356
3786.9752,0.006294
3788.8389,0.006027
3790.7026,0.005749
3792.5662,0.005731
3794.4299,0.005988
3796.2936,0.006068
3798.1573,0.005594
3800.0209,0.005491
3801.8846,0.005059
3803.7483,0.004242
3805.6119,0.004887
3807.4756,0.005806
3809.3393,0.006164
3811.2029,0.006036
3813.0666,0.005823
3814.9303,0.005737
3816.7939,0.005987
3818.6576,0.005803
3820.5213,0.005735
3822.3850,0.005712
3824.2486,0.005141
3826.1123,0.005374
3827.9760,0.005695
3829.8396,0.005949
3831.7033,0.006337
3833.5670,0.006170
3835.4306,0.005192
3837.2943,0.005034
3839.1580,0.005219
3841.0216,0.005303
3842.8853,0.005945
3844.7490,0.006613
3846.6126,0.006741
3848.4763,0.006493
3850.3400,0.005953
3852.2037,0.005038
3854.0673,0.004007
3855.9310,0.003279
3857.7947,0.004412
3859.6583,0.005618
3861.5220,0.006339
3863.3857,0.006619
3865.2493,0.006161
3867.1130,0.005673
3868.9767,0.005224
3870.8403,0.005011
3872.7040,0.004963
3874.5677,0.005722
3876.4314,0.006077
3878.2950,0.005674
3880.1587,0.005828
3882.0224,0.006091
3883.8860,0.005673
3885.7497,0.005477
3887.6134,0.005807
3889.4770,0.006073
3891.3407,0.006142
3893.2044,0.006137
3895.0680,0.006030
3896.9317,0.006237
3898.7954,0.006544
3900.6590,0.006433
3902.5227,0.006035
3904.3864,0.005642
3906.2501,0.005436
3908.1137,0.005844
3909.9774,0.006184
3911.8411,0.006717
3913.7047,0.006855
3915.5684,0.006584
3917.4321,0.006768
3919.2957,0.006839
3921.1594,0.006582
3923.0231,0.006599
3924.8867,0.006648
3926.7504,0.006606
3928.6141,0.006621
3930.4777,0.006668
3932.3414,0.006231
3934.2051,0.006095
3936.0688,0.006738
3937.9324,0.006805
3939.7961,0.006686
3941.6598,0.007111
3943.5234,0.006661
3945.3871,0.006015
3947.2508,0.006410
3949.1144,0.006592
3950.9781,0.006518
3952.8418,0.006041
3954.7054,0.005746
3956.5691,0.005932
3958.4328,0.006676
3960.2965,0.007508
3962.1601,0.007098
3964.0238,0.006352
3965.8875,0.006522
3967.7511,0.007159
3969.6148,0.007150
3971.4785,0.006828
3973.3421,0.006599
3975.2058,0.006732
3977.0695,0.006827
3978.9331,0.006894
3980.7968,0.006781
3982.6605,0.006350
3984.5241,0.006399
3986.3878,0.006703
3988.2515,0.006805
3990.1152,0.006517
3991.9788,0.006243
3993.8425,0.006740
3995.7062,0.007019
3997.5698,0.007029
3999.4335,0.007245
