Wavenumber,Intensity
650.4205,0.098400
652.2841,0.101592
654.1478,0.103626
656.0115,0.106002
657.8751,0.110088
659.7388,0.115751
661.6025,0.120766
663.4661,0.124766
665.3298,0.127781
667.1935,0.131640
669.0571,0.131846
670.9208,0.124194
672.7845,0.117805
674.6481,0.112522
676.5118,0.108063
678.3755,0.102883
680.2392,0.099516
682.1028,0.098632
683.9665,0.096741
685.8302,0.093141
687.6938,0.091987
689.5575,0.091975
691.4212,0.091200
693.2848,0.090547
695.1485,0.090091
697.0122,0.089607
698.8758,0.090457
700.7395,0.092336
702.6032,0.093160
704.4669,0.091081
706.3305,0.087645
708.1942,0.082845
710.0579,0.077205
711.9215,0.072542
713.7852,0.069929
715.6489,0.066798
717.5125,0.063215
719.3762,0.060855
721.2399,0.059158
723.1035,0.057562
724.9672,0.056992
726.8309,0.056216
728.6945,0.055957
730.5582,0.057050
732.4219,0.058765
734.2856,0.057476
736.1492,0.053443
738.0129,0.050607
739.8766,0.051222
741.7402,0.053491
743.6039,0.054329
745.4676,0.052357
747.3312,0.049779
749.1949,0.048033
751.0586,0.047496
752.9222,0.047574
754.7859,0.047003
756.6496,0.046927
758.5132,0.047814
760.3769,0.049121
762.2406,0.049988
764.1043,0.049812
765.9679,0.049399
767.8316,0.049069
769.6953,0.048479
771.5589,0.047761
773.4226,0.047339
775.2863,0.047796
777.1499,0.048759
779.0136,0.049583
780.8773,0.050856
782.7409,0.052333
784.6046,0.053762
786.4683,0.055232
788.3320,0.055615
790.1956,0.055005
792.0593,0.054923
793.9230,0.055554
795.7866,0.056334
797.6503,0.057608
799.5140,0.059423
801.3776,0.060966
803.2413,0.061134
805.1050,0.060070
806.9686,0.059058
808.8323,0.058187
810.6960,0.057597
812.5596,0.057041
814.4233,0.056056
816.2870,0.054979
818.1507,0.054099
820.0143,0.053373
821.8780,0.052982
823.7417,0.052738
825.6053,0.053052
827.4690,0.054546
829.3327,0.056115
831.1963,0.055507
833.0600,0.052097
834.9237,0.048440
836.7873,0.046471
838.6510,0.045806
840.5147,0.045769
842.3784,0.046191
844.2420,0.047006
846.1057,0.048165
847.9694,0.049612
849.8330,0.051313
851.6967,0.054060
853.5604,0.057966
855.4240,0.062200
857.2877,0.064203
859.1514,0.062187
861.0150,0.058079
862.8787,0.054842
864.7424,0.052841
866.6060,0.051109
868.4697,0.049758
870.3334,0.049091
872.1971,0.049082
874.0607,0.049459
875.9244,0.049916
877.7881,0.050344
879.6517,0.050783
881.5154,0.051517
883.3791,0.052384
885.2427,0.053086
887.1064,0.053835
888.9701,0.054814
890.8337,0.055801
892.6974,0.057018
894.5611,0.058523
896.4247,0.060502
898.2884,0.063073
900.1521,0.066139
902.0158,0.069089
903.8794,0.071357
905.7431,0.072739
907.6068,0.073389
909.4704,0.074405
911.3341,0.076409
913.1978,0.078617
915.0614,0.079390
916.9251,0.076458
918.7888,0.071040
920.6524,0.066850
922.5161,0.065102
924.3798,0.065133
926.2435,0.066043
928.1071,0.067589
929.9708,0.069873
931.8345,0.072955
933.6981,0.076409
935.5618,0.078610
937.4255,0.078253
939.2891,0.076183
941.1528,0.074603
943.0165,0.074241
944.8801,0.074733
946.7438,0.075937
948.6075,0.077545
950.4711,0.079274
952.3348,0.081417
954.1985,0.084115
956.0622,0.086490
957.9258,0.087777
959.7895,0.088072
961.6532,0.088321
963.5168,0.089348
965.3805,0.091032
967.2442,0.093186
969.1078,0.095635
970.9715,0.098121
972.8352,0.100870
974.6988,0.104639
976.5625,0.110169
978.4262,0.118443
980.2899,0.129145
982.1535,0.135553
984.0172,0.129453
985.8809,0.118254
987.7445,0.112464
989.6082,0.111893
991.4719,0.113260
993.3355,0.115632
995.1992,0.118786
997.0629,0.122473
998.9265,0.126106
1000.7902,0.128811
1002.6539,0.130651
1004.5175,0.132901
1006.3812,0.136024
1008.2449,0.138985
1010.1086,0.140008
1011.9722,0.138403
1013.8359,0.134765
1015.6996,0.129860
1017.5632,0.124555
1019.4269,0.120035
1021.2906,0.116525
1023.1542,0.113686
1025.0179,0.111449
1026.8816,0.109684
1028.7452,0.107710
1030.6089,0.104889
1032.4726,0.101350
1034.3362,0.098098
1036.1999,0.095577
1038.0636,0.093759
1039.9273,0.092270
1041.7909,0.091089
1043.6546,0.090347
1045.5183,0.089979
1047.3819,0.089310
1049.2456,0.087266
1051.1093,0.083714
1052.9729,0.079662
1054.8366,0.076074
1056.7003,0.073304
1058.5639,0.071312
1060.4276,0.069871
1062.2913,0.068767
1064.1550,0.068020
1066.0186,0.067679
1067.8823,0.067721
1069.7460,0.068036
1071.6096,0.068528
1073.4733,0.068988
1075.3370,0.069220
1077.2006,0.069380
1079.0643,0.069623
1080.9280,0.069892
1082.7916,0.070348
1084.6553,0.070884
1086.5190,0.071403
1088.3826,0.072176
1090.2463,0.073218
1092.1100,0.074653
1093.9737,0.076525
1095.8373,0.078647
1097.7010,0.081014
1099.5647,0.083526
1101.4283,0.085787
1103.2920,0.087410
1105.1557,0.088277
1107.0193,0.088271
1108.8830,0.087081
1110.7467,0.084521
1112.6103,0.080893
1114.4740,0.076773
1116.3377,0.072880
1118.2014,0.069644
1120.0650,0.067305
1121.9287,0.065932
1123.7924,0.065117
1125.6560,0.064136
1127.5197,0.062600
1129.3834,0.060658
1131.2470,0.058622
1133.1107,0.056816
1134.9744,0.055568
1136.8380,0.054779
1138.7017,0.054216
1140.5654,0.053909
1142.4290,0.053727
1144.2927,0.053096
1146.1564,0.051687
1148.0201,0.049932
1149.8837,0.048691
1151.7474,0.048445
1153.6111,0.049039
1155.4747,0.049993
1157.3384,0.050428
1159.2021,0.049478
1161.0657,0.047537
1162.9294,0.045825
1164.7931,0.045068
1166.6567,0.045258
1168.5204,0.046071
1170.3841,0.047209
1172.2477,0.048196
1174.1114,0.048362
1175.9751,0.047606
1177.8388,0.046395
1179.7024,0.045331
1181.5661,0.045037
1183.4298,0.045625
1185.2934,0.046873
1187.1571,0.048597
1189.0208,0.050058
1190.8844,0.050206
1192.7481,0.048568
1194.6118,0.045990
1196.4754,0.043926
1198.3391,0.042947
1200.2028,0.042515
1202.0665,0.042008
1203.9301,0.041283
1205.7938,0.040568
1207.6575,0.040093
1209.5211,0.039854
1211.3848,0.039709
1213.2485,0.039619
1215.1121,0.039604
1216.9758,0.039624
1218.8395,0.039762
1220.7031,0.040069
1222.5668,0.040403
1224.4305,0.040488
1226.2941,0.040206
1228.1578,0.039880
1230.0215,0.039696
1231.8852,0.039618
1233.7488,0.039837
1235.6125,0.040308
1237.4762,0.040898
1239.3398,0.041573
1241.2035,0.041919
1243.0672,0.041508
1244.9308,0.040701
1246.7945,0.040138
1248.6582,0.040026
1250.5218,0.040211
1252.3855,0.040577
1254.2492,0.041075
1256.1129,0.041556
1257.9765,0.041800
1259.8402,0.041966
1261.7039,0.042555
1263.5675,0.043460
1265.4312,0.043964
1267.2949,0.043714
1269.1585,0.043187
1271.0222,0.042961
1272.8859,0.043136
1274.7495,0.043621
1276.6132,0.044456
1278.4769,0.045688
1280.3405,0.047493
1282.2042,0.049966
1284.0679,0.052633
1285.9316,0.054425
1287.7952,0.054596
1289.6589,0.054004
1291.5226,0.053601
1293.3862,0.053412
1295.2499,0.053826
1297.1136,0.055460
1298.9772,0.058435
1300.8409,0.062825
1302.7046,0.068336
1304.5682,0.073357
1306.4319,0.075490
1308.2956,0.073003
1310.1592,0.066657
1312.0229,0.059705
1313.8866,0.055066
1315.7503,0.053116
1317.6139,0.052931
1319.4776,0.053933
1321.3413,0.054919
1323.2049,0.055367
1325.0686,0.055930
1326.9323,0.056756
1328.7959,0.057618
1330.6596,0.058294
1332.5233,0.058384
1334.3869,0.057711
1336.2506,0.057432
1338.1143,0.058922
1339.9780,0.060864
1341.8416,0.060131
1343.7053,0.057596
1345.5690,0.055883
1347.4326,0.056074
1349.2963,0.057518
1351.1600,0.058586
1353.0236,0.058673
1354.8873,0.058937
1356.7510,0.060053
1358.6146,0.061302
1360.4783,0.061818
1362.3420,0.061440
1364.2056,0.060500
1366.0693,0.059785
1367.9330,0.060150
1369.7967,0.061354
1371.6603,0.062401
1373.5240,0.064431
1375.3877,0.067730
1377.2513,0.069877
1379.1150,0.071729
1380.9787,0.073814
1382.8423,0.075503
1384.7060,0.077579
1386.5697,0.081410
1388.4333,0.086931
1390.2970,0.090185
1392.1607,0.092446
1394.0244,0.095017
1395.8880,0.095462
1397.7517,0.093264
1399.6154,0.090820
1401.4790,0.088143
1403.3427,0.086335
1405.2064,0.084233
1407.0700,0.078863
1408.9337,0.071964
1410.7974,0.065354
1412.6610,0.060337
1414.5247,0.057395
1416.3884,0.056491
1418.2520,0.058815
1420.1157,0.063618
1421.9794,0.064749
1423.8431,0.063169
1425.7067,0.058289
1427.5704,0.051938
1429.4341,0.047103
1431.2977,0.043977
1433.1614,0.042160
1435.0251,0.042151
1436.8887,0.045304
1438.7524,0.047668
1440.6161,0.047434
1442.4797,0.047893
1444.3434,0.048722
1446.2071,0.050110
1448.0707,0.052760
1449.9344,0.054370
1451.7981,0.053208
1453.6618,0.051110
1455.5254,0.050417
1457.3891,0.055514
1459.2528,0.059924
1461.1164,0.060117
1462.9801,0.061281
1464.8438,0.062592
1466.7074,0.060879
1468.5711,0.057846
1470.4348,0.056269
1472.2984,0.056942
1474.1621,0.058223
1476.0258,0.057589
1477.8895,0.057099
1479.7531,0.056926
1481.6168,0.058167
1483.4805,0.059700
1485.3441,0.060435
1487.2078,0.061672
1489.0715,0.063655
1490.9351,0.065352
1492.7988,0.064700
1494.6625,0.064156
1496.5261,0.065910
1498.3898,0.067389
1500.2535,0.066280
1502.1171,0.063744
1503.9808,0.060829
1505.8445,0.059676
1507.7082,0.061687
1509.5718,0.059425
1511.4355,0.057210
1513.2992,0.055784
1515.1628,0.054216
1517.0265,0.053822
1518.8902,0.054283
1520.7538,0.055339
1522.6175,0.058973
1524.4812,0.060033
1526.3448,0.060982
1528.2085,0.061763
1530.0722,0.060534
1531.9359,0.059126
1533.7995,0.058582
1535.6632,0.056962
1537.5269,0.054632
1539.3905,0.055071
1541.2542,0.059951
1543.1179,0.061341
1544.9815,0.061872
1546.8452,0.061822
1548.7089,0.061171
1550.5725,0.061205
1552.4362,0.060549
1554.2999,0.059368
1556.1635,0.058746
1558.0272,0.060605
1559.8909,0.070678
1561.7546,0.069576
1563.6182,0.067748
1565.4819,0.068785
1567.3456,0.070253
1569.2092,0.072740
1571.0729,0.076159
1572.9366,0.076340
1574.8002,0.077813
1576.6639,0.083504
1578.5276,0.086521
1580.3912,0.086921
1582.2549,0.088716
1584.1186,0.090394
1585.9822,0.091738
1587.8459,0.093089
1589.7096,0.094528
1591.5733,0.095802
1593.4369,0.096907
1595.3006,0.097794
1597.1643,0.097748
1599.0279,0.096726
1600.8916,0.095532
1602.7553,0.093930
1604.6189,0.091565
1606.4826,0.089395
1608.3463,0.088054
1610.2099,0.087075
1612.0736,0.085909
1613.9373,0.084949
1615.8010,0.085677
1617.6646,0.086719
1619.5283,0.083913
1621.3920,0.081968
1623.2556,0.081190
1625.1193,0.078237
1626.9830,0.074223
1628.8466,0.069409
1630.7103,0.063502
1632.5740,0.058277
1634.4376,0.054407
1636.3013,0.051091
1638.1650,0.046935
1640.0286,0.044061
1641.8923,0.041732
1643.7560,0.039278
1645.6197,0.037158
1647.4833,0.035394
1649.3470,0.033733
1651.2107,0.032556
1653.0743,0.033375
1654.9380,0.035769
1656.8017,0.035467
1658.6653,0.035573
1660.5290,0.035573
1662.3927,0.035503
1664.2563,0.035422
1666.1200,0.034587
1667.9837,0.033548
1669.8474,0.032859
1671.7110,0.032728
1673.5747,0.032822
1675.4384,0.033788
1677.3020,0.034965
1679.1657,0.035054
1681.0294,0.035836
1682.8930,0.037175
1684.7567,0.040260
1686.6204,0.041754
1688.4840,0.041332
1690.3477,0.041197
1692.2114,0.040238
1694.0750,0.039176
1695.9387,0.037730
1697.8024,0.035734
1699.6661,0.034424
1701.5297,0.032488
1703.3934,0.029149
1705.2571,0.026579
1707.1207,0.023367
1708.9844,0.020538
1710.8481,0.018191
1712.7117,0.015899
1714.5754,0.013856
1716.4391,0.012617
1718.3027,0.012507
1720.1664,0.012769
1722.0301,0.012329
1723.8937,0.011718
1725.7574,0.010867
1727.6211,0.009969
1729.4848,0.008789
1731.3484,0.007782
1733.2121,0.006999
1735.0758,0.006941
1736.9394,0.007069
1738.8031,0.006759
1740.6668,0.006566
1742.5304,0.006151
1744.3941,0.005797
1746.2578,0.005662
1748.1214,0.005587
1749.9851,0.005544
1751.8488,0.005834
1753.7125,0.006342
1755.5761,0.006232
1757.4398,0.006037
1759.3035,0.006075
1761.1671,0.006005
1763.0308,0.005890
1764.8945,0.005805
1766.7581,0.005540
1768.6218,0.005147
1770.4855,0.004624
1772.3491,0.003959
1774.2128,0.004202
1776.0765,0.004548
1777.9401,0.004866
1779.8038,0.004786
1781.6675,0.004891
1783.5312,0.005126
1785.3948,0.005180
1787.2585,0.005088
1789.1222,0.005056
1790.9858,0.004627
1792.8495,0.004276
1794.7132,0.004680
1796.5768,0.004853
1798.4405,0.004788
1800.3042,0.004575
1802.1678,0.004581
1804.0315,0.004983
1805.8952,0.005240
1807.7589,0.005307
1809.6225,0.005261
1811.4862,0.005029
1813.3499,0.005022
1815.2135,0.005048
1817.0772,0.005000
1818.9409,0.005129
1820.8045,0.005230
1822.6682,0.005030
1824.5319,0.004550
1826.3955,0.004300
1828.2592,0.004082
1830.1229,0.003757
1831.9865,0.004214
1833.8502,0.004885
1835.7139,0.005251
1837.5776,0.005087
1839.4412,0.004896
1841.3049,0.004722
1843.1686,0.004268
1845.0322,0.003981
1846.8959,0.004148
1848.7596,0.004319
1850.6232,0.004797
1852.4869,0.004807
1854.3506,0.004738
1856.2142,0.004946
1858.0779,0.005041
1859.9416,0.004767
1861.8052,0.004647
1863.6689,0.004621
1865.5326,0.004635
1867.3963,0.004192
1869.2599,0.003676
1871.1236,0.004010
1872.9873,0.004718
1874.8509,0.004792
1876.7146,0.004608
1878.5783,0.004559
1880.4419,0.004646
1882.3056,0.004966
1884.1693,0.004919
1886.0329,0.004459
1887.8966,0.004161
1889.7603,0.003849
1891.6240,0.004043
1893.4876,0.004592
1895.3513,0.004576
1897.2150,0.004280
1899.0786,0.004810
1900.9423,0.005207
1902.8060,0.004879
1904.6696,0.004359
1906.5333,0.004209
1908.3970,0.003994
1910.2606,0.003708
1912.1243,0.003865
1913.9880,0.004331
1915.8516,0.004572
1917.7153,0.004467
1919.5790,0.004269
1921.4427,0.004236
1923.3063,0.003976
1925.1700,0.004049
1927.0337,0.004093
1928.8973,0.003859
1930.7610,0.004027
1932.6247,0.004348
1934.4883,0.004161
1936.3520,0.004205
1938.2157,0.004400
1940.0793,0.004086
1941.9430,0.003660
1943.8067,0.004160
1945.6704,0.004033
1947.5340,0.003035
1949.3977,0.002777
1951.2614,0.003529
1953.1250,0.003885
1954.9887,0.003779
1956.8524,0.002985
1958.7160,0.003223
1960.5797,0.003701
1962.4434,0.002826
1964.3070,0.002504
1966.1707,0.002064
1968.0344,0.000146
1969.8980,0.000163
1971.7617,0.001610
1973.6254,0.001362
1975.4891,0.000187
1977.3527,0.000886
1979.2164,0.001743
1981.0801,0.001118
1982.9437,0.001677
1984.8074,0.002584
1986.6711,0.002301
1988.5347,0.002064
1990.3984,0.002186
1992.2621,0.002288
1994.1257,0.001332
1995.9894,0.001381
1997.8531,0.003034
1999.7167,0.003277
2001.5804,0.002058
2003.4441,0.002052
2005.3078,0.002157
2007.1714,0.001885
2009.0351,0.001568
2010.8988,0.001332
2012.7624,0.001017
2014.6261,0.001076
2016.4898,0.001090
2018.3534,-0.000180
2020.2171,-0.000066
2022.0808,0.001057
2023.9444,0.000558
2025.8081,0.000256
2027.6718,-0.000031
2029.5355,0.000122
2031.3991,0.000641
2033.2628,0.000892
2035.1265,0.000838
2036.9901,0.000778
2038.8538,0.001730
2040.7175,0.002557
2042.5811,0.003085
2044.4448,0.003197
2046.3085,0.003097
2048.1721,0.003231
2050.0358,0.003136
2051.8995,0.003639
2053.7631,0.004261
2055.6268,0.003896
2057.4905,0.003605
2059.3542,0.003959
2061.2178,0.003870
2063.0815,0.004256
2064.9452,0.005020
2066.8088,0.005254
2068.6725,0.005206
2070.5362,0.005520
2072.3998,0.005944
2074.2635,0.005897
2076.1272,0.005318
2077.9908,0.005348
2079.8545,0.005971
2081.7182,0.006494
2083.5819,0.006214
2085.4455,0.005744
2087.3092,0.005877
2089.1729,0.006105
2091.0365,0.006232
2092.9002,0.006325
2094.7639,0.006110
2096.6275,0.006582
2098.4912,0.006847
2100.3549,0.006143
2102.2185,0.005672
2104.0822,0.005887
2105.9459,0.006210
2107.8095,0.006695
2109.6732,0.006858
2111.5369,0.006707
2113.4006,0.006391
2115.2642,0.006190
2117.1279,0.006245
2118.9916,0.006150
2120.8552,0.005763
2122.7189,0.005683
2124.5826,0.005608
2126.4462,0.005091
2128.3099,0.004748
2130.1736,0.004422
2132.0372,0.003506
2133.9009,0.003398
2135.7646,0.003768
2137.6282,0.003545
2139.4919,0.003111
2141.3556,0.003074
2143.2193,0.003827
2145.0829,0.004406
2146.9466,0.003734
2148.8103,0.002927
2150.6739,0.001785
2152.5376,0.000459
2154.4013,0.000592
2156.2649,0.000790
2158.1286,0.001287
2159.9923,0.002291
2161.8559,0.000389
2163.7196,-0.001440
2165.5833,-0.000923
2167.4470,0.000621
2169.3106,0.001620
2171.1743,0.001703
2173.0380,0.000893
2174.9016,0.000640
2176.7653,0.001876
2178.6290,0.002439
2180.4926,0.001809
2182.3563,0.000859
2184.2200,0.001556
2186.0836,0.003201
2187.9473,0.003399
2189.8110,0.003535
2191.6746,0.004495
2193.5383,0.004317
2195.4020,0.003680
2197.2657,0.003244
2199.1293,0.002559
2200.9930,0.003144
2202.8567,0.004372
2204.7203,0.003930
2206.5840,0.003351
2208.4477,0.004525
2210.3113,0.004647
2212.1750,0.003948
2214.0387,0.004176
2215.9023,0.004320
2217.7660,0.003951
2219.6297,0.004124
2221.4934,0.004059
2223.3570,0.004627
2225.2207,0.005351
2227.0844,0.005911
2228.9480,0.005603
2230.8117,0.005207
2232.6754,0.005755
2234.5390,0.005849
2236.4027,0.004918
2238.2664,0.005117
2240.1300,0.005991
2241.9937,0.006314
2243.8574,0.006200
2245.7210,0.005736
2247.5847,0.005066
2249.4484,0.005467
2251.3121,0.006107
2253.1757,0.006453
2255.0394,0.006661
2256.9031,0.006853
2258.7667,0.006988
2260.6304,0.006929
2262.4941,0.006509
2264.3577,0.006530
2266.2214,0.006672
2268.0851,0.007145
2269.9487,0.007699
2271.8124,0.007666
2273.6761,0.007460
2275.5397,0.007810
2277.4034,0.008410
2279.2671,0.008578
2281.1308,0.008959
2282.9944,0.009215
2284.8581,0.008512
2286.7218,0.008154
2288.5854,0.008647
2290.4491,0.008668
2292.3128,0.008491
2294.1764,0.008859
2296.0401,0.009231
2297.9038,0.009307
2299.7674,0.009287
2301.6311,0.009379
2303.4948,0.009476
2305.3585,0.009436
2307.2221,0.009359
2309.0858,0.009400
2310.9495,0.009694
2312.8131,0.009749
2314.6768,0.009616
2316.5405,0.009453
2318.4041,0.009203
2320.2678,0.009525
2322.1315,0.010010
2323.9951,0.010121
2325.8588,0.010006
2327.7225,0.009826
2329.5861,0.009768
2331.4498,0.009452
2333.3135,0.009280
2335.1772,0.009706
2337.0408,0.009573
2338.9045,0.009241
2340.7682,0.009358
2342.6318,0.009618
2344.4955,0.009731
2346.3592,0.009749
2348.2228,0.009521
2350.0865,0.009176
2351.9502,0.009134
2353.8138,0.009483
2355.6775,0.009456
2357.5412,0.009269
2359.4049,0.009349
2361.2685,0.009893
2363.1322,0.009992
2364.9959,0.009602
2366.8595,0.009310
2368.7232,0.009543
2370.5869,0.010093
2372.4505,0.010084
2374.3142,0.009666
2376.1779,0.009782
2378.0415,0.009952
2379.9052,0.010057
2381.7689,0.010028
2383.6325,0.009830
2385.4962,0.009713
2387.3599,0.009703
2389.2236,0.009874
2391.0872,0.010302
2392.9509,0.010445
2394.8146,0.010301
2396.6782,0.009913
2398.5419,0.009835
2400.4056,0.010207
2402.2692,0.010450
2404.1329,0.010388
2405.9966,0.010344
2407.8602,0.010645
2409.7239,0.010836
2411.5876,0.010909
2413.4512,0.011003
2415.3149,0.010952
2417.1786,0.010976
2419.0423,0.011058
2420.9059,0.011374
2422.7696,0.011548
2424.6333,0.011091
2426.4969,0.010842
2428.3606,0.011322
2430.2243,0.011896
2432.0879,0.011951
2433.9516,0.011433
2435.8153,0.011151
2437.6789,0.011404
2439.5426,0.011836
2441.4063,0.012083
2443.2700,0.011911
2445.1336,0.011873
2446.9973,0.012049
2448.8610,0.011825
2450.7246,0.011861
2452.5883,0.012248
2454.4520,0.012452
2456.3156,0.012083
2458.1793,0.012114
2460.0430,0.012593
2461.9066,0.012336
2463.7703,0.011872
2465.6340,0.012036
2467.4976,0.012102
2469.3613,0.012431
2471.2250,0.012926
2473.0887,0.013302
2474.9523,0.013201
2476.8160,0.013039
2478.6797,0.013246
2480.5433,0.013389
2482.4070,0.013554
2484.2707,0.013747
2486.1343,0.013575
2487.9980,0.013816
2489.8617,0.014379
2491.7253,0.014700
2493.5890,0.014830
2495.4527,0.014954
2497.3164,0.014436
2499.1800,0.014085
2501.0437,0.014496
2502.9074,0.014440
2504.7710,0.014204
2506.6347,0.014445
2508.4984,0.014633
2510.3620,0.014629
2512.2257,0.014869
2514.0894,0.014983
2515.9530,0.014969
2517.8167,0.015280
2519.6804,0.015516
2521.5440,0.015584
2523.4077,0.015632
2525.2714,0.015560
2527.1351,0.015417
2528.9987,0.015561
2530.8624,0.015880
2532.7261,0.016301
2534.5897,0.016439
2536.4534,0.016437
2538.3171,0.016695
2540.1807,0.016762
2542.0444,0.016264
2543.9081,0.015882
2545.7717,0.016237
2547.6354,0.016970
2549.4991,0.017087
2551.3627,0.016935
2553.2264,0.016996
2555.0901,0.017160
2556.9538,0.016883
2558.8174,0.016819
2560.6811,0.016879
2562.5448,0.017216
2564.4084,0.017440
2566.2721,0.017564
2568.1358,0.017604
2569.9994,0.017715
2571.8631,0.017797
2573.7268,0.018067
2575.5904,0.018286
2577.4541,0.018400
2579.3178,0.018668
2581.1815,0.019391
2583.0451,0.019621
2584.9088,0.019909
2586.7725,0.019978
2588.6361,0.019959
2590.4998,0.020070
2592.3635,0.020118
2594.2271,0.020094
2596.0908,0.020332
2597.9545,0.020707
2599.8181,0.020859
2601.6818,0.020576
2603.5455,0.020747
2605.4091,0.021126
2607.2728,0.021046
2609.1365,0.020749
2611.0002,0.020773
2612.8638,0.020870
2614.7275,0.021048
2616.5912,0.021068
2618.4548,0.020999
2620.3185,0.021200
2622.1822,0.021644
2624.0458,0.021657
2625.9095,0.021542
2627.7732,0.021620
2629.6368,0.022044
2631.5005,0.022447
2633.3642,0.022663
2635.2279,0.022755
2637.0915,0.022759
2638.9552,0.022781
2640.8189,0.022875
2642.6825,0.022749
2644.5462,0.022732
2646.4099,0.022897
2648.2735,0.023056
2650.1372,0.023017
2652.0009,0.022943
2653.8645,0.022867
2655.7282,0.022914
2657.5919,0.022729
2659.4555,0.022695
2661.3192,0.022729
2663.1829,0.022727
2665.0466,0.022842
2666.9102,0.022906
2668.7739,0.022879
2670.6376,0.022949
2672.5012,0.022947
2674.3649,0.023180
2676.2286,0.023636
2678.0922,0.023896
2679.9559,0.024143
2681.8196,0.024359
2683.6832,0.024448
2685.5469,0.024684
2687.4106,0.025035
2689.2742,0.025199
2691.1379,0.025180
2693.0016,0.025360
2694.8653,0.025586
2696.7289,0.025708
2698.5926,0.025813
2700.4563,0.026038
2702.3199,0.026181
2704.1836,0.026366
2706.0473,0.026565
2707.9109,0.026702
2709.7746,0.026841
2711.6383,0.027048
2713.5019,0.027247
2715.3656,0.027449
2717.2293,0.027407
2719.0930,0.027524
2720.9566,0.027848
2722.8203,0.028180
2724.6840,0.028283
2726.5476,0.028430
2728.4113,0.028809
2730.2750,0.029030
2732.1386,0.029133
2734.0023,0.029358
2735.8660,0.029480
2737.7296,0.029646
2739.5933,0.030026
2741.4570,0.030239
2743.3206,0.030316
2745.1843,0.030541
2747.0480,0.030980
2748.9117,0.031368
2750.7753,0.031418
2752.6390,0.031661
2754.5027,0.031937
2756.3663,0.032141
2758.2300,0.032451
2760.0937,0.032861
2761.9573,0.033110
2763.8210,0.033313
2765.6847,0.033599
2767.5483,0.034040
2769.4120,0.034308
2771.2757,0.034668
2773.1394,0.034750
2775.0030,0.034987
2776.8667,0.035722
2778.7304,0.036146
2780.5940,0.036141
2782.4577,0.036201
2784.3214,0.036330
2786.1850,0.036570
2788.0487,0.036562
2789.9124,0.036452
2791.7760,0.036457
2793.6397,0.036677
2795.5034,0.036597
2797.3670,0.036574
2799.2307,0.036547
2801.0944,0.036495
2802.9581,0.036550
2804.8217,0.036529
2806.6854,0.036474
2808.5491,0.036496
2810.4127,0.036310
2812.2764,0.036354
2814.1401,0.036314
2816.0037,0.036194
2817.8674,0.036385
2819.7311,0.036582
2821.5947,0.036606
2823.4584,0.036862
2825.3221,0.037284
2827.1857,0.037548
2829.0494,0.037459
2830.9131,0.037243
2832.7768,0.037279
2834.6404,0.037389
2836.5041,0.037339
2838.3678,0.037498
2840.2314,0.037822
2842.0951,0.038359
2843.9588,0.038867
2845.8224,0.039180
2847.6861,0.039550
2849.5498,0.040014
2851.4134,0.040293
2853.2771,0.040868
2855.1408,0.041666
2857.0045,0.041869
2858.8681,0.041864
2860.7318,0.042199
2862.5955,0.042679
2864.4591,0.042926
2866.3228,0.042969
2868.1865,0.043244
2870.0501,0.043628
2871.9138,0.043687
2873.7775,0.043661
2875.6411,0.043802
2877.5048,0.043715
2879.3685,0.043737
2881.2321,0.043824
2883.0958,0.044111
2884.9595,0.044381
2886.8232,0.044634
2888.6868,0.044886
2890.5505,0.045052
2892.4142,0.045030
2894.2778,0.045100
2896.1415,0.045176
2898.0052,0.045113
2899.8688,0.044995
2901.7325,0.045173
2903.5962,0.045302
2905.4598,0.045327
2907.3235,0.045448
2909.1872,0.045665
2911.0509,0.045587
2912.9145,0.045949
2914.7782,0.046029
2916.6419,0.046070
2918.5055,0.046516
2920.3692,0.046974
2922.2329,0.047093
2924.0965,0.047355
2925.9602,0.047472
2927.8239,0.047323
2929.6875,0.047138
2931.5512,0.047186
2933.4149,0.047153
2935.2785,0.047057
2937.1422,0.047318
2939.0059,0.047729
2940.8696,0.047721
2942.7332,0.047619
2944.5969,0.047318
2946.4606,0.047393
2948.3242,0.047539
2950.1879,0.047658
2952.0516,0.047392
2953.9152,0.047172
2955.7789,0.047036
2957.6426,0.046829
2959.5062,0.046586
2961.3699,0.046854
2963.2336,0.047218
2965.0972,0.047286
2966.9609,0.046907
2968.8246,0.046764
2970.6883,0.046748
2972.5519,0.046414
2974.4156,0.046499
2976.2793,0.047175
2978.1429,0.047225
2980.0066,0.047098
2981.8703,0.047603
2983.7339,0.048024
2985.5976,0.047792
2987.4613,0.047123
2989.3249,0.046237
2991.1886,0.046186
2993.0523,0.046447
2994.9160,0.046562
2996.7796,0.046751
2998.6433,0.047274
3000.5070,0.047752
3002.3706,0.047638
3004.2343,0.047763
3006.0980,0.047901
3007.9616,0.047365
3009.8253,0.047460
3011.6890,0.047867
3013.5526,0.048273
3015.4163,0.048251
3017.2800,0.048306
3019.1436,0.048592
3021.0073,0.048696
3022.8710,0.048055
3024.7347,0.048079
3026.5983,0.048142
3028.4620,0.047859
3030.3257,0.047799
3032.1893,0.047680
3034.0530,0.047817
3035.9167,0.048015
3037.7803,0.047908
3039.6440,0.047780
3041.5077,0.047470
3043.3713,0.047320
3045.2350,0.047396
3047.0987,0.047383
3048.9624,0.046962
3050.8260,0.046960
3052.6897,0.046950
3054.5534,0.046852
3056.4170,0.046981
3058.2807,0.047045
3060.1444,0.046897
3062.0080,0.046802
3063.8717,0.046599
3065.7354,0.046365
3067.5990,0.046286
3069.4627,0.046435
3071.3264,0.045896
3073.1900,0.045484
3075.0537,0.045408
3076.9174,0.045231
3078.7811,0.045253
3080.6447,0.045257
3082.5084,0.045048
3084.3721,0.044754
3086.2357,0.044363
3088.0994,0.044327
3089.9631,0.043966
3091.8267,0.043584
3093.6904,0.043454
3095.5541,0.043060
3097.4177,0.042798
3099.2814,0.042626
3101.1451,0.042390
3103.0087,0.042500
3104.8724,0.041920
3106.7361,0.040924
3108.5998,0.040442
3110.4634,0.040442
3112.3271,0.040753
3114.1908,0.040804
3116.0544,0.039867
3117.9181,0.039566
3119.7818,0.039627
3121.6454,0.039364
3123.5091,0.039055
3125.3728,0.038886
3127.2364,0.038589
3129.1001,0.038510
3130.9638,0.038131
3132.8275,0.037983
3134.6911,0.037645
3136.5548,0.037145
3138.4185,0.036572
3140.2821,0.036265
3142.1458,0.036653
3144.0095,0.036255
3145.8731,0.035632
3147.7368,0.035105
3149.6005,0.034684
3151.4641,0.034782
3153.3278,0.034074
3155.1915,0.033885
3157.0551,0.034210
3158.9188,0.033771
3160.7825,0.032764
3162.6462,0.032654
3164.5098,0.032549
3166.3735,0.032257
3168.2372,0.031895
3170.1008,0.031008
3171.9645,0.030615
3173.8282,0.030925
3175.6918,0.030509
3177.5555,0.029894
3179.4192,0.029819
3181.2828,0.029837
3183.1465,0.029306
3185.0102,0.028737
3186.8739,0.028614
3188.7375,0.028692
3190.6012,0.027832
3192.4649,0.027678
3194.3285,0.028194
3196.1922,0.028402
3198.0559,0.027658
3199.9195,0.027633
3201.7832,0.028080
3203.6469,0.027609
3205.5105,0.026811
3207.3742,0.026868
3209.2379,0.027117
3211.1015,0.027156
3212.9652,0.027467
3214.8289,0.027678
3216.6926,0.027424
3218.5562,0.027299
3220.4199,0.027323
3222.2836,0.027091
3224.1472,0.026569
3226.0109,0.026313
3227.8746,0.026622
3229.7382,0.026823
3231.6019,0.026313
3233.4656,0.026245
3235.3292,0.027036
3237.1929,0.027388
3239.0566,0.027612
3240.9202,0.027444
3242.7839,0.027048
3244.6476,0.027150
3246.5113,0.026912
3248.3749,0.026170
3250.2386,0.026752
3252.1023,0.027724
3253.9659,0.027708
3255.8296,0.027241
3257.6933,0.026941
3259.5569,0.027315
3261.4206,0.027650
3263.2843,0.027940
3265.1479,0.028145
3267.0116,0.028095
3268.8753,0.027737
3270.7390,0.027232
3272.6026,0.026761
3274.4663,0.027053
3276.3300,0.027543
3278.1936,0.027943
3280.0573,0.027396
3281.9210,0.026770
3283.7846,0.026423
3285.6483,0.026503
3287.5120,0.026536
3289.3756,0.026581
3291.2393,0.025952
3293.1030,0.025767
3294.9666,0.025790
3296.8303,0.025631
3298.6940,0.025340
3300.5577,0.025324
3302.4213,0.025069
3304.2850,0.024659
3306.1487,0.023861
3308.0123,0.023262
3309.8760,0.024069
3311.7397,0.024348
3313.6033,0.023728
3315.4670,0.023005
3317.3307,0.022137
3319.1943,0.022438
3321.0580,0.022917
3322.9217,0.022693
3324.7854,0.022636
3326.6490,0.022979
3328.5127,0.023255
3330.3764,0.023640
3332.2400,0.023252
3334.1037,0.022701
3335.9674,0.022498
3337.8310,0.022377
3339.6947,0.022071
3341.5584,0.022758
3343.4220,0.023006
3345.2857,0.022865
3347.1494,0.022208
3349.0130,0.021059
3350.8767,0.021183
3352.7404,0.021493
3354.6041,0.020318
3356.4677,0.019516
3358.3314,0.019540
3360.1951,0.019078
3362.0587,0.018750
3363.9224,0.018827
3365.7861,0.018140
3367.6497,0.016827
3369.5134,0.016520
3371.3771,0.018000
3373.2407,0.018226
3375.1044,0.018088
3376.9681,0.017988
3378.8317,0.016698
3380.6954,0.015892
3382.5591,0.016546
3384.4228,0.016807
3386.2864,0.016916
3388.1501,0.017340
3390.0138,0.017018
3391.8774,0.016470
3393.7411,0.016605
3395.6048,0.017045
3397.4684,0.016985
3399.3321,0.016756
3401.1958,0.017155
3403.0594,0.017249
3404.9231,0.017055
3406.7868,0.017414
3408.6505,0.017412
3410.5141,0.016666
3412.3778,0.016303
3414.2415,0.015140
3416.1051,0.014200
3417.9688,0.014812
3419.8325,0.014932
3421.6961,0.014021
3423.5598,0.012219
3425.4235,0.011120
3427.2871,0.011502
3429.1508,0.011649
3431.0145,0.011156
3432.8781,0.010971
3434.7418,0.011429
3436.6055,0.011262
3438.4692,0.010044
3440.3328,0.009140
3442.1965,0.008726
3444.0602,0.008558
3445.9238,0.008544
3447.7875,0.009286
3449.6512,0.008631
3451.5148,0.007735
3453.3785,0.007794
3455.2422,0.008026
3457.1058,0.007809
3458.9695,0.006425
3460.8332,0.006863
3462.6969,0.008322
3464.5605,0.008161
3466.4242,0.007984
3468.2879,0.007192
3470.1515,0.006532
3472.0152,0.006949
3473.8789,0.007024
3475.7425,0.005514
3477.6062,0.005449
3479.4699,0.006055
3481.3335,0.005799
3483.1972,0.006029
3485.0609,0.005592
3486.9245,0.005315
3488.7882,0.004834
3490.6519,0.004344
3492.5156,0.003986
3494.3792,0.003785
3496.2429,0.004004
3498.1066,0.004644
3499.9702,0.004180
3501.8339,0.003465
3503.6976,0.002508
3505.5612,0.002702
3507.4249,0.002834
3509.2886,0.002594
3511.1522,0.003612
3513.0159,0.003394
3514.8796,0.002047
3516.7432,0.001823
3518.6069,0.002237
3520.4706,0.002637
3522.3343,0.003160
3524.1979,0.002804
3526.0616,0.001483
3527.9253,0.001063
3529.7889,0.000971
3531.6526,0.001211
3533.5163,0.000871
3535.3799,0.001826
3537.2436,0.003002
3539.1073,0.002482
3540.9709,0.002000
3542.8346,0.001175
3544.6983,0.000277
3546.5620,-0.000280
3548.4256,0.000075
3550.2893,0.000928
3552.1530,0.000392
3554.0166,0.000563
3555.8803,0.001913
3557.7440,0.002653
3559.6076,0.001817
3561.4713,0.000944
3563.3350,0.002182
3565.1986,0.001694
3567.0623,-0.002013
3568.9260,-0.003647
3570.7896,-0.000969
3572.6533,0.001381
3574.5170,0.001584
3576.3807,0.001343
3578.2443,0.001292
3580.1080,0.001291
3581.9717,0.000921
3583.8353,0.000555
3585.6990,0.000403
3587.5627,-0.000527
3589.4263,-0.001606
3591.2900,-0.000465
3593.1537,0.000666
3595.0173,0.001025
3596.8810,0.000458
3598.7447,-0.000230
3600.6084,-0.000653
3602.4720,-0.000176
3604.3357,0.001098
3606.1994,0.002120
3608.0630,0.001652
3609.9267,0.000504
3611.7904,-0.000613
3613.6540,-0.001127
3615.5177,-0.002298
3617.3814,-0.001462
3619.2450,0.000127
3621.1087,-0.000172
3622.9724,0.000386
3624.8360,0.001226
3626.6997,0.000702
3628.5634,0.000332
3630.4271,-0.001027
3632.2907,-0.002288
3634.1544,0.000084
3636.0181,0.001243
3637.8817,0.001587
3639.7454,0.001070
3641.6091,0.000490
3643.4727,0.000795
3645.3364,0.000755
3647.2001,0.000367
3649.0637,-0.002128
3650.9274,-0.003545
3652.7911,-0.001106
3654.6547,0.000972
3656.5184,0.001182
3658.3821,0.001117
3660.2458,0.002076
3662.1094,0.001258
3663.9731,0.001140
3665.8368,0.001927
3667.7004,0.002005
3669.5641,0.001934
3671.4278,0.001128
3673.2914,0.002268
3675.1551,0.006171
3677.0188,0.007250
3678.8824,0.004831
3680.7461,0.003630
3682.6098,0.001889
3684.4735,0.001702
3686.3371,0.000544
3688.2008,-0.000673
3690.0645,-0.001473
3691.9281,-0.001148
3693.7918,-0.000678
3695.6555,-0.000015
3697.5191,0.000686
3699.3828,0.000531
3701.2465,0.000517
3703.1101,0.000460
3704.9738,0.000268
3706.8375,0.000622
3708.7011,0.000831
3710.5648,0.000365
3712.4285,-0.001597
3714.2922,-0.002237
3716.1558,-0.000664
3718.0195,0.000494
3719.8832,0.000564
3721.7468,-0.000220
3723.6105,-0.000836
3725.4742,-0.000846
3727.3378,-0.000504
3729.2015,-0.000498
3731.0652,-0.000191
3732.9288,-0.000150
3734.7925,-0.001417
3736.6562,-0.002625
3738.5199,-0.002464
3740.3835,-0.001227
3742.2472,-0.001513
3744.1109,-0.001809
3745.9745,-0.001707
3747.8382,-0.001724
3749.7019,-0.000251
3751.5655,-0.001870
3753.4292,-0.002890
3755.2929,-0.001534
3757.1565,-0.000122
3759.0202,0.000262
3760.8839,-0.000158
3762.7475,-0.000035
3764.6112,0.001169
3766.4749,0.001127
3768.3386,0.000701
3770.2022,0.001370
3772.0659,0.001087
3773.9296,0.001197
3775.7932,0.001825
3777.6569,0.001309
3779.5206,0.000775
3781.3842,0.000482
3783.2479,0.001317
3785.1116,0.001974
3786.9752,0.002110
3788.8389,0.001907
3790.7026,0.001577
3792.5662,0.001544
3794.4299,0.001560
3796.2936,0.001423
3798.1573,0.000646
3800.0209,-0.000596
3801.8846,-0.000742
3803.7483,-0.001206
3805.6119,-0.000414
3807.4756,0.000198
3809.3393,-0.000160
3811.2029,0.000818
3813.0666,0.001632
3814.9303,0.001582
3816.7939,0.000489
3818.6576,-0.001868
3820.5213,-0.001019
3822.3850,-0.000739
3824.2486,-0.001332
3826.1123,-0.000068
3827.9760,0.001006
3829.8396,0.001045
3831.7033,0.001112
3833.5670,0.000576
3835.4306,-0.000155
3837.2943,-0.000262
3839.1580,-0.000544
3841.0216,-0.001321
3842.8853,-0.000208
3844.7490,0.000968
3846.6126,0.000922
3848.4763,0.001323
3850.3400,0.000743
3852.2037,-0.000328
3854.0673,-0.000965
3855.9310,-0.002421
3857.7947,-0.000264
3859.6583,0.001170
3861.5220,0.001192
3863.3857,0.000050
3865.2493,-0.000676
3867.1130,-0.000386
3868.9767,0.000334
3870.8403,0.000589
3872.7040,-0.000897
3874.5677,-0.000088
3876.4314,0.000736
3878.2950,0.001859
3880.1587,0.001614
3882.0224,0.000213
3883.8860,0.000121
3885.7497,0.000334
3887.6134,-0.000097
3889.4770,0.000835
3891.3407,0.001462
3893.2044,0.001039
3895.0680,0.001050
3896.9317,0.000966
3898.7954,0.000975
3900.6590,0.000951
3902.5227,0.000043
3904.3864,-0.000408
3906.2501,-0.000186
3908.1137,0.001130
3909.9774,0.001510
3911.8411,0.001821
3913.7047,0.002107
3915.5684,0.001991
3917.4321,0.001724
3919.2957,0.001574
3921.1594,0.001587
3923.0231,0.001907
3924.8867,0.002306
3926.7504,0.001420
3928.6141,0.001175
3930.4777,0.001799
3932.3414,0.001610
3934.2051,0.001256
3936.0688,0.001175
3937.9324,0.002025
3939.7961,0.002283
3941.6598,0.002719
3943.5234,0.002333
3945.3871,0.001420
3947.2508,0.001343
3949.1144,0.001243
3950.9781,0.001011
3952.8418,0.002026
3954.7054,0.002450
3956.5691,0.002262
3958.4328,0.002187
3960.2965,0.002017
3962.1601,0.002083
3964.0238,0.002495
3965.8875,0.002157
3967.7511,0.002255
3969.6148,0.002309
3971.4785,0.001672
3973.3421,0.001408
3975.2058,0.001431
3977.0695,0.001568
3978.9331,0.002018
3980.7968,0.002318
3982.6605,0.002607
3984.5241,0.002320
3986.3878,0.002207
3988.2515,0.002360
3990.1152,0.001991
3991.9788,0.001544
3993.8425,0.001729
3995.7062,0.001909
3997.5698,0.002260
3999.4335,0.002312
