Wavenumber,Intensity
650.4205,0.171096
652.2841,0.168488
654.1478,0.166440
656.0115,0.163475
657.8751,0.161240
659.7388,0.158656
661.6025,0.158100
663.4661,0.156776
665.3298,0.154346
667.1935,0.153302
669.0571,0.155479
670.9208,0.154009
672.7845,0.153848
674.6481,0.153073
676.5118,0.152947
678.3755,0.153432
680.2392,0.153979
682.1028,0.153349
683.9665,0.152908
685.8302,0.152832
687.6938,0.153698
689.5575,0.153385
691.4212,0.153761
693.2848,0.155123
695.1485,0.156550
697.0122,0.157020
698.8758,0.158438
700.7395,0.159234
702.6032,0.158913
704.4669,0.157854
706.3305,0.155316
708.1942,0.150376
710.0579,0.145808
711.9215,0.141335
713.7852,0.136609
715.6489,0.131021
717.5125,0.126079
719.3762,0.122455
721.2399,0.119551
723.1035,0.116367
724.9672,0.113566
726.8309,0.111051
728.6945,0.108461
730.5582,0.106139
732.4219,0.104903
734.2856,0.103626
736.1492,0.102487
738.0129,0.102082
739.8766,0.102522
741.7402,0.103878
743.6039,0.106017
745.4676,0.107369
747.3312,0.107891
749.1949,0.108442
751.0586,0.110063
752.9222,0.111275
754.7859,0.111013
756.6496,0.111075
758.5132,0.111316
760.3769,0.110425
762.2406,0.108988
764.1043,0.107773
765.9679,0.106690
767.8316,0.104912
769.6953,0.102628
771.5589,0.100757
773.4226,0.099318
775.2863,0.098205
777.1499,0.097515
779.0136,0.096971
780.8773,0.096643
782.7409,0.096579
784.6046,0.096842
786.4683,0.097136
788.3320,0.097380
790.1956,0.097317
792.0593,0.097436
793.9230,0.097693
795.7866,0.097947
797.6503,0.097962
799.5140,0.097762
801.3776,0.097764
803.2413,0.097796
805.1050,0.097429
806.9686,0.097250
808.8323,0.096815
810.6960,0.096190
812.5596,0.095201
814.4233,0.093825
816.2870,0.092700
818.1507,0.092095
820.0143,0.091498
821.8780,0.091222
823.7417,0.091566
825.6053,0.092855
827.4690,0.095028
829.3327,0.097113
831.1963,0.096457
833.0600,0.092602
834.9237,0.088826
836.7873,0.087718
838.6510,0.088319
840.5147,0.088985
842.3784,0.089180
844.2420,0.089198
846.1057,0.089206
847.9694,0.088892
849.8330,0.088154
851.6967,0.087658
853.5604,0.087311
855.4240,0.086978
857.2877,0.086544
859.1514,0.085732
861.0150,0.084819
862.8787,0.083985
864.7424,0.083118
866.6060,0.082301
868.4697,0.081370
870.3334,0.080592
872.1971,0.080013
874.0607,0.079835
875.9244,0.080135
877.7881,0.080728
879.6517,0.081458
881.5154,0.082748
883.3791,0.084480
885.2427,0.086263
887.1064,0.088063
888.9701,0.090057
890.8337,0.091931
892.6974,0.093428
894.5611,0.094644
896.4247,0.096055
898.2884,0.097548
900.1521,0.099131
902.0158,0.100980
903.8794,0.103235
905.7431,0.105989
907.6068,0.109238
909.4704,0.112753
911.3341,0.116736
913.1978,0.121127
915.0614,0.123960
916.9251,0.121849
918.7888,0.116342
920.6524,0.112143
922.5161,0.110536
924.3798,0.110227
926.2435,0.110336
928.1071,0.110576
929.9708,0.110661
931.8345,0.110382
933.6981,0.110026
935.5618,0.109692
937.4255,0.109158
939.2891,0.108354
941.1528,0.107653
943.0165,0.107281
944.8801,0.107316
946.7438,0.108044
948.6075,0.109796
950.4711,0.112489
952.3348,0.115873
954.1985,0.119503
956.0622,0.123544
957.9258,0.127887
959.7895,0.132406
961.6532,0.137189
963.5168,0.142237
965.3805,0.147675
967.2442,0.153874
969.1078,0.160719
970.9715,0.167983
972.8352,0.175728
974.6988,0.184905
976.5625,0.196365
978.4262,0.210992
980.2899,0.227500
982.1535,0.235615
984.0172,0.225684
985.8809,0.210847
987.7445,0.204624
989.6082,0.204416
991.4719,0.204978
993.3355,0.205303
995.1992,0.205111
997.0629,0.204344
998.9265,0.203252
1000.7902,0.202237
1002.6539,0.201464
1004.5175,0.201222
1006.3812,0.201431
1008.2449,0.202031
1010.1086,0.202839
1011.9722,0.203569
1013.8359,0.203688
1015.6996,0.203090
1017.5632,0.201726
1019.4269,0.199735
1021.2906,0.197058
1023.1542,0.193649
1025.0179,0.189928
1026.8816,0.186277
1028.7452,0.182536
1030.6089,0.178951
1032.4726,0.175712
1034.3362,0.172790
1036.1999,0.169961
1038.0636,0.167219
1039.9273,0.164518
1041.7909,0.162039
1043.6546,0.159896
1045.5183,0.157867
1047.3819,0.155367
1049.2456,0.151558
1051.1093,0.145943
1052.9729,0.139056
1054.8366,0.132210
1056.7003,0.126666
1058.5639,0.122402
1060.4276,0.119140
1062.2913,0.116690
1064.1550,0.115302
1066.0186,0.115684
1067.8823,0.118127
1069.7460,0.122409
1071.6096,0.127638
1073.4733,0.132225
1075.3370,0.134980
1077.2006,0.135386
1079.0643,0.133820
1080.9280,0.130908
1082.7916,0.127250
1084.6553,0.123538
1086.5190,0.120224
1088.3826,0.117685
1090.2463,0.116320
1092.1100,0.116169
1093.9737,0.117142
1095.8373,0.119040
1097.7010,0.121675
1099.5647,0.124550
1101.4283,0.127214
1103.2920,0.129332
1105.1557,0.130348
1107.0193,0.129718
1108.8830,0.127133
1110.7467,0.122522
1112.6103,0.116564
1114.4740,0.110190
1116.3377,0.104357
1118.2014,0.099654
1120.0650,0.096049
1121.9287,0.093462
1123.7924,0.091722
1125.6560,0.090364
1127.5197,0.089174
1129.3834,0.088182
1131.2470,0.087533
1133.1107,0.087409
1134.9744,0.088122
1136.8380,0.089605
1138.7017,0.091460
1140.5654,0.093560
1142.4290,0.095578
1144.2927,0.097048
1146.1564,0.097838
1148.0201,0.097665
1149.8837,0.096486
1151.7474,0.094550
1153.6111,0.091863
1155.4747,0.088339
1157.3384,0.084194
1159.2021,0.079758
1161.0657,0.075246
1162.9294,0.070775
1164.7931,0.066659
1166.6567,0.063341
1168.5204,0.060988
1170.3841,0.059371
1172.2477,0.058067
1174.1114,0.056373
1175.9751,0.053839
1177.8388,0.051172
1179.7024,0.049267
1181.5661,0.048397
1183.4298,0.048352
1185.2934,0.048766
1187.1571,0.049420
1189.0208,0.050147
1190.8844,0.050878
1192.7481,0.051592
1194.6118,0.052244
1196.4754,0.052904
1198.3391,0.053592
1200.2028,0.054253
1202.0665,0.054844
1203.9301,0.055296
1205.7938,0.055584
1207.6575,0.055660
1209.5211,0.055736
1211.3848,0.055996
1213.2485,0.056360
1215.1121,0.056745
1216.9758,0.057281
1218.8395,0.057988
1220.7031,0.058779
1222.5668,0.059568
1224.4305,0.060245
1226.2941,0.060830
1228.1578,0.061415
1230.0215,0.061979
1231.8852,0.062415
1233.7488,0.062743
1235.6125,0.063085
1237.4762,0.063433
1239.3398,0.063712
1241.2035,0.064008
1243.0672,0.064403
1244.9308,0.064731
1246.7945,0.064979
1248.6582,0.065257
1250.5218,0.065541
1252.3855,0.065877
1254.2492,0.066221
1256.1129,0.066446
1257.9765,0.066680
1259.8402,0.067104
1261.7039,0.067669
1263.5675,0.068092
1265.4312,0.068405
1267.2949,0.068673
1269.1585,0.068779
1271.0222,0.068823
1272.8859,0.068959
1274.7495,0.069189
1276.6132,0.069576
1278.4769,0.070133
1280.3405,0.070906
1282.2042,0.071896
1284.0679,0.072981
1285.9316,0.074221
1287.7952,0.075693
1289.6589,0.077350
1291.5226,0.079188
1293.3862,0.081259
1295.2499,0.083658
1297.1136,0.086491
1298.9772,0.089749
1300.8409,0.093434
1302.7046,0.097236
1304.5682,0.099720
1306.4319,0.099028
1308.2956,0.094037
1310.1592,0.085499
1312.0229,0.076967
1313.8866,0.071689
1315.7503,0.069968
1317.6139,0.070470
1319.4776,0.072056
1321.3413,0.073767
1323.2049,0.075364
1325.0686,0.076995
1326.9323,0.078642
1328.7959,0.080178
1330.6596,0.081420
1332.5233,0.082315
1334.3869,0.082727
1336.2506,0.082974
1338.1143,0.083769
1339.9780,0.084969
1341.8416,0.085184
1343.7053,0.084847
1345.5690,0.085054
1347.4326,0.085588
1349.2963,0.086281
1351.1600,0.087069
1353.0236,0.087903
1354.8873,0.088931
1356.7510,0.089823
1358.6146,0.090395
1360.4783,0.091340
1362.3420,0.093523
1364.2056,0.095261
1366.0693,0.095600
1367.9330,0.096417
1369.7967,0.097376
1371.6603,0.097958
1373.5240,0.099596
1375.3877,0.101434
1377.2513,0.102170
1379.1150,0.103468
1380.9787,0.105444
1382.8423,0.107307
1384.7060,0.109453
1386.5697,0.113029
1388.4333,0.117001
1390.2970,0.118496
1392.1607,0.119094
1394.0244,0.119579
1395.8880,0.118182
1397.7517,0.115219
1399.6154,0.111768
1401.4790,0.107839
1403.3427,0.104504
1405.2064,0.099847
1407.0700,0.092390
1408.9337,0.084362
1410.7974,0.077032
1412.6610,0.071624
1414.5247,0.068520
1416.3884,0.067678
1418.2520,0.070090
1420.1157,0.074251
1421.9794,0.075271
1423.8431,0.074210
1425.7067,0.070482
1427.5704,0.065908
1429.4341,0.062810
1431.2977,0.061045
1433.1614,0.060056
1435.0251,0.060327
1436.8887,0.062369
1438.7524,0.063104
1440.6161,0.062764
1442.4797,0.063020
1444.3434,0.063282
1446.2071,0.063718
1448.0707,0.064249
1449.9344,0.063416
1451.7981,0.061512
1453.6618,0.059542
1455.5254,0.059006
1457.3891,0.061500
1459.2528,0.061773
1461.1164,0.059823
1462.9801,0.058944
1464.8438,0.058869
1466.7074,0.057544
1468.5711,0.055228
1470.4348,0.053645
1472.2984,0.053428
1474.1621,0.053344
1476.0258,0.052626
1477.8895,0.051773
1479.7531,0.050953
1481.6168,0.050592
1483.4805,0.050141
1485.3441,0.049588
1487.2078,0.049626
1489.0715,0.050633
1490.9351,0.051360
1492.7988,0.050589
1494.6625,0.050235
1496.5261,0.051509
1498.3898,0.052920
1500.2535,0.052744
1502.1171,0.051713
1503.9808,0.050990
1505.8445,0.052634
1507.7082,0.057052
1509.5718,0.056262
1511.4355,0.055433
1513.2992,0.055406
1515.1628,0.055613
1517.0265,0.056294
1518.8902,0.056518
1520.7538,0.057416
1522.6175,0.059062
1524.4812,0.059102
1526.3448,0.059757
1528.2085,0.060126
1530.0722,0.059731
1531.9359,0.060359
1533.7995,0.061900
1535.6632,0.061359
1537.5269,0.060564
1539.3905,0.062560
1541.2542,0.066616
1543.1179,0.067422
1544.9815,0.068027
1546.8452,0.068106
1548.7089,0.068438
1550.5725,0.069572
1552.4362,0.069962
1554.2999,0.070063
1556.1635,0.070620
1558.0272,0.074124
1559.8909,0.082194
1561.7546,0.079710
1563.6182,0.078185
1565.4819,0.078816
1567.3456,0.079896
1569.2092,0.082202
1571.0729,0.084129
1572.9366,0.083777
1574.8002,0.085397
1576.6639,0.089781
1578.5276,0.090994
1580.3912,0.090898
1582.2549,0.092160
1584.1186,0.093438
1585.9822,0.094361
1587.8459,0.095134
1589.7096,0.095823
1591.5733,0.096062
1593.4369,0.095983
1595.3006,0.095980
1597.1643,0.095833
1599.0279,0.095139
1600.8916,0.094444
1602.7553,0.093811
1604.6189,0.092994
1606.4826,0.092396
1608.3463,0.092167
1610.2099,0.091511
1612.0736,0.089925
1613.9373,0.088401
1615.8010,0.087772
1617.6646,0.085973
1619.5283,0.082373
1621.3920,0.080045
1623.2556,0.078110
1625.1193,0.075198
1626.9830,0.072204
1628.8466,0.068498
1630.7103,0.063886
1632.5740,0.059996
1634.4376,0.057234
1636.3013,0.055076
1638.1650,0.052434
1640.0286,0.050524
1641.8923,0.049109
1643.7560,0.048452
1645.6197,0.049168
1647.4833,0.050734
1649.3470,0.050257
1651.2107,0.050542
1653.0743,0.054867
1654.9380,0.057481
1656.8017,0.055499
1658.6653,0.054958
1660.5290,0.055048
1662.3927,0.055485
1664.2563,0.054816
1666.1200,0.053277
1667.9837,0.052600
1669.8474,0.052903
1671.7110,0.052498
1673.5747,0.052380
1675.4384,0.053764
1677.3020,0.054620
1679.1657,0.054745
1681.0294,0.055867
1682.8930,0.058076
1684.7567,0.062192
1686.6204,0.062607
1688.4840,0.061326
1690.3477,0.060217
1692.2114,0.058192
1694.0750,0.056463
1695.9387,0.055039
1697.8024,0.053303
1699.6661,0.052695
1701.5297,0.049984
1703.3934,0.046288
1705.2571,0.043570
1707.1207,0.039774
1708.9844,0.036328
1710.8481,0.033670
1712.7117,0.031460
1714.5754,0.030003
1716.4391,0.029546
1718.3027,0.029905
1720.1664,0.029187
1722.0301,0.028275
1723.8937,0.027498
1725.7574,0.026417
1727.6211,0.025305
1729.4848,0.024467
1731.3484,0.023900
1733.2121,0.024027
1735.0758,0.024205
1736.9394,0.023207
1738.8031,0.022783
1740.6668,0.022794
1742.5304,0.022414
1744.3941,0.022149
1746.2578,0.021937
1748.1214,0.021961
1749.9851,0.022160
1751.8488,0.022234
1753.7125,0.021813
1755.5761,0.021500
1757.4398,0.021482
1759.3035,0.021429
1761.1671,0.021623
1763.0308,0.021718
1764.8945,0.021244
1766.7581,0.021092
1768.6218,0.021065
1770.4855,0.021099
1772.3491,0.021498
1774.2128,0.021462
1776.0765,0.021114
1777.9401,0.021155
1779.8038,0.021313
1781.6675,0.021482
1783.5312,0.021569
1785.3948,0.021662
1787.2585,0.021321
1789.1222,0.021081
1790.9858,0.021337
1792.8495,0.021749
1794.7132,0.021504
1796.5768,0.021116
1798.4405,0.021241
1800.3042,0.021719
1802.1678,0.021900
1804.0315,0.021752
1805.8952,0.021497
1807.7589,0.021423
1809.6225,0.021418
1811.4862,0.021398
1813.3499,0.021454
1815.2135,0.021426
1817.0772,0.021352
1818.9409,0.021393
1820.8045,0.021288
1822.6682,0.021081
1824.5319,0.021058
1826.3955,0.021198
1828.2592,0.021135
1830.1229,0.021304
1831.9865,0.021299
1833.8502,0.021167
1835.7139,0.021230
1837.5776,0.021316
1839.4412,0.021053
1841.3049,0.020709
1843.1686,0.020874
1845.0322,0.021291
1846.8959,0.021129
1848.7596,0.021120
1850.6232,0.021223
1852.4869,0.021319
1854.3506,0.021377
1856.2142,0.021197
1858.0779,0.021065
1859.9416,0.021135
1861.8052,0.021109
1863.6689,0.020911
1865.5326,0.020900
1867.3963,0.021209
1869.2599,0.021268
1871.1236,0.021000
1872.9873,0.020732
1874.8509,0.020702
1876.7146,0.021160
1878.5783,0.021402
1880.4419,0.021224
1882.3056,0.021095
1884.1693,0.020883
1886.0329,0.020667
1887.8966,0.020829
1889.7603,0.021225
1891.6240,0.020969
1893.4876,0.020735
1895.3513,0.021120
1897.2150,0.021362
1899.0786,0.020989
1900.9423,0.020735
1902.8060,0.020840
1904.6696,0.020736
1906.5333,0.020315
1908.3970,0.020293
1910.2606,0.020820
1912.1243,0.020856
1913.9880,0.020433
1915.8516,0.020188
1917.7153,0.020182
1919.5790,0.020252
1921.4427,0.020226
1923.3063,0.019796
1925.1700,0.019366
1927.0337,0.019539
1928.8973,0.019744
1930.7610,0.019840
1932.6247,0.019657
1934.4883,0.019491
1936.3520,0.018955
1938.2157,0.018190
1940.0793,0.017972
1941.9430,0.018102
1943.8067,0.017831
1945.6704,0.017445
1947.5340,0.016797
1949.3977,0.016881
1951.2614,0.017448
1953.1250,0.016902
1954.9887,0.016045
1956.8524,0.015855
1958.7160,0.015165
1960.5797,0.014753
1962.4434,0.014287
1964.3070,0.013653
1966.1707,0.012306
1968.0344,0.011105
1969.8980,0.010710
1971.7617,0.010473
1973.6254,0.011034
1975.4891,0.011713
1977.3527,0.011366
1979.2164,0.012125
1981.0801,0.012968
1982.9437,0.013409
1984.8074,0.013439
1986.6711,0.013895
1988.5347,0.014057
1990.3984,0.013913
1992.2621,0.013650
1994.1257,0.013694
1995.9894,0.014028
1997.8531,0.014275
1999.7167,0.013626
2001.5804,0.013163
2003.4441,0.013316
2005.3078,0.013148
2007.1714,0.012620
2009.0351,0.012258
2010.8988,0.011597
2012.7624,0.012406
2014.6261,0.012665
2016.4898,0.011533
2018.3534,0.010548
2020.2171,0.009762
2022.0808,0.009408
2023.9444,0.009524
2025.8081,0.010439
2027.6718,0.011844
2029.5355,0.010931
2031.3991,0.011467
2033.2628,0.012969
2035.1265,0.013181
2036.9901,0.012461
2038.8538,0.012409
2040.7175,0.013158
2042.5811,0.013983
2044.4448,0.014853
2046.3085,0.015670
2048.1721,0.015940
2050.0358,0.016313
2051.8995,0.016106
2053.7631,0.016950
2055.6268,0.018647
2057.4905,0.019272
2059.3542,0.018792
2061.2178,0.018713
2063.0815,0.019630
2064.9452,0.020173
2066.8088,0.019792
2068.6725,0.019392
2070.5362,0.019931
2072.3998,0.020781
2074.2635,0.020947
2076.1272,0.020783
2077.9908,0.021014
2079.8545,0.021771
2081.7182,0.021792
2083.5819,0.021479
2085.4455,0.021341
2087.3092,0.021524
2089.1729,0.021801
2091.0365,0.021788
2092.9002,0.021589
2094.7639,0.021575
2096.6275,0.022163
2098.4912,0.022262
2100.3549,0.022097
2102.2185,0.022504
2104.0822,0.022937
2105.9459,0.022733
2107.8095,0.022278
2109.6732,0.022795
2111.5369,0.023128
2113.4006,0.022875
2115.2642,0.022837
2117.1279,0.023125
2118.9916,0.022830
2120.8552,0.022901
2122.7189,0.022712
2124.5826,0.022160
2126.4462,0.021971
2128.3099,0.021527
2130.1736,0.020714
2132.0372,0.020191
2133.9009,0.020437
2135.7646,0.020723
2137.6282,0.019810
2139.4919,0.018949
2141.3556,0.019125
2143.2193,0.019430
2145.0829,0.018218
2146.9466,0.016168
2148.8103,0.015096
2150.6739,0.014746
2152.5376,0.012721
2154.4013,0.011863
2156.2649,0.011512
2158.1286,0.010431
2159.9923,0.011162
2161.8559,0.012580
2163.7196,0.012580
2165.5833,0.012616
2167.4470,0.013587
2169.3106,0.014057
2171.1743,0.014323
2173.0380,0.015726
2174.9016,0.017220
2176.7653,0.017415
2178.6290,0.016501
2180.4926,0.015386
2182.3563,0.014814
2184.2200,0.016114
2186.0836,0.018417
2187.9473,0.019020
2189.8110,0.018444
2191.6746,0.018560
2193.5383,0.018255
2195.4020,0.018039
2197.2657,0.019062
2199.1293,0.019783
2200.9930,0.020331
2202.8567,0.020887
2204.7203,0.020510
2206.5840,0.020168
2208.4477,0.020395
2210.3113,0.020268
2212.1750,0.019830
2214.0387,0.020088
2215.9023,0.020860
2217.7660,0.021164
2219.6297,0.021338
2221.4934,0.021943
2223.3570,0.021747
2225.2207,0.021709
2227.0844,0.022382
2228.9480,0.022392
2230.8117,0.022064
2232.6754,0.021739
2234.5390,0.021860
2236.4027,0.022397
2238.2664,0.023367
2240.1300,0.023751
2241.9937,0.023711
2243.8574,0.024259
2245.7210,0.024365
2247.5847,0.023883
2249.4484,0.023587
2251.3121,0.023968
2253.1757,0.024305
2255.0394,0.024411
2256.9031,0.024659
2258.7667,0.025333
2260.6304,0.024898
2262.4941,0.024318
2264.3577,0.024942
2266.2214,0.025482
2268.0851,0.025628
2269.9487,0.025982
2271.8124,0.026633
2273.6761,0.027184
2275.5397,0.027213
2277.4034,0.026983
2279.2671,0.026923
2281.1308,0.027146
2282.9944,0.027702
2284.8581,0.028130
2286.7218,0.028285
2288.5854,0.028446
2290.4491,0.028582
2292.3128,0.028664
2294.1764,0.028838
2296.0401,0.028855
2297.9038,0.028502
2299.7674,0.028483
2301.6311,0.028735
2303.4948,0.028932
2305.3585,0.029055
2307.2221,0.028762
2309.0858,0.028876
2310.9495,0.029441
2312.8131,0.029477
2314.6768,0.029040
2316.5405,0.028903
2318.4041,0.029102
2320.2678,0.029540
2322.1315,0.030185
2323.9951,0.030523
2325.8588,0.029804
2327.7225,0.029095
2329.5861,0.029274
2331.4498,0.029180
2333.3135,0.028834
2335.1772,0.028911
2337.0408,0.029065
2338.9045,0.028982
2340.7682,0.028957
2342.6318,0.029505
2344.4955,0.030058
2346.3592,0.029649
2348.2228,0.029095
2350.0865,0.028957
2351.9502,0.028987
2353.8138,0.029004
2355.6775,0.028986
2357.5412,0.029205
2359.4049,0.028993
2361.2685,0.028583
2363.1322,0.029054
2364.9959,0.029680
2366.8595,0.029477
2368.7232,0.029304
2370.5869,0.029554
2372.4505,0.029885
2374.3142,0.030164
2376.1779,0.030353
2378.0415,0.030334
2379.9052,0.030364
2381.7689,0.030104
2383.6325,0.029918
2385.4962,0.029773
2387.3599,0.029789
2389.2236,0.030026
2391.0872,0.030049
2392.9509,0.029953
2394.8146,0.030178
2396.6782,0.030037
2398.5419,0.029994
2400.4056,0.030360
2402.2692,0.030395
2404.1329,0.029946
2405.9966,0.029820
2407.8602,0.030075
2409.7239,0.030490
2411.5876,0.030818
2413.4512,0.030732
2415.3149,0.030446
2417.1786,0.030476
2419.0423,0.030786
2420.9059,0.030688
2422.7696,0.030508
2424.6333,0.030941
2426.4969,0.031105
2428.3606,0.031009
2430.2243,0.030795
2432.0879,0.030755
2433.9516,0.031015
2435.8153,0.031337
2437.6789,0.031195
2439.5426,0.031029
2441.4063,0.031465
2443.2700,0.031863
2445.1336,0.031548
2446.9973,0.031698
2448.8610,0.031739
2450.7246,0.031626
2452.5883,0.031560
2454.4520,0.031306
2456.3156,0.031580
2458.1793,0.031900
2460.0430,0.031837
2461.9066,0.031665
2463.7703,0.031725
2465.6340,0.031782
2467.4976,0.031750
2469.3613,0.031913
2471.2250,0.031797
2473.0887,0.031770
2474.9523,0.031827
2476.8160,0.031714
2478.6797,0.031843
2480.5433,0.032214
2482.4070,0.032249
2484.2707,0.032077
2486.1343,0.032257
2487.9980,0.032586
2489.8617,0.032231
2491.7253,0.032379
2493.5890,0.032615
2495.4527,0.032694
2497.3164,0.032617
2499.1800,0.032556
2501.0437,0.032299
2502.9074,0.032547
2504.7710,0.032904
2506.6347,0.033169
2508.4984,0.033284
2510.3620,0.033035
2512.2257,0.033304
2514.0894,0.033529
2515.9530,0.033078
2517.8167,0.032798
2519.6804,0.032941
2521.5440,0.033559
2523.4077,0.033775
2525.2714,0.033818
2527.1351,0.033754
2528.9987,0.033540
2530.8624,0.033434
2532.7261,0.033828
2534.5897,0.033830
2536.4534,0.033595
2538.3171,0.033659
2540.1807,0.034096
2542.0444,0.034192
2543.9081,0.034267
2545.7717,0.034014
2547.6354,0.034062
2549.4991,0.034514
2551.3627,0.034731
2553.2264,0.034529
2555.0901,0.034390
2556.9538,0.034536
2558.8174,0.034382
2560.6811,0.034525
2562.5448,0.034956
2564.4084,0.034747
2566.2721,0.034650
2568.1358,0.035110
2569.9994,0.035336
2571.8631,0.035172
2573.7268,0.035446
2575.5904,0.035739
2577.4541,0.035837
2579.3178,0.035850
2581.1815,0.036143
2583.0451,0.036073
2584.9088,0.035999
2586.7725,0.036387
2588.6361,0.036577
2590.4998,0.036340
2592.3635,0.036840
2594.2271,0.037299
2596.0908,0.037334
2597.9545,0.037173
2599.8181,0.037118
2601.6818,0.037158
2603.5455,0.037436
2605.4091,0.037844
2607.2728,0.038241
2609.1365,0.038027
2611.0002,0.037755
2612.8638,0.038004
2614.7275,0.038310
2616.5912,0.038477
2618.4548,0.038654
2620.3185,0.038766
2622.1822,0.038895
2624.0458,0.038864
2625.9095,0.039066
2627.7732,0.039298
2629.6368,0.039388
2631.5005,0.039801
2633.3642,0.040051
2635.2279,0.040224
2637.0915,0.040556
2638.9552,0.040864
2640.8189,0.040906
2642.6825,0.040834
2644.5462,0.040985
2646.4099,0.041324
2648.2735,0.041576
2650.1372,0.041550
2652.0009,0.041606
2653.8645,0.041881
2655.7282,0.042071
2657.5919,0.042074
2659.4555,0.041981
2661.3192,0.041852
2663.1829,0.041979
2665.0466,0.042212
2666.9102,0.042251
2668.7739,0.042135
2670.6376,0.042229
2672.5012,0.042387
2674.3649,0.042462
2676.2286,0.042701
2678.0922,0.042798
2679.9559,0.042878
2681.8196,0.043203
2683.6832,0.043356
2685.5469,0.043418
2687.4106,0.043582
2689.2742,0.043608
2691.1379,0.043668
2693.0016,0.043820
2694.8653,0.044029
2696.7289,0.044342
2698.5926,0.044634
2700.4563,0.044863
2702.3199,0.044840
2704.1836,0.044711
2706.0473,0.044807
2707.9109,0.045264
2709.7746,0.045640
2711.6383,0.045803
2713.5019,0.045942
2715.3656,0.046131
2717.2293,0.046220
2719.0930,0.046307
2720.9566,0.046577
2722.8203,0.046779
2724.6840,0.046838
2726.5476,0.047133
2728.4113,0.047551
2730.2750,0.047799
2732.1386,0.048080
2734.0023,0.048290
2735.8660,0.048372
2737.7296,0.048659
2739.5933,0.048937
2741.4570,0.049182
2743.3206,0.049312
2745.1843,0.049552
2747.0480,0.049952
2748.9117,0.050322
2750.7753,0.050712
2752.6390,0.051060
2754.5027,0.051213
2756.3663,0.051483
2758.2300,0.051805
2760.0937,0.052037
2761.9573,0.052261
2763.8210,0.052660
2765.6847,0.052874
2767.5483,0.052919
2769.4120,0.053041
2771.2757,0.053513
2773.1394,0.053872
2775.0030,0.054436
2776.8667,0.054872
2778.7304,0.055176
2780.5940,0.055357
2782.4577,0.055629
2784.3214,0.055973
2786.1850,0.056124
2788.0487,0.055861
2789.9124,0.055769
2791.7760,0.055902
2793.6397,0.056096
2795.5034,0.055890
2797.3670,0.055578
2799.2307,0.055419
2801.0944,0.055513
2802.9581,0.055376
2804.8217,0.055164
2806.6854,0.055051
2808.5491,0.055089
2810.4127,0.055233
2812.2764,0.055299
2814.1401,0.055288
2816.0037,0.055224
2817.8674,0.055079
2819.7311,0.055169
2821.5947,0.055406
2823.4584,0.056010
2825.3221,0.056380
2827.1857,0.056356
2829.0494,0.056454
2830.9131,0.056313
2832.7768,0.056116
2834.6404,0.056477
2836.5041,0.056666
2838.3678,0.056860
2840.2314,0.057133
2842.0951,0.057651
2843.9588,0.058089
2845.8224,0.058375
2847.6861,0.058664
2849.5498,0.059212
2851.4134,0.059865
2853.2771,0.060428
2855.1408,0.060730
2857.0045,0.061369
2858.8681,0.062183
2860.7318,0.062867
2862.5955,0.063386
2864.4591,0.063829
2866.3228,0.064029
2868.1865,0.064602
2870.0501,0.065273
2871.9138,0.065698
2873.7775,0.065954
2875.6411,0.066428
2877.5048,0.067059
2879.3685,0.067839
2881.2321,0.068134
2883.0958,0.068573
2884.9595,0.068827
2886.8232,0.069082
2888.6868,0.069471
2890.5505,0.069717
2892.4142,0.069805
2894.2778,0.069901
2896.1415,0.070327
2898.0052,0.070495
2899.8688,0.070283
2901.7325,0.070243
2903.5962,0.070486
2905.4598,0.070746
2907.3235,0.070846
2909.1872,0.070785
2911.0509,0.070834
2912.9145,0.071534
2914.7782,0.071977
2916.6419,0.072499
2918.5055,0.072983
2920.3692,0.073098
2922.2329,0.073095
2924.0965,0.073265
2925.9602,0.073458
2927.8239,0.073271
2929.6875,0.073122
2931.5512,0.073470
2933.4149,0.073246
2935.2785,0.072772
2937.1422,0.072426
2939.0059,0.072203
2940.8696,0.071572
2942.7332,0.071065
2944.5969,0.070898
2946.4606,0.070411
2948.3242,0.069855
2950.1879,0.069396
2952.0516,0.068757
2953.9152,0.068442
2955.7789,0.068336
2957.6426,0.068317
2959.5062,0.068151
2961.3699,0.067992
2963.2336,0.067827
2965.0972,0.067955
2966.9609,0.068113
2968.8246,0.068433
2970.6883,0.068537
2972.5519,0.068663
2974.4156,0.068530
2976.2793,0.068784
2978.1429,0.068768
2980.0066,0.068558
2981.8703,0.068762
2983.7339,0.068932
2985.5976,0.068766
2987.4613,0.069073
2989.3249,0.069144
2991.1886,0.069507
2993.0523,0.069952
2994.9160,0.070171
2996.7796,0.070518
2998.6433,0.070976
3000.5070,0.071446
3002.3706,0.071804
3004.2343,0.072060
3006.0980,0.072744
3007.9616,0.073198
3009.8253,0.073476
3011.6890,0.073878
3013.5526,0.074341
3015.4163,0.074789
3017.2800,0.075520
3019.1436,0.075980
3021.0073,0.076192
3022.8710,0.076332
3024.7347,0.076715
3026.5983,0.077128
3028.4620,0.077403
3030.3257,0.077661
3032.1893,0.078257
3034.0530,0.078596
3035.9167,0.078992
3037.7803,0.079546
3039.6440,0.080015
3041.5077,0.079898
3043.3713,0.079989
3045.2350,0.080544
3047.0987,0.081033
3048.9624,0.081017
3050.8260,0.081534
3052.6897,0.082127
3054.5534,0.082833
3056.4170,0.083090
3058.2807,0.082981
3060.1444,0.083035
3062.0080,0.083812
3063.8717,0.084368
3065.7354,0.084494
3067.5990,0.084608
3069.4627,0.084660
3071.3264,0.084938
3073.1900,0.085426
3075.0537,0.085200
3076.9174,0.085159
3078.7811,0.085547
3080.6447,0.086121
3082.5084,0.086160
3084.3721,0.086028
3086.2357,0.086102
3088.0994,0.086241
3089.9631,0.086070
3091.8267,0.086088
3093.6904,0.085859
3095.5541,0.085748
3097.4177,0.085927
3099.2814,0.086134
3101.1451,0.086006
3103.0087,0.085768
3104.8724,0.085434
3106.7361,0.084963
3108.5998,0.084936
3110.4634,0.085556
3112.3271,0.085380
3114.1908,0.085250
3116.0544,0.085357
3117.9181,0.085174
3119.7818,0.084952
3121.6454,0.085109
3123.5091,0.085201
3125.3728,0.085415
3127.2364,0.085149
3129.1001,0.084646
3130.9638,0.084268
3132.8275,0.084461
3134.6911,0.084830
3136.5548,0.085081
3138.4185,0.085462
3140.2821,0.085605
3142.1458,0.085091
3144.0095,0.085102
3145.8731,0.085078
3147.7368,0.084517
3149.6005,0.084644
3151.4641,0.085472
3153.3278,0.086213
3155.1915,0.086264
3157.0551,0.085706
3158.9188,0.085626
3160.7825,0.085573
3162.6462,0.085529
3164.5098,0.085345
3166.3735,0.085734
3168.2372,0.086120
3170.1008,0.085996
3171.9645,0.085935
3173.8282,0.085877
3175.6918,0.085484
3177.5555,0.085738
3179.4192,0.085706
3181.2828,0.085716
3183.1465,0.086100
3185.0102,0.086341
3186.8739,0.086628
3188.7375,0.086831
3190.6012,0.086534
3192.4649,0.086999
3194.3285,0.087442
3196.1922,0.087621
3198.0559,0.087895
3199.9195,0.088232
3201.7832,0.087846
3203.6469,0.088078
3205.5105,0.088473
3207.3742,0.088873
3209.2379,0.089005
3211.1015,0.089279
3212.9652,0.089209
3214.8289,0.089518
3216.6926,0.089842
3218.5562,0.089781
3220.4199,0.089708
3222.2836,0.089658
3224.1472,0.089567
3226.0109,0.089925
3227.8746,0.089909
3229.7382,0.090436
3231.6019,0.091125
3233.4656,0.091338
3235.3292,0.091120
3237.1929,0.091242
3239.0566,0.091170
3240.9202,0.090785
3242.7839,0.090773
3244.6476,0.091517
3246.5113,0.091845
3248.3749,0.091706
3250.2386,0.091882
3252.1023,0.092568
3253.9659,0.092864
3255.8296,0.093075
3257.6933,0.093495
3259.5569,0.093507
3261.4206,0.093683
3263.2843,0.093623
3265.1479,0.093139
3267.0116,0.093751
3268.8753,0.094196
3270.7390,0.093988
3272.6026,0.093691
3274.4663,0.093409
3276.3300,0.093020
3278.1936,0.093206
3280.0573,0.092788
3281.9210,0.092450
3283.7846,0.092864
3285.6483,0.092982
3287.5120,0.092551
3289.3756,0.092257
3291.2393,0.091510
3293.1030,0.091293
3294.9666,0.090937
3296.8303,0.090064
3298.6940,0.089495
3300.5577,0.090018
3302.4213,0.089999
3304.2850,0.089157
3306.1487,0.088568
3308.0123,0.088344
3309.8760,0.087706
3311.7397,0.087140
3313.6033,0.086564
3315.4670,0.087206
3317.3307,0.087667
3319.1943,0.087150
3321.0580,0.087037
3322.9217,0.087304
3324.7854,0.087468
3326.6490,0.087680
3328.5127,0.086982
3330.3764,0.086791
3332.2400,0.086834
3334.1037,0.086314
3335.9674,0.085459
3337.8310,0.085212
3339.6947,0.084377
3341.5584,0.083757
3343.4220,0.083478
3345.2857,0.083723
3347.1494,0.083510
3349.0130,0.082576
3350.8767,0.081735
3352.7404,0.080884
3354.6041,0.078842
3356.4677,0.078231
3358.3314,0.078768
3360.1951,0.078680
3362.0587,0.078000
3363.9224,0.076243
3365.7861,0.075059
3367.6497,0.075683
3369.5134,0.075378
3371.3771,0.074449
3373.2407,0.073979
3375.1044,0.074159
3376.9681,0.073438
3378.8317,0.072600
3380.6954,0.072846
3382.5591,0.073284
3384.4228,0.073167
3386.2864,0.073035
3388.1501,0.072825
3390.0138,0.072679
3391.8774,0.072492
3393.7411,0.072049
3395.6048,0.071914
3397.4684,0.071905
3399.3321,0.071413
3401.1958,0.070847
3403.0594,0.070291
3404.9231,0.071296
3406.7868,0.070961
3408.6505,0.068880
3410.5141,0.067339
3412.3778,0.066497
3414.2415,0.065593
3416.1051,0.065018
3417.9688,0.063654
3419.8325,0.062019
3421.6961,0.060974
3423.5598,0.060135
3425.4235,0.058894
3427.2871,0.058461
3429.1508,0.057656
3431.0145,0.056768
3432.8781,0.056294
3434.7418,0.056335
3436.6055,0.055852
3438.4692,0.054334
3440.3328,0.053833
3442.1965,0.053598
3444.0602,0.052220
3445.9238,0.051839
3447.7875,0.051302
3449.6512,0.050316
3451.5148,0.049838
3453.3785,0.049894
3455.2422,0.049456
3457.1058,0.048019
3458.9695,0.047084
3460.8332,0.047262
3462.6969,0.047192
3464.5605,0.046794
3466.4242,0.046468
3468.2879,0.045838
3470.1515,0.044036
3472.0152,0.042726
3473.8789,0.043883
3475.7425,0.044521
3477.6062,0.043369
3479.4699,0.042011
3481.3335,0.041318
3483.1972,0.041000
3485.0609,0.040887
3486.9245,0.040792
3488.7882,0.039796
3490.6519,0.038542
3492.5156,0.038205
3494.3792,0.038395
3496.2429,0.037563
3498.1066,0.036718
3499.9702,0.035799
3501.8339,0.035125
3503.6976,0.034333
3505.5612,0.033876
3507.4249,0.033803
3509.2886,0.033160
3511.1522,0.032150
3513.0159,0.032173
3514.8796,0.032456
3516.7432,0.031291
3518.6069,0.030150
3520.4706,0.030299
3522.3343,0.030520
3524.1979,0.028951
3526.0616,0.027092
3527.9253,0.027402
3529.7889,0.028144
3531.6526,0.027737
3533.5163,0.027184
3535.3799,0.026439
3537.2436,0.025506
3539.1073,0.025610
3540.9709,0.025657
3542.8346,0.025395
3544.6983,0.025006
3546.5620,0.023950
3548.4256,0.022786
3550.2893,0.022401
3552.1530,0.022603
3554.0166,0.022714
3555.8803,0.022038
3557.7440,0.021237
3559.6076,0.020649
3561.4713,0.019930
3563.3350,0.019663
3565.1986,0.019907
3567.0623,0.018570
3568.9260,0.016639
3570.7896,0.016300
3572.6533,0.016927
3574.5170,0.017706
3576.3807,0.018070
3578.2443,0.017759
3580.1080,0.017457
3581.9717,0.017007
3583.8353,0.016454
3585.6990,0.016329
3587.5627,0.016570
3589.4263,0.016409
3591.2900,0.015576
3593.1537,0.014689
3595.0173,0.014792
3596.8810,0.015039
3598.7447,0.015273
3600.6084,0.015584
3602.4720,0.014658
3604.3357,0.014039
3606.1994,0.014572
3608.0630,0.014739
3609.9267,0.014715
3611.7904,0.013763
3613.6540,0.012650
3615.5177,0.012706
3617.3814,0.012906
3619.2450,0.012689
3621.1087,0.012481
3622.9724,0.012997
3624.8360,0.013834
3626.6997,0.013373
3628.5634,0.012672
3630.4271,0.012279
3632.2907,0.012076
3634.1544,0.012713
3636.0181,0.012880
3637.8817,0.012480
3639.7454,0.012408
3641.6091,0.012717
3643.4727,0.012297
3645.3364,0.011732
3647.2001,0.011692
3649.0637,0.011198
3650.9274,0.010419
3652.7911,0.011585
3654.6547,0.012517
3656.5184,0.012567
3658.3821,0.012561
3660.2458,0.012757
3662.1094,0.012987
3663.9731,0.012969
3665.8368,0.012525
3667.7004,0.012439
3669.5641,0.011653
3671.4278,0.010558
3673.2914,0.010610
3675.1551,0.010874
3677.0188,0.011209
3678.8824,0.011568
3680.7461,0.012155
3682.6098,0.012214
3684.4735,0.012190
3686.3371,0.012461
3688.2008,0.012689
3690.0645,0.013074
3691.9281,0.013313
3693.7918,0.012883
3695.6555,0.012603
3697.5191,0.012746
3699.3828,0.012645
3701.2465,0.012773
3703.1101,0.012828
3704.9738,0.012402
3706.8375,0.012006
3708.7011,0.011582
3710.5648,0.012080
3712.4285,0.013048
3714.2922,0.013037
3716.1558,0.012723
3718.0195,0.012917
3719.8832,0.013055
3721.7468,0.013224
3723.6105,0.012946
3725.4742,0.012543
3727.3378,0.012671
3729.2015,0.013041
3731.0652,0.013260
3732.9288,0.012648
3734.7925,0.011392
3736.6562,0.011477
3738.5199,0.011961
3740.3835,0.011957
3742.2472,0.011821
3744.1109,0.011608
3745.9745,0.011538
3747.8382,0.011577
3749.7019,0.012554
3751.5655,0.013760
3753.4292,0.014092
3755.2929,0.013573
3757.1565,0.013378
3759.0202,0.013704
3760.8839,0.013731
3762.7475,0.014069
3764.6112,0.014608
3766.4749,0.014862
3768.3386,0.014642
3770.2022,0.014105
3772.0659,0.014049
3773.9296,0.014435
3775.7932,0.014340
3777.6569,0.014569
3779.5206,0.015397
3781.3842,0.015135
3783.2479,0.014456
3785.1116,0.014406
3786.9752,0.014630
3788.8389,0.014899
3790.7026,0.015026
3792.5662,0.015034
3794.4299,0.015004
3796.2936,0.014840
3798.1573,0.014673
3800.0209,0.014789
3801.8846,0.014805
3803.7483,0.014630
3805.6119,0.014431
3807.4756,0.014672
3809.3393,0.014664
3811.2029,0.014292
3813.0666,0.014147
3814.9303,0.014105
3816.7939,0.014502
3818.6576,0.015079
3820.5213,0.014887
3822.3850,0.014735
3824.2486,0.014835
3826.1123,0.014897
3827.9760,0.014929
3829.8396,0.014798
3831.7033,0.014614
3833.5670,0.014386
3835.4306,0.014027
3837.2943,0.014288
3839.1580,0.014695
3841.0216,0.014890
3842.8853,0.015053
3844.7490,0.015008
3846.6126,0.014886
3848.4763,0.014920
3850.3400,0.015030
3852.2037,0.015039
3854.0673,0.014971
3855.9310,0.014812
3857.7947,0.015034
3859.6583,0.015114
3861.5220,0.014923
3863.3857,0.014927
3865.2493,0.014859
3867.1130,0.014939
3868.9767,0.014995
3870.8403,0.015189
3872.7040,0.015491
3874.5677,0.015891
3876.4314,0.016075
3878.2950,0.015477
3880.1587,0.014993
3882.0224,0.015299
3883.8860,0.015438
3885.7497,0.015655
3887.6134,0.016061
3889.4770,0.015426
3891.3407,0.015060
3893.2044,0.015650
3895.0680,0.016020
3896.9317,0.016181
3898.7954,0.016078
3900.6590,0.015671
3902.5227,0.015609
3904.3864,0.016168
3906.2501,0.016425
3908.1137,0.016273
3909.9774,0.016293
3911.8411,0.016250
3913.7047,0.016208
3915.5684,0.016326
3917.4321,0.016701
3919.2957,0.016908
3921.1594,0.016657
3923.0231,0.016597
3924.8867,0.016602
3926.7504,0.016397
3928.6141,0.016475
3930.4777,0.016548
3932.3414,0.016172
3934.2051,0.016163
3936.0688,0.016280
3937.9324,0.016324
3939.7961,0.016555
3941.6598,0.016948
3943.5234,0.017198
3945.3871,0.017298
3947.2508,0.017319
3949.1144,0.017076
3950.9781,0.016740
3952.8418,0.017207
3954.7054,0.017648
3956.5691,0.017464
3958.4328,0.017487
3960.2965,0.017379
3962.1601,0.017200
3964.0238,0.017090
3965.8875,0.016912
3967.7511,0.017160
3969.6148,0.017379
3971.4785,0.017187
3973.3421,0.016856
3975.2058,0.016910
3977.0695,0.017591
3978.9331,0.017966
3980.7968,0.017679
3982.6605,0.017623
3984.5241,0.017641
3986.3878,0.017480
3988.2515,0.017057
3990.1152,0.017037
3991.9788,0.017664
3993.8425,0.017774
3995.7062,0.017512
3997.5698,0.017699
3999.4335,0.017830
