Wavenumber,Intensity
650.4205,0.184126
652.2841,0.181143
654.1478,0.179949
656.0115,0.177603
657.8751,0.175623
659.7388,0.173678
661.6025,0.172500
663.4661,0.169900
665.3298,0.167023
667.1935,0.166221
669.0571,0.170569
670.9208,0.170360
672.7845,0.168565
674.6481,0.167184
676.5118,0.168911
678.3755,0.167494
680.2392,0.164772
682.1028,0.165320
683.9665,0.166681
685.8302,0.165482
687.6938,0.165740
689.5575,0.165565
691.4212,0.165521
693.2848,0.165612
695.1485,0.167714
697.0122,0.169260
698.8758,0.169672
700.7395,0.169542
702.6032,0.170610
704.4669,0.169585
706.3305,0.165833
708.1942,0.161033
710.0579,0.157097
711.9215,0.151650
713.7852,0.146193
715.6489,0.140817
717.5125,0.135956
719.3762,0.131917
721.2399,0.127849
723.1035,0.123518
724.9672,0.120017
726.8309,0.116881
728.6945,0.114659
730.5582,0.112373
732.4219,0.109407
734.2856,0.106665
736.1492,0.105018
738.0129,0.103758
739.8766,0.104184
741.7402,0.105958
743.6039,0.107991
745.4676,0.109273
747.3312,0.109840
749.1949,0.110149
751.0586,0.110681
752.9222,0.110747
754.7859,0.111636
756.6496,0.112155
758.5132,0.111907
760.3769,0.111627
762.2406,0.111085
764.1043,0.109777
765.9679,0.108609
767.8316,0.107533
769.6953,0.106082
771.5589,0.104632
773.4226,0.103403
775.2863,0.101683
777.1499,0.100409
779.0136,0.099497
780.8773,0.098476
782.7409,0.098424
784.6046,0.098951
786.4683,0.099250
788.3320,0.099637
790.1956,0.100418
792.0593,0.101298
793.9230,0.101815
795.7866,0.102413
797.6503,0.103096
799.5140,0.103361
801.3776,0.103208
803.2413,0.103120
805.1050,0.102531
806.9686,0.101976
808.8323,0.101076
810.6960,0.099543
812.5596,0.097769
814.4233,0.096263
816.2870,0.095068
818.1507,0.093897
820.0143,0.092785
821.8780,0.092275
823.7417,0.092239
825.6053,0.093034
827.4690,0.094593
829.3327,0.095746
831.1963,0.093668
833.0600,0.088326
834.9237,0.083761
836.7873,0.081929
838.6510,0.081848
840.5147,0.082442
842.3784,0.082837
844.2420,0.083361
846.1057,0.083785
847.9694,0.084182
849.8330,0.084639
851.6967,0.085027
853.5604,0.085404
855.4240,0.085661
857.2877,0.085828
859.1514,0.086272
861.0150,0.085969
862.8787,0.084795
864.7424,0.083427
866.6060,0.081976
868.4697,0.080134
870.3334,0.078229
872.1971,0.076631
874.0607,0.075751
875.9244,0.075486
877.7881,0.075495
879.6517,0.076086
881.5154,0.077035
883.3791,0.077906
885.2427,0.079073
887.1064,0.080469
888.9701,0.081992
890.8337,0.083588
892.6974,0.085075
894.5611,0.086460
896.4247,0.087863
898.2884,0.089207
900.1521,0.091113
902.0158,0.093387
903.8794,0.095950
905.7431,0.099150
907.6068,0.102893
909.4704,0.107046
911.3341,0.111920
913.1978,0.116976
915.0614,0.119777
916.9251,0.116672
918.7888,0.109430
920.6524,0.103963
922.5161,0.101952
924.3798,0.101688
926.2435,0.101923
928.1071,0.101972
929.9708,0.102048
931.8345,0.102240
933.6981,0.102106
935.5618,0.101834
937.4255,0.101620
939.2891,0.101134
941.1528,0.100673
943.0165,0.100531
944.8801,0.100891
946.7438,0.101923
948.6075,0.103740
950.4711,0.105986
952.3348,0.108540
954.1985,0.111651
956.0622,0.115354
957.9258,0.119246
959.7895,0.123341
961.6532,0.127779
963.5168,0.132639
965.3805,0.137966
967.2442,0.143929
969.1078,0.150462
970.9715,0.157538
972.8352,0.165215
974.6988,0.174547
976.5625,0.186412
978.4262,0.202067
980.2899,0.220287
982.1535,0.228257
984.0172,0.214675
985.8809,0.197061
987.7445,0.191167
989.6082,0.192399
991.4719,0.194329
993.3355,0.195817
995.1992,0.196423
997.0629,0.196362
998.9265,0.195741
1000.7902,0.194729
1002.6539,0.193623
1004.5175,0.192751
1006.3812,0.191975
1008.2449,0.191329
1010.1086,0.190589
1011.9722,0.189673
1013.8359,0.188291
1015.6996,0.186386
1017.5632,0.183935
1019.4269,0.181174
1021.2906,0.178101
1023.1542,0.174657
1025.0179,0.170930
1026.8816,0.167231
1028.7452,0.163694
1030.6089,0.160653
1032.4726,0.158117
1034.3362,0.156200
1036.1999,0.155241
1038.0636,0.155151
1039.9273,0.155163
1041.7909,0.154944
1043.6546,0.154445
1045.5183,0.153454
1047.3819,0.151155
1049.2456,0.146537
1051.1093,0.139075
1052.9729,0.129822
1054.8366,0.121028
1056.7003,0.114282
1058.5639,0.109512
1060.4276,0.106176
1062.2913,0.103974
1064.1550,0.103161
1066.0186,0.104201
1067.8823,0.107718
1069.7460,0.113635
1071.6096,0.120722
1073.4733,0.126910
1075.3370,0.130539
1077.2006,0.131402
1079.0643,0.130275
1080.9280,0.127952
1082.7916,0.125089
1084.6553,0.122178
1086.5190,0.119766
1088.3826,0.117927
1090.2463,0.116863
1092.1100,0.116733
1093.9737,0.117579
1095.8373,0.119546
1097.7010,0.122450
1099.5647,0.125725
1101.4283,0.129019
1103.2920,0.131530
1105.1557,0.132405
1107.0193,0.131046
1108.8830,0.127177
1110.7467,0.121084
1112.6103,0.113693
1114.4740,0.106448
1116.3377,0.100332
1118.2014,0.095608
1120.0650,0.092377
1121.9287,0.090215
1123.7924,0.088730
1125.6560,0.087420
1127.5197,0.085979
1129.3834,0.084478
1131.2470,0.083360
1133.1107,0.083073
1134.9744,0.083646
1136.8380,0.084976
1138.7017,0.087132
1140.5654,0.089788
1142.4290,0.092266
1144.2927,0.094297
1146.1564,0.095755
1148.0201,0.096314
1149.8837,0.095940
1151.7474,0.094776
1153.6111,0.092801
1155.4747,0.090153
1157.3384,0.087161
1159.2021,0.083784
1161.0657,0.080234
1162.9294,0.076892
1164.7931,0.073898
1166.6567,0.071568
1168.5204,0.070015
1170.3841,0.068916
1172.2477,0.067610
1174.1114,0.065198
1175.9751,0.061591
1177.8388,0.057834
1179.7024,0.055037
1181.5661,0.053489
1183.4298,0.052849
1185.2934,0.052872
1187.1571,0.053273
1189.0208,0.053817
1190.8844,0.054452
1192.7481,0.055081
1194.6118,0.055737
1196.4754,0.056462
1198.3391,0.057181
1200.2028,0.057827
1202.0665,0.058386
1203.9301,0.058834
1205.7938,0.059153
1207.6575,0.059423
1209.5211,0.059613
1211.3848,0.059677
1213.2485,0.059810
1215.1121,0.060067
1216.9758,0.060405
1218.8395,0.060911
1220.7031,0.061535
1222.5668,0.062265
1224.4305,0.063120
1226.2941,0.063978
1228.1578,0.064789
1230.0215,0.065539
1231.8852,0.066227
1233.7488,0.066892
1235.6125,0.067544
1237.4762,0.068076
1239.3398,0.068522
1241.2035,0.069000
1243.0672,0.069381
1244.9308,0.069577
1246.7945,0.069776
1248.6582,0.070039
1250.5218,0.070299
1252.3855,0.070618
1254.2492,0.070934
1256.1129,0.071319
1257.9765,0.071856
1259.8402,0.072554
1261.7039,0.073317
1263.5675,0.073876
1265.4312,0.074308
1267.2949,0.074538
1269.1585,0.074538
1271.0222,0.074619
1272.8859,0.074876
1274.7495,0.075331
1276.6132,0.076052
1278.4769,0.077008
1280.3405,0.078136
1282.2042,0.079378
1284.0679,0.080720
1285.9316,0.082215
1287.7952,0.083956
1289.6589,0.085847
1291.5226,0.087879
1293.3862,0.090090
1295.2499,0.092628
1297.1136,0.095699
1298.9772,0.099197
1300.8409,0.103183
1302.7046,0.107271
1304.5682,0.109918
1306.4319,0.109082
1308.2956,0.102829
1310.1592,0.092056
1312.0229,0.081539
1313.8866,0.075230
1315.7503,0.073372
1317.6139,0.074176
1319.4776,0.076202
1321.3413,0.078248
1323.2049,0.080176
1325.0686,0.082286
1326.9323,0.084352
1328.7959,0.086362
1330.6596,0.088129
1332.5233,0.089330
1334.3869,0.089806
1336.2506,0.089948
1338.1143,0.090745
1339.9780,0.092316
1341.8416,0.092514
1343.7053,0.091769
1345.5690,0.091653
1347.4326,0.092029
1349.2963,0.092749
1351.1600,0.093574
1353.0236,0.094368
1354.8873,0.095596
1356.7510,0.096846
1358.6146,0.097530
1360.4783,0.098572
1362.3420,0.101468
1364.2056,0.103899
1366.0693,0.104202
1367.9330,0.105195
1369.7967,0.106686
1371.6603,0.107367
1373.5240,0.109461
1375.3877,0.112357
1377.2513,0.113515
1379.1150,0.115041
1380.9787,0.117372
1382.8423,0.119475
1384.7060,0.121736
1386.5697,0.125584
1388.4333,0.130541
1390.2970,0.132142
1392.1607,0.132336
1394.0244,0.132695
1395.8880,0.131421
1397.7517,0.127492
1399.6154,0.122938
1401.4790,0.117916
1403.3427,0.112631
1405.2064,0.105645
1407.0700,0.096143
1408.9337,0.086488
1410.7974,0.078251
1412.6610,0.072753
1414.5247,0.069952
1416.3884,0.069799
1418.2520,0.073054
1420.1157,0.078736
1421.9794,0.079928
1423.8431,0.077996
1425.7067,0.073209
1427.5704,0.067717
1429.4341,0.064450
1431.2977,0.063250
1433.1614,0.062424
1435.0251,0.062690
1436.8887,0.065692
1438.7524,0.067449
1440.6161,0.066920
1442.4797,0.067288
1444.3434,0.067679
1446.2071,0.068013
1448.0707,0.068666
1449.9344,0.068003
1451.7981,0.065791
1453.6618,0.063464
1455.5254,0.062580
1457.3891,0.066878
1459.2528,0.068939
1461.1164,0.066331
1462.9801,0.064789
1464.8438,0.064743
1466.7074,0.063809
1468.5711,0.061073
1470.4348,0.058758
1472.2984,0.058580
1474.1621,0.059812
1476.0258,0.059070
1477.8895,0.058207
1479.7531,0.057518
1481.6168,0.057356
1483.4805,0.057163
1485.3441,0.056388
1487.2078,0.056604
1489.0715,0.058696
1490.9351,0.060677
1492.7988,0.059697
1494.6625,0.058659
1496.5261,0.060282
1498.3898,0.062621
1500.2535,0.062452
1502.1171,0.061154
1503.9808,0.059824
1505.8445,0.061103
1507.7082,0.068683
1509.5718,0.068571
1511.4355,0.066863
1513.2992,0.066544
1515.1628,0.066424
1517.0265,0.067509
1518.8902,0.068409
1520.7538,0.069234
1522.6175,0.072189
1524.4812,0.072165
1526.3448,0.072542
1528.2085,0.073387
1530.0722,0.072536
1531.9359,0.072479
1533.7995,0.074644
1535.6632,0.074799
1537.5269,0.072998
1539.3905,0.075015
1541.2542,0.082181
1543.1179,0.083146
1544.9815,0.083411
1546.8452,0.083291
1548.7089,0.083180
1550.5725,0.084771
1552.4362,0.085394
1554.2999,0.085159
1556.1635,0.085848
1558.0272,0.089602
1559.8909,0.101916
1561.7546,0.098404
1563.6182,0.095272
1565.4819,0.095927
1567.3456,0.097414
1569.2092,0.100102
1571.0729,0.103259
1572.9366,0.102488
1574.8002,0.103371
1576.6639,0.109162
1578.5276,0.111539
1580.3912,0.110887
1582.2549,0.112055
1584.1186,0.113628
1585.9822,0.114778
1587.8459,0.115648
1589.7096,0.116213
1591.5733,0.116539
1593.4369,0.116646
1595.3006,0.116463
1597.1643,0.115827
1599.0279,0.114696
1600.8916,0.113690
1602.7553,0.112880
1604.6189,0.112023
1606.4826,0.111127
1608.3463,0.110380
1610.2099,0.109462
1612.0736,0.107538
1613.9373,0.105038
1615.8010,0.103210
1617.6646,0.101595
1619.5283,0.098134
1621.3920,0.094715
1623.2556,0.091771
1625.1193,0.088272
1626.9830,0.084389
1628.8466,0.079690
1630.7103,0.074264
1632.5740,0.069193
1634.4376,0.065159
1636.3013,0.062461
1638.1650,0.060841
1640.0286,0.059189
1641.8923,0.057964
1643.7560,0.057418
1645.6197,0.058244
1647.4833,0.060918
1649.3470,0.061107
1651.2107,0.060220
1653.0743,0.064634
1654.9380,0.070295
1656.8017,0.067175
1658.6653,0.065604
1660.5290,0.065125
1662.3927,0.064987
1664.2563,0.064669
1666.1200,0.062958
1667.9837,0.061645
1669.8474,0.061853
1671.7110,0.061720
1673.5747,0.061200
1675.4384,0.062692
1677.3020,0.064444
1679.1657,0.064322
1681.0294,0.065505
1682.8930,0.067954
1684.7567,0.073615
1686.6204,0.074952
1688.4840,0.072326
1690.3477,0.070848
1692.2114,0.068431
1694.0750,0.065521
1695.9387,0.063321
1697.8024,0.061901
1699.6661,0.059542
1701.5297,0.057439
1703.3934,0.053660
1705.2571,0.049189
1707.1207,0.044462
1708.9844,0.040665
1710.8481,0.037687
1712.7117,0.035218
1714.5754,0.033325
1716.4391,0.032766
1718.3027,0.033577
1720.1664,0.033304
1722.0301,0.031591
1723.8937,0.030370
1725.7574,0.029187
1727.6211,0.027750
1729.4848,0.026545
1731.3484,0.025721
1733.2121,0.025156
1735.0758,0.026032
1736.9394,0.025467
1738.8031,0.024312
1740.6668,0.024698
1742.5304,0.024611
1744.3941,0.024006
1746.2578,0.023474
1748.1214,0.023224
1749.9851,0.023713
1751.8488,0.024042
1753.7125,0.023582
1755.5761,0.022859
1757.4398,0.023009
1759.3035,0.023035
1761.1671,0.022773
1763.0308,0.023156
1764.8945,0.022750
1766.7581,0.022116
1768.6218,0.022241
1770.4855,0.022341
1772.3491,0.022838
1774.2128,0.023620
1776.0765,0.022838
1777.9401,0.022518
1779.8038,0.022498
1781.6675,0.022802
1783.5312,0.022844
1785.3948,0.022926
1787.2585,0.022895
1789.1222,0.022360
1790.9858,0.022290
1792.8495,0.023247
1794.7132,0.023353
1796.5768,0.022618
1798.4405,0.022560
1800.3042,0.023020
1802.1678,0.023660
1804.0315,0.023526
1805.8952,0.023065
1807.7589,0.022997
1809.6225,0.023187
1811.4862,0.023347
1813.3499,0.023229
1815.2135,0.022860
1817.0772,0.022727
1818.9409,0.022817
1820.8045,0.022899
1822.6682,0.022728
1824.5319,0.022542
1826.3955,0.022812
1828.2592,0.022753
1830.1229,0.023037
1831.9865,0.023502
1833.8502,0.022941
1835.7139,0.022800
1837.5776,0.022899
1839.4412,0.022670
1841.3049,0.022155
1843.1686,0.022289
1845.0322,0.023156
1846.8959,0.023339
1848.7596,0.023207
1850.6232,0.023373
1852.4869,0.022903
1854.3506,0.022616
1856.2142,0.022714
1858.0779,0.023027
1859.9416,0.023066
1861.8052,0.023009
1863.6689,0.022788
1865.5326,0.022656
1867.3963,0.022557
1869.2599,0.022965
1871.1236,0.023213
1872.9873,0.022827
1874.8509,0.022799
1876.7146,0.023068
1878.5783,0.023212
1880.4419,0.023343
1882.3056,0.023199
1884.1693,0.022865
1886.0329,0.022632
1887.8966,0.022585
1889.7603,0.022526
1891.6240,0.022929
1893.4876,0.023134
1895.3513,0.023206
1897.2150,0.023131
1899.0786,0.023030
1900.9423,0.022814
1902.8060,0.022771
1904.6696,0.022750
1906.5333,0.022595
1908.3970,0.022284
1910.2606,0.022271
1912.1243,0.022770
1913.9880,0.022910
1915.8516,0.022323
1917.7153,0.022007
1919.5790,0.022467
1921.4427,0.022513
1923.3063,0.022298
1925.1700,0.022076
1927.0337,0.021724
1928.8973,0.021693
1930.7610,0.021821
1932.6247,0.022439
1934.4883,0.022326
1936.3520,0.021752
1938.2157,0.021253
1940.0793,0.020729
1941.9430,0.020030
1943.8067,0.019663
1945.6704,0.019567
1947.5340,0.019696
1949.3977,0.019177
1951.2614,0.018461
1953.1250,0.017933
1954.9887,0.017665
1956.8524,0.017728
1958.7160,0.017913
1960.5797,0.017628
1962.4434,0.016124
1964.3070,0.014585
1966.1707,0.014790
1968.0344,0.014186
1969.8980,0.012205
1971.7617,0.011908
1973.6254,0.012532
1975.4891,0.012574
1977.3527,0.012295
1979.2164,0.012587
1981.0801,0.013969
1982.9437,0.014150
1984.8074,0.014060
1986.6711,0.014579
1988.5347,0.015497
1990.3984,0.015714
1992.2621,0.015547
1994.1257,0.015599
1995.9894,0.016427
1997.8531,0.017233
1999.7167,0.016351
2001.5804,0.014613
2003.4441,0.014334
2005.3078,0.014435
2007.1714,0.014413
2009.0351,0.013856
2010.8988,0.012699
2012.7624,0.012669
2014.6261,0.013152
2016.4898,0.012403
2018.3534,0.010798
2020.2171,0.010655
2022.0808,0.012284
2023.9444,0.013142
2025.8081,0.012137
2027.6718,0.011349
2029.5355,0.012311
2031.3991,0.013271
2033.2628,0.013374
2035.1265,0.014095
2036.9901,0.016196
2038.8538,0.016046
2040.7175,0.014857
2042.5811,0.014863
2044.4448,0.015403
2046.3085,0.016332
2048.1721,0.017106
2050.0358,0.018189
2051.8995,0.019665
2053.7631,0.019600
2055.6268,0.019870
2057.4905,0.020874
2059.3542,0.021368
2061.2178,0.021563
2063.0815,0.021864
2064.9452,0.021829
2066.8088,0.021243
2068.6725,0.021233
2070.5362,0.021660
2072.3998,0.021359
2074.2635,0.022056
2076.1272,0.023604
2077.9908,0.024180
2079.8545,0.024301
2081.7182,0.024455
2083.5819,0.024483
2085.4455,0.024626
2087.3092,0.024748
2089.1729,0.024812
2091.0365,0.025037
2092.9002,0.025144
2094.7639,0.024763
2096.6275,0.024530
2098.4912,0.023994
2100.3549,0.024028
2102.2185,0.024741
2104.0822,0.025114
2105.9459,0.025381
2107.8095,0.025471
2109.6732,0.024807
2111.5369,0.024694
2113.4006,0.025691
2115.2642,0.026363
2117.1279,0.025488
2118.9916,0.024774
2120.8552,0.024927
2122.7189,0.024795
2124.5826,0.024172
2126.4462,0.024072
2128.3099,0.024227
2130.1736,0.023939
2132.0372,0.023190
2133.9009,0.022489
2135.7646,0.022424
2137.6282,0.022062
2139.4919,0.020645
2141.3556,0.019833
2143.2193,0.019667
2145.0829,0.019187
2146.9466,0.018430
2148.8103,0.017335
2150.6739,0.015692
2152.5376,0.015279
2154.4013,0.014791
2156.2649,0.012109
2158.1286,0.010934
2159.9923,0.012092
2161.8559,0.013552
2163.7196,0.014669
2165.5833,0.014773
2167.4470,0.014430
2169.3106,0.014957
2171.1743,0.016315
2173.0380,0.016360
2174.9016,0.017037
2176.7653,0.018511
2178.6290,0.017942
2180.4926,0.016953
2182.3563,0.017628
2184.2200,0.018167
2186.0836,0.018065
2187.9473,0.017496
2189.8110,0.017901
2191.6746,0.019239
2193.5383,0.020378
2195.4020,0.021361
2197.2657,0.022116
2199.1293,0.021930
2200.9930,0.022111
2202.8567,0.023077
2204.7203,0.023355
2206.5840,0.022387
2208.4477,0.021714
2210.3113,0.021689
2212.1750,0.021451
2214.0387,0.022322
2215.9023,0.023017
2217.7660,0.022515
2219.6297,0.023156
2221.4934,0.023555
2223.3570,0.023233
2225.2207,0.023627
2227.0844,0.024985
2228.9480,0.025496
2230.8117,0.025099
2232.6754,0.025202
2234.5390,0.025578
2236.4027,0.025352
2238.2664,0.025426
2240.1300,0.026199
2241.9937,0.026782
2243.8574,0.026410
2245.7210,0.026100
2247.5847,0.026311
2249.4484,0.027166
2251.3121,0.027913
2253.1757,0.027329
2255.0394,0.026817
2256.9031,0.027433
2258.7667,0.027728
2260.6304,0.028046
2262.4941,0.028473
2264.3577,0.028468
2266.2214,0.028299
2268.0851,0.028500
2269.9487,0.028840
2271.8124,0.029412
2273.6761,0.029599
2275.5397,0.029991
2277.4034,0.030855
2279.2671,0.031342
2281.1308,0.031336
2282.9944,0.031718
2284.8581,0.032270
2286.7218,0.032155
2288.5854,0.031594
2290.4491,0.031615
2292.3128,0.032145
2294.1764,0.032382
2296.0401,0.032267
2297.9038,0.032332
2299.7674,0.032800
2301.6311,0.033271
2303.4948,0.033112
2305.3585,0.032807
2307.2221,0.032591
2309.0858,0.032520
2310.9495,0.032751
2312.8131,0.033096
2314.6768,0.033478
2316.5405,0.033689
2318.4041,0.033543
2320.2678,0.033220
2322.1315,0.033204
2323.9951,0.033567
2325.8588,0.033342
2327.7225,0.032635
2329.5861,0.032297
2331.4498,0.032411
2333.3135,0.032471
2335.1772,0.032604
2337.0408,0.032877
2338.9045,0.032952
2340.7682,0.033180
2342.6318,0.033743
2344.4955,0.033988
2346.3592,0.033949
2348.2228,0.033330
2350.0865,0.032495
2351.9502,0.031960
2353.8138,0.031874
2355.6775,0.032158
2357.5412,0.032712
2359.4049,0.032864
2361.2685,0.032844
2363.1322,0.033159
2364.9959,0.033440
2366.8595,0.033187
2368.7232,0.033234
2370.5869,0.033817
2372.4505,0.034151
2374.3142,0.034082
2376.1779,0.034186
2378.0415,0.034149
2379.9052,0.034120
2381.7689,0.033966
2383.6325,0.033682
2385.4962,0.033747
2387.3599,0.034054
2389.2236,0.033893
2391.0872,0.033938
2392.9509,0.034219
2394.8146,0.034015
2396.6782,0.033852
2398.5419,0.033890
2400.4056,0.033978
2402.2692,0.034162
2404.1329,0.034345
2405.9966,0.034532
2407.8602,0.034560
2409.7239,0.034462
2411.5876,0.034311
2413.4512,0.034296
2415.3149,0.034402
2417.1786,0.034485
2419.0423,0.034911
2420.9059,0.035251
2422.7696,0.035139
2424.6333,0.034974
2426.4969,0.034847
2428.3606,0.034901
2430.2243,0.035024
2432.0879,0.035390
2433.9516,0.035550
2435.8153,0.035402
2437.6789,0.035360
2439.5426,0.035408
2441.4063,0.035473
2443.2700,0.035610
2445.1336,0.035498
2446.9973,0.035616
2448.8610,0.035871
2450.7246,0.035892
2452.5883,0.035695
2454.4520,0.035645
2456.3156,0.035593
2458.1793,0.035614
2460.0430,0.035664
2461.9066,0.036041
2463.7703,0.035981
2465.6340,0.035446
2467.4976,0.035173
2469.3613,0.035469
2471.2250,0.035719
2473.0887,0.035867
2474.9523,0.036075
2476.8160,0.036027
2478.6797,0.035704
2480.5433,0.035675
2482.4070,0.035734
2484.2707,0.035984
2486.1343,0.036234
2487.9980,0.036496
2489.8617,0.036688
2491.7253,0.036816
2493.5890,0.036792
2495.4527,0.036752
2497.3164,0.036826
2499.1800,0.036944
2501.0437,0.036844
2502.9074,0.036612
2504.7710,0.036501
2506.6347,0.036842
2508.4984,0.037336
2510.3620,0.037492
2512.2257,0.037363
2514.0894,0.037089
2515.9530,0.037160
2517.8167,0.037675
2519.6804,0.037723
2521.5440,0.037888
2523.4077,0.038092
2525.2714,0.038206
2527.1351,0.038086
2528.9987,0.037926
2530.8624,0.037652
2532.7261,0.037602
2534.5897,0.037917
2536.4534,0.038114
2538.3171,0.038389
2540.1807,0.038543
2542.0444,0.038495
2543.9081,0.038774
2545.7717,0.038921
2547.6354,0.038617
2549.4991,0.038535
2551.3627,0.038768
2553.2264,0.038877
2555.0901,0.038775
2556.9538,0.038584
2558.8174,0.039043
2560.6811,0.039209
2562.5448,0.039084
2564.4084,0.039355
2566.2721,0.039615
2568.1358,0.039253
2569.9994,0.039187
2571.8631,0.039633
2573.7268,0.040070
2575.5904,0.040363
2577.4541,0.040640
2579.3178,0.040207
2581.1815,0.040028
2583.0451,0.040469
2584.9088,0.040848
2586.7725,0.040870
2588.6361,0.040916
2590.4998,0.041051
2592.3635,0.041404
2594.2271,0.041631
2596.0908,0.041740
2597.9545,0.041649
2599.8181,0.041899
2601.6818,0.041983
2603.5455,0.042082
2605.4091,0.042199
2607.2728,0.042475
2609.1365,0.042676
2611.0002,0.042797
2612.8638,0.042946
2614.7275,0.043244
2616.5912,0.043505
2618.4548,0.043504
2620.3185,0.043415
2622.1822,0.043539
2624.0458,0.043889
2625.9095,0.044329
2627.7732,0.044426
2629.6368,0.044807
2631.5005,0.045311
2633.3642,0.045467
2635.2279,0.045646
2637.0915,0.045810
2638.9552,0.045757
2640.8189,0.045807
2642.6825,0.046130
2644.5462,0.046420
2646.4099,0.046626
2648.2735,0.046861
2650.1372,0.046964
2652.0009,0.047035
2653.8645,0.047009
2655.7282,0.046993
2657.5919,0.047041
2659.4555,0.047279
2661.3192,0.047443
2663.1829,0.047604
2665.0466,0.047651
2666.9102,0.047700
2668.7739,0.047647
2670.6376,0.047602
2672.5012,0.047718
2674.3649,0.047963
2676.2286,0.048046
2678.0922,0.048297
2679.9559,0.048522
2681.8196,0.048719
2683.6832,0.048830
2685.5469,0.049009
2687.4106,0.049149
2689.2742,0.049143
2691.1379,0.049415
2693.0016,0.049721
2694.8653,0.049619
2696.7289,0.050017
2698.5926,0.050318
2700.4563,0.050434
2702.3199,0.050771
2704.1836,0.051026
2706.0473,0.051171
2707.9109,0.051517
2709.7746,0.051632
2711.6383,0.051908
2713.5019,0.052311
2715.3656,0.052700
2717.2293,0.052883
2719.0930,0.053019
2720.9566,0.053244
2722.8203,0.053517
2724.6840,0.053701
2726.5476,0.053951
2728.4113,0.054302
2730.2750,0.054602
2732.1386,0.055004
2734.0023,0.055419
2735.8660,0.055614
2737.7296,0.055957
2739.5933,0.056318
2741.4570,0.056612
2743.3206,0.057118
2745.1843,0.057348
2747.0480,0.057305
2748.9117,0.057724
2750.7753,0.058244
2752.6390,0.058925
2754.5027,0.059177
2756.3663,0.059084
2758.2300,0.059403
2760.0937,0.059971
2761.9573,0.060281
2763.8210,0.060507
2765.6847,0.060941
2767.5483,0.061339
2769.4120,0.061526
2771.2757,0.061855
2773.1394,0.062461
2775.0030,0.063066
2776.8667,0.063510
2778.7304,0.063743
2780.5940,0.063693
2782.4577,0.063795
2784.3214,0.063885
2786.1850,0.063891
2788.0487,0.063752
2789.9124,0.063696
2791.7760,0.063521
2793.6397,0.063431
2795.5034,0.063187
2797.3670,0.062948
2799.2307,0.062924
2801.0944,0.062747
2802.9581,0.062384
2804.8217,0.062354
2806.6854,0.062491
2808.5491,0.062522
2810.4127,0.062515
2812.2764,0.062582
2814.1401,0.062597
2816.0037,0.062512
2817.8674,0.062721
2819.7311,0.063062
2821.5947,0.063273
2823.4584,0.063502
2825.3221,0.063423
2827.1857,0.063396
2829.0494,0.063037
2830.9131,0.062884
2832.7768,0.063330
2834.6404,0.063823
2836.5041,0.064010
2838.3678,0.064209
2840.2314,0.064501
2842.0951,0.065103
2843.9588,0.065528
2845.8224,0.065839
2847.6861,0.066345
2849.5498,0.066908
2851.4134,0.067274
2853.2771,0.067923
2855.1408,0.068611
2857.0045,0.069266
2858.8681,0.069954
2860.7318,0.070606
2862.5955,0.070958
2864.4591,0.071182
2866.3228,0.071440
2868.1865,0.071684
2870.0501,0.072302
2871.9138,0.073002
2873.7775,0.073412
2875.6411,0.074010
2877.5048,0.074509
2879.3685,0.075112
2881.2321,0.075550
2883.0958,0.076020
2884.9595,0.076389
2886.8232,0.076585
2888.6868,0.076920
2890.5505,0.077263
2892.4142,0.077299
2894.2778,0.077610
2896.1415,0.077794
2898.0052,0.078221
2899.8688,0.078476
2901.7325,0.078221
2903.5962,0.077820
2905.4598,0.077879
2907.3235,0.078361
2909.1872,0.079032
2911.0509,0.079436
2912.9145,0.079694
2914.7782,0.080062
2916.6419,0.080847
2918.5055,0.081713
2920.3692,0.082015
2922.2329,0.082059
2924.0965,0.082919
2925.9602,0.083520
2927.8239,0.083437
2929.6875,0.083587
2931.5512,0.084066
2933.4149,0.083720
2935.2785,0.083083
2937.1422,0.082793
2939.0059,0.082660
2940.8696,0.082264
2942.7332,0.081999
2944.5969,0.081584
2946.4606,0.080981
2948.3242,0.080352
2950.1879,0.080171
2952.0516,0.080146
2953.9152,0.079875
2955.7789,0.079638
2957.6426,0.079610
2959.5062,0.079382
2961.3699,0.079362
2963.2336,0.079725
2965.0972,0.080380
2966.9609,0.080670
2968.8246,0.081168
2970.6883,0.081237
2972.5519,0.081002
2974.4156,0.081118
2976.2793,0.081724
2978.1429,0.082279
2980.0066,0.082612
2981.8703,0.082486
2983.7339,0.082449
2985.5976,0.082350
2987.4613,0.082495
2989.3249,0.082975
2991.1886,0.083759
2993.0523,0.084116
2994.9160,0.084491
2996.7796,0.085004
2998.6433,0.085496
3000.5070,0.085794
3002.3706,0.086195
3004.2343,0.086571
3006.0980,0.087496
3007.9616,0.088179
3009.8253,0.088473
3011.6890,0.089104
3013.5526,0.089537
3015.4163,0.089909
3017.2800,0.090480
3019.1436,0.091104
3021.0073,0.091776
3022.8710,0.091672
3024.7347,0.091873
3026.5983,0.092301
3028.4620,0.092752
3030.3257,0.092762
3032.1893,0.093014
3034.0530,0.093808
3035.9167,0.094533
3037.7803,0.094805
3039.6440,0.095271
3041.5077,0.095506
3043.3713,0.095599
3045.2350,0.095739
3047.0987,0.096512
3048.9624,0.097052
3050.8260,0.097049
3052.6897,0.097234
3054.5534,0.097646
3056.4170,0.097821
3058.2807,0.098303
3060.1444,0.098611
3062.0080,0.098539
3063.8717,0.099137
3065.7354,0.099718
3067.5990,0.099909
3069.4627,0.099870
3071.3264,0.099733
3073.1900,0.099802
3075.0537,0.099888
3076.9174,0.100159
3078.7811,0.100319
3080.6447,0.100638
3082.5084,0.100441
3084.3721,0.100339
3086.2357,0.100043
3088.0994,0.099786
3089.9631,0.099818
3091.8267,0.100001
3093.6904,0.099438
3095.5541,0.098813
3097.4177,0.098842
3099.2814,0.099737
3101.1451,0.099924
3103.0087,0.099079
3104.8724,0.098583
3106.7361,0.098296
3108.5998,0.097615
3110.4634,0.097447
3112.3271,0.097057
3114.1908,0.096854
3116.0544,0.096965
3117.9181,0.096901
3119.7818,0.096705
3121.6454,0.096934
3123.5091,0.096416
3125.3728,0.095833
3127.2364,0.095376
3129.1001,0.095396
3130.9638,0.095843
3132.8275,0.096002
3134.6911,0.095797
3136.5548,0.095857
3138.4185,0.095318
3140.2821,0.095045
3142.1458,0.095037
3144.0095,0.095214
3145.8731,0.095484
3147.7368,0.095559
3149.6005,0.095168
3151.4641,0.094861
3153.3278,0.094343
3155.1915,0.094291
3157.0551,0.094305
3158.9188,0.094419
3160.7825,0.094423
3162.6462,0.094457
3164.5098,0.094460
3166.3735,0.094558
3168.2372,0.094565
3170.1008,0.094435
3171.9645,0.094065
3173.8282,0.094081
3175.6918,0.094122
3177.5555,0.093922
3179.4192,0.093918
3181.2828,0.094505
3183.1465,0.095176
3185.0102,0.095559
3186.8739,0.094724
3188.7375,0.094543
3190.6012,0.094692
3192.4649,0.094445
3194.3285,0.094314
3196.1922,0.094685
3198.0559,0.094720
3199.9195,0.094525
3201.7832,0.094569
3203.6469,0.095554
3205.5105,0.095557
3207.3742,0.095538
3209.2379,0.095661
3211.1015,0.096113
3212.9652,0.096424
3214.8289,0.096545
3216.6926,0.096774
3218.5562,0.096841
3220.4199,0.096590
3222.2836,0.097071
3224.1472,0.097576
3226.0109,0.097645
3227.8746,0.097846
3229.7382,0.097930
3231.6019,0.098010
3233.4656,0.098577
3235.3292,0.098417
3237.1929,0.098105
3239.0566,0.098588
3240.9202,0.099141
3242.7839,0.098652
3244.6476,0.098685
3246.5113,0.099268
3248.3749,0.100293
3250.2386,0.100275
3252.1023,0.100220
3253.9659,0.100215
3255.8296,0.100897
3257.6933,0.100979
3259.5569,0.100849
3261.4206,0.100734
3263.2843,0.100733
3265.1479,0.101278
3267.0116,0.102070
3268.8753,0.101851
3270.7390,0.101288
3272.6026,0.100678
3274.4663,0.100570
3276.3300,0.100241
3278.1936,0.100191
3280.0573,0.100785
3281.9210,0.101006
3283.7846,0.099548
3285.6483,0.099138
3287.5120,0.098409
3289.3756,0.097868
3291.2393,0.097777
3293.1030,0.097342
3294.9666,0.096272
3296.8303,0.096426
3298.6940,0.096715
3300.5577,0.095611
3302.4213,0.095021
3304.2850,0.095038
3306.1487,0.093257
3308.0123,0.092506
3309.8760,0.093395
3311.7397,0.093933
3313.6033,0.093553
3315.4670,0.093710
3317.3307,0.093579
3319.1943,0.093681
3321.0580,0.092965
3322.9217,0.092634
3324.7854,0.092770
3326.6490,0.093237
3328.5127,0.092738
3330.3764,0.092811
3332.2400,0.092243
3334.1037,0.091959
3335.9674,0.092144
3337.8310,0.091923
3339.6947,0.091017
3341.5584,0.089954
3343.4220,0.089145
3345.2857,0.088213
3347.1494,0.086732
3349.0130,0.086189
3350.8767,0.085680
3352.7404,0.084717
3354.6041,0.083015
3356.4677,0.082091
3358.3314,0.081407
3360.1951,0.080990
3362.0587,0.080212
3363.9224,0.080369
3365.7861,0.080401
3367.6497,0.079178
3369.5134,0.078392
3371.3771,0.079227
3373.2407,0.079056
3375.1044,0.078731
3376.9681,0.078196
3378.8317,0.077236
3380.6954,0.077389
3382.5591,0.078152
3384.4228,0.077104
3386.2864,0.076441
3388.1501,0.076207
3390.0138,0.077293
3391.8774,0.077444
3393.7411,0.076699
3395.6048,0.076883
3397.4684,0.077306
3399.3321,0.077289
3401.1958,0.076657
3403.0594,0.075664
3404.9231,0.074764
3406.7868,0.073034
3408.6505,0.072946
3410.5141,0.071390
3412.3778,0.068854
3414.2415,0.067001
3416.1051,0.065966
3417.9688,0.065700
3419.8325,0.065326
3421.6961,0.063832
3423.5598,0.061870
3425.4235,0.060449
3427.2871,0.060507
3429.1508,0.060394
3431.0145,0.059221
3432.8781,0.058392
3434.7418,0.057802
3436.6055,0.055711
3438.4692,0.054323
3440.3328,0.054957
3442.1965,0.055257
3444.0602,0.054300
3445.9238,0.053575
3447.7875,0.051077
3449.6512,0.049960
3451.5148,0.051062
3453.3785,0.050595
3455.2422,0.049001
3457.1058,0.049557
3458.9695,0.050064
3460.8332,0.049085
3462.6969,0.047257
3464.5605,0.047640
3466.4242,0.047184
3468.2879,0.045733
3470.1515,0.045558
3472.0152,0.045653
3473.8789,0.044450
3475.7425,0.043712
3477.6062,0.043656
3479.4699,0.042842
3481.3335,0.042008
3483.1972,0.042402
3485.0609,0.042056
3486.9245,0.042177
3488.7882,0.041757
3490.6519,0.040057
3492.5156,0.038910
3494.3792,0.038804
3496.2429,0.038518
3498.1066,0.038031
3499.9702,0.037496
3501.8339,0.037287
3503.6976,0.037052
3505.5612,0.035306
3507.4249,0.034521
3509.2886,0.035163
3511.1522,0.034988
3513.0159,0.034621
3514.8796,0.033502
3516.7432,0.032265
3518.6069,0.032182
3520.4706,0.032581
3522.3343,0.031724
3524.1979,0.031533
3526.0616,0.031732
3527.9253,0.030777
3529.7889,0.029787
3531.6526,0.030092
3533.5163,0.029375
3535.3799,0.028619
3537.2436,0.028144
3539.1073,0.027334
3540.9709,0.027813
3542.8346,0.027363
3544.6983,0.025833
3546.5620,0.025621
3548.4256,0.026185
3550.2893,0.025333
3552.1530,0.025128
3554.0166,0.026109
3555.8803,0.025857
3557.7440,0.024485
3559.6076,0.022949
3561.4713,0.022501
3563.3350,0.021675
3565.1986,0.021637
3567.0623,0.020915
3568.9260,0.021180
3570.7896,0.022715
3572.6533,0.022874
3574.5170,0.021806
3576.3807,0.020841
3578.2443,0.020084
3580.1080,0.019392
3581.9717,0.020034
3583.8353,0.020463
3585.6990,0.019508
3587.5627,0.018566
3589.4263,0.018687
3591.2900,0.019370
3593.1537,0.018978
3595.0173,0.019242
3596.8810,0.019178
3598.7447,0.018855
3600.6084,0.017731
3602.4720,0.017618
3604.3357,0.017772
3606.1994,0.016763
3608.0630,0.016060
3609.9267,0.016623
3611.7904,0.016232
3613.6540,0.016221
3615.5177,0.017027
3617.3814,0.016006
3619.2450,0.015185
3621.1087,0.016007
3622.9724,0.016025
3624.8360,0.015298
3626.6997,0.014903
3628.5634,0.014452
3630.4271,0.015603
3632.2907,0.016656
3634.1544,0.016708
3636.0181,0.016583
3637.8817,0.016215
3639.7454,0.016287
3641.6091,0.016052
3643.4727,0.015434
3645.3364,0.014154
3647.2001,0.012120
3649.0637,0.010641
3650.9274,0.014285
3652.7911,0.016535
3654.6547,0.015947
3656.5184,0.015414
3658.3821,0.015482
3660.2458,0.015543
3662.1094,0.015601
3663.9731,0.015008
3665.8368,0.014798
3667.7004,0.014215
3669.5641,0.012778
3671.4278,0.011368
3673.2914,0.013298
3675.1551,0.014031
3677.0188,0.014213
3678.8824,0.015510
3680.7461,0.015238
3682.6098,0.014672
3684.4735,0.014904
3686.3371,0.014166
3688.2008,0.013639
3690.0645,0.014043
3691.9281,0.016067
3693.7918,0.017292
3695.6555,0.016269
3697.5191,0.014377
3699.3828,0.014496
3701.2465,0.014836
3703.1101,0.014916
3704.9738,0.015210
3706.8375,0.015053
3708.7011,0.014536
3710.5648,0.014570
3712.4285,0.015572
3714.2922,0.017068
3716.1558,0.016565
3718.0195,0.015427
3719.8832,0.015144
3721.7468,0.015461
3723.6105,0.015304
3725.4742,0.015315
3727.3378,0.015410
3729.2015,0.015495
3731.0652,0.015065
3732.9288,0.014575
3734.7925,0.013939
3736.6562,0.015232
3738.5199,0.017503
3740.3835,0.015753
3742.2472,0.013876
3744.1109,0.013788
3745.9745,0.014435
3747.8382,0.015527
3749.7019,0.015198
3751.5655,0.014413
3753.4292,0.015366
3755.2929,0.017126
3757.1565,0.017661
3759.0202,0.017142
3760.8839,0.016891
3762.7475,0.017233
3764.6112,0.017474
3766.4749,0.016925
3768.3386,0.016741
3770.2022,0.017519
3772.0659,0.018260
3773.9296,0.018547
3775.7932,0.018007
3777.6569,0.017610
3779.5206,0.017579
3781.3842,0.018012
3783.2479,0.018432
3785.1116,0.018524
3786.9752,0.018274
3788.8389,0.017913
3790.7026,0.017668
3792.5662,0.017574
3794.4299,0.016790
3796.2936,0.016382
3798.1573,0.016737
3800.0209,0.016783
3801.8846,0.016476
3803.7483,0.017662
3805.6119,0.018425
3807.4756,0.018431
3809.3393,0.018954
3811.2029,0.019202
3813.0666,0.017780
3814.9303,0.016850
3816.7939,0.016771
3818.6576,0.017309
3820.5213,0.018428
3822.3850,0.019299
3824.2486,0.019713
3826.1123,0.018163
3827.9760,0.017526
3829.8396,0.018216
3831.7033,0.017144
3833.5670,0.016244
3835.4306,0.016600
3837.2943,0.016792
3839.1580,0.018132
3841.0216,0.019086
3842.8853,0.019162
3844.7490,0.019342
3846.6126,0.018774
3848.4763,0.017716
3850.3400,0.016757
3852.2037,0.016877
3854.0673,0.017660
3855.9310,0.019928
3857.7947,0.019896
3859.6583,0.018416
3861.5220,0.017602
3863.3857,0.018123
3865.2493,0.019326
3867.1130,0.019691
3868.9767,0.018107
3870.8403,0.017971
3872.7040,0.018953
3874.5677,0.019490
3876.4314,0.019143
3878.2950,0.018802
3880.1587,0.018296
3882.0224,0.018646
3883.8860,0.019743
3885.7497,0.020046
3887.6134,0.020208
3889.4770,0.019832
3891.3407,0.019329
3893.2044,0.019991
3895.0680,0.020310
3896.9317,0.019362
3898.7954,0.018570
3900.6590,0.018444
3902.5227,0.018789
3904.3864,0.020151
3906.2501,0.021867
3908.1137,0.022044
3909.9774,0.020816
3911.8411,0.020301
3913.7047,0.020075
3915.5684,0.019620
3917.4321,0.019394
3919.2957,0.019919
3921.1594,0.020305
3923.0231,0.020244
3924.8867,0.020366
3926.7504,0.020845
3928.6141,0.020808
3930.4777,0.020567
3932.3414,0.020707
3934.2051,0.021672
3936.0688,0.021715
3937.9324,0.021051
3939.7961,0.020302
3941.6598,0.020349
3943.5234,0.020155
3945.3871,0.020084
3947.2508,0.020260
3949.1144,0.020513
3950.9781,0.021106
3952.8418,0.021512
3954.7054,0.020960
3956.5691,0.021604
3958.4328,0.022211
3960.2965,0.021523
3962.1601,0.020857
3964.0238,0.020942
3965.8875,0.020993
3967.7511,0.021200
3969.6148,0.020829
3971.4785,0.020823
3973.3421,0.021141
3975.2058,0.021638
3977.0695,0.021501
3978.9331,0.021545
3980.7968,0.021391
3982.6605,0.021391
3984.5241,0.021768
3986.3878,0.021484
3988.2515,0.021080
3990.1152,0.021522
3991.9788,0.021527
3993.8425,0.021870
3995.7062,0.021828
3997.5698,0.021637
3999.4335,0.021748
