Wavenumber,Intensity
650.4205,0.221246
652.2841,0.226216
654.1478,0.234915
656.0115,0.242898
657.8751,0.254428
659.7388,0.267936
661.6025,0.283184
663.4661,0.297643
665.3298,0.311166
667.1935,0.321351
669.0571,0.318472
670.9208,0.297337
672.7845,0.276255
674.6481,0.255534
676.5118,0.239991
678.3755,0.228094
680.2392,0.220762
682.1028,0.214265
683.9665,0.206356
685.8302,0.196902
687.6938,0.190443
689.5575,0.183648
691.4212,0.176446
693.2848,0.169822
695.1485,0.164387
697.0122,0.159393
698.8758,0.155517
700.7395,0.152148
702.6032,0.150093
704.4669,0.147958
706.3305,0.145583
708.1942,0.141226
710.0579,0.135362
711.9215,0.129243
713.7852,0.124487
715.6489,0.119943
717.5125,0.116029
719.3762,0.113419
721.2399,0.111839
723.1035,0.109707
724.9672,0.107150
726.8309,0.105058
728.6945,0.102978
730.5582,0.100567
732.4219,0.099037
734.2856,0.097893
736.1492,0.096513
738.0129,0.095693
739.8766,0.096049
741.7402,0.097816
743.6039,0.100011
745.4676,0.100891
747.3312,0.100829
749.1949,0.100051
751.0586,0.099278
752.9222,0.099089
754.7859,0.098937
756.6496,0.098589
758.5132,0.098274
760.3769,0.097956
762.2406,0.098091
764.1043,0.098647
765.9679,0.099019
767.8316,0.099016
769.6953,0.099224
771.5589,0.099753
773.4226,0.100747
775.2863,0.101663
777.1499,0.103117
779.0136,0.104856
780.8773,0.105998
782.7409,0.106646
784.6046,0.107013
786.4683,0.107599
788.3320,0.108763
790.1956,0.110281
792.0593,0.111688
793.9230,0.112529
795.7866,0.113677
797.6503,0.115075
799.5140,0.116750
801.3776,0.117776
803.2413,0.118196
805.1050,0.118563
806.9686,0.118827
808.8323,0.118224
810.6960,0.117624
812.5596,0.116923
814.4233,0.115843
816.2870,0.114744
818.1507,0.114108
820.0143,0.113580
821.8780,0.113223
823.7417,0.113328
825.6053,0.114481
827.4690,0.116631
829.3327,0.118332
831.1963,0.116353
833.0600,0.110881
834.9237,0.106028
836.7873,0.104320
838.6510,0.104558
840.5147,0.105259
842.3784,0.106314
844.2420,0.107542
846.1057,0.108825
847.9694,0.110249
849.8330,0.111618
851.6967,0.112921
853.5604,0.114349
855.4240,0.115889
857.2877,0.117355
859.1514,0.118654
861.0150,0.119611
862.8787,0.120854
864.7424,0.122271
866.6060,0.123753
868.4697,0.125315
870.3334,0.126958
872.1971,0.128643
874.0607,0.130668
875.9244,0.132881
877.7881,0.135136
879.6517,0.137173
881.5154,0.139212
883.3791,0.141324
885.2427,0.143401
887.1064,0.145426
888.9701,0.147660
890.8337,0.149690
892.6974,0.151748
894.5611,0.153787
896.4247,0.156086
898.2884,0.158693
900.1521,0.161635
902.0158,0.164788
903.8794,0.168201
905.7431,0.172029
907.6068,0.176477
909.4704,0.181516
911.3341,0.187307
913.1978,0.193295
915.0614,0.196999
916.9251,0.194199
918.7888,0.187040
920.6524,0.182031
922.5161,0.181053
924.3798,0.182414
926.2435,0.184821
928.1071,0.187313
929.9708,0.190081
931.8345,0.192841
933.6981,0.195611
935.5618,0.198381
937.4255,0.201020
939.2891,0.203248
941.1528,0.205401
943.0165,0.207670
944.8801,0.210116
946.7438,0.212541
948.6075,0.214984
950.4711,0.217601
952.3348,0.220503
954.1985,0.223286
956.0622,0.226317
957.9258,0.229394
959.7895,0.232451
961.6532,0.235633
963.5168,0.239336
965.3805,0.243123
967.2442,0.247219
969.1078,0.251624
970.9715,0.256421
972.8352,0.261679
974.6988,0.268128
976.5625,0.276746
978.4262,0.289066
980.2899,0.303642
982.1535,0.309058
984.0172,0.295877
985.8809,0.280219
987.7445,0.276017
989.6082,0.279003
991.4719,0.283346
993.3355,0.287749
995.1992,0.291842
997.0629,0.295716
998.9265,0.299319
1000.7902,0.302991
1002.6539,0.306410
1004.5175,0.309761
1006.3812,0.312792
1008.2449,0.315125
1010.1086,0.315768
1011.9722,0.314053
1013.8359,0.309323
1015.6996,0.302146
1017.5632,0.293112
1019.4269,0.282421
1021.2906,0.270396
1023.1542,0.258243
1025.0179,0.246687
1026.8816,0.236111
1028.7452,0.226503
1030.6089,0.217728
1032.4726,0.209506
1034.3362,0.202021
1036.1999,0.195156
1038.0636,0.188722
1039.9273,0.182551
1041.7909,0.176919
1043.6546,0.171677
1045.5183,0.166492
1047.3819,0.161005
1049.2456,0.154848
1051.1093,0.147725
1052.9729,0.140579
1054.8366,0.135095
1056.7003,0.131732
1058.5639,0.129841
1060.4276,0.128707
1062.2913,0.127693
1064.1550,0.126751
1066.0186,0.126083
1067.8823,0.125738
1069.7460,0.125589
1071.6096,0.125663
1073.4733,0.125820
1075.3370,0.125920
1077.2006,0.125823
1079.0643,0.125357
1080.9280,0.124479
1082.7916,0.123582
1084.6553,0.122804
1086.5190,0.122171
1088.3826,0.121900
1090.2463,0.122112
1092.1100,0.122760
1093.9737,0.123783
1095.8373,0.125119
1097.7010,0.126659
1099.5647,0.128429
1101.4283,0.130300
1103.2920,0.131827
1105.1557,0.132424
1107.0193,0.131303
1108.8830,0.128072
1110.7467,0.122829
1112.6103,0.116222
1114.4740,0.109340
1116.3377,0.103002
1118.2014,0.097636
1120.0650,0.093409
1121.9287,0.090312
1123.7924,0.088009
1125.6560,0.085887
1127.5197,0.083864
1129.3834,0.081864
1131.2470,0.079857
1133.1107,0.078049
1134.9744,0.076622
1136.8380,0.075492
1138.7017,0.074570
1140.5654,0.073902
1142.4290,0.073339
1144.2927,0.072876
1146.1564,0.072526
1148.0201,0.072234
1149.8837,0.071894
1151.7474,0.071424
1153.6111,0.070941
1155.4747,0.070523
1157.3384,0.070048
1159.2021,0.069585
1161.0657,0.069282
1162.9294,0.069053
1164.7931,0.069136
1166.6567,0.069768
1168.5204,0.070821
1170.3841,0.071969
1172.2477,0.072603
1174.1114,0.072029
1175.9751,0.069932
1177.8388,0.067169
1179.7024,0.065008
1181.5661,0.063774
1183.4298,0.063336
1185.2934,0.063393
1187.1571,0.063593
1189.0208,0.063754
1190.8844,0.063840
1192.7481,0.063988
1194.6118,0.064193
1196.4754,0.064452
1198.3391,0.064856
1200.2028,0.065341
1202.0665,0.065783
1203.9301,0.066212
1205.7938,0.066731
1207.6575,0.067223
1209.5211,0.067675
1211.3848,0.068325
1213.2485,0.069046
1215.1121,0.069702
1216.9758,0.070361
1218.8395,0.070936
1220.7031,0.071481
1222.5668,0.072091
1224.4305,0.072655
1226.2941,0.073066
1228.1578,0.073402
1230.0215,0.073677
1231.8852,0.073801
1233.7488,0.073906
1235.6125,0.074045
1237.4762,0.074137
1239.3398,0.074221
1241.2035,0.074347
1243.0672,0.074440
1244.9308,0.074482
1246.7945,0.074610
1248.6582,0.074758
1250.5218,0.074846
1252.3855,0.074929
1254.2492,0.075054
1256.1129,0.075295
1257.9765,0.075629
1259.8402,0.075985
1261.7039,0.076319
1263.5675,0.076573
1265.4312,0.076831
1267.2949,0.076937
1269.1585,0.076854
1271.0222,0.076876
1272.8859,0.076968
1274.7495,0.077135
1276.6132,0.077607
1278.4769,0.078291
1280.3405,0.079077
1282.2042,0.079980
1284.0679,0.080885
1285.9316,0.081894
1287.7952,0.083192
1289.6589,0.084684
1291.5226,0.086356
1293.3862,0.088284
1295.2499,0.090464
1297.1136,0.093033
1298.9772,0.096125
1300.8409,0.099764
1302.7046,0.103647
1304.5682,0.106395
1306.4319,0.106002
1308.2956,0.100589
1310.1592,0.090615
1312.0229,0.080366
1313.8866,0.073706
1315.7503,0.071097
1317.6139,0.070962
1319.4776,0.072026
1321.3413,0.073199
1323.2049,0.074152
1325.0686,0.075339
1326.9323,0.076677
1328.7959,0.078029
1330.6596,0.079184
1332.5233,0.079938
1334.3869,0.080269
1336.2506,0.080475
1338.1143,0.081416
1339.9780,0.083310
1341.8416,0.083976
1343.7053,0.083551
1345.5690,0.083653
1347.4326,0.084301
1349.2963,0.085129
1351.1600,0.086035
1353.0236,0.087063
1354.8873,0.088509
1356.7510,0.089784
1358.6146,0.090553
1360.4783,0.092003
1362.3420,0.095537
1364.2056,0.098616
1366.0693,0.099493
1367.9330,0.101222
1369.7967,0.103484
1371.6603,0.104780
1373.5240,0.107717
1375.3877,0.111594
1377.2513,0.113356
1379.1150,0.115660
1380.9787,0.118998
1382.8423,0.121823
1384.7060,0.124765
1386.5697,0.129623
1388.4333,0.135379
1390.2970,0.137012
1392.1607,0.137108
1394.0244,0.137715
1395.8880,0.136375
1397.7517,0.132197
1399.6154,0.127393
1401.4790,0.122082
1403.3427,0.117202
1405.2064,0.111029
1407.0700,0.101809
1408.9337,0.092077
1410.7974,0.083333
1412.6610,0.077002
1414.5247,0.073340
1416.3884,0.072443
1418.2520,0.075579
1420.1157,0.081405
1421.9794,0.082560
1423.8431,0.081211
1425.7067,0.077220
1427.5704,0.072125
1429.4341,0.069407
1431.2977,0.068978
1433.1614,0.068760
1435.0251,0.069716
1436.8887,0.073786
1438.7524,0.075836
1440.6161,0.075205
1442.4797,0.075779
1444.3434,0.076329
1446.2071,0.076781
1448.0707,0.077736
1449.9344,0.077133
1451.7981,0.074625
1453.6618,0.071970
1455.5254,0.071149
1457.3891,0.076157
1459.2528,0.077746
1461.1164,0.074614
1462.9801,0.073451
1464.8438,0.074670
1466.7074,0.074586
1468.5711,0.071893
1470.4348,0.070095
1472.2984,0.071390
1474.1621,0.073681
1476.0258,0.073508
1477.8895,0.073160
1479.7531,0.073027
1481.6168,0.074057
1483.4805,0.075027
1485.3441,0.075292
1487.2078,0.077086
1489.0715,0.081593
1490.9351,0.086133
1492.7988,0.085643
1494.6625,0.085173
1496.5261,0.089098
1498.3898,0.093702
1500.2535,0.094251
1502.1171,0.093047
1503.9808,0.091762
1505.8445,0.095116
1507.7082,0.108330
1509.5718,0.107214
1511.4355,0.104493
1513.2992,0.104252
1515.1628,0.104514
1517.0265,0.105920
1518.8902,0.106180
1520.7538,0.107091
1522.6175,0.110550
1524.4812,0.109819
1526.3448,0.110162
1528.2085,0.110950
1530.0722,0.109562
1531.9359,0.109334
1533.7995,0.111570
1535.6632,0.110539
1537.5269,0.107679
1539.3905,0.109667
1541.2542,0.116393
1543.1179,0.115468
1544.9815,0.114390
1546.8452,0.112653
1548.7089,0.111206
1550.5725,0.111236
1552.4362,0.110281
1554.2999,0.108636
1556.1635,0.107572
1558.0272,0.110155
1559.8909,0.120836
1561.7546,0.115759
1563.6182,0.112051
1565.4819,0.111758
1567.3456,0.111931
1569.2092,0.113545
1571.0729,0.115620
1572.9366,0.114260
1574.8002,0.114833
1576.6639,0.119876
1578.5276,0.121346
1580.3912,0.120293
1582.2549,0.121097
1584.1186,0.122303
1585.9822,0.123191
1587.8459,0.123950
1589.7096,0.124586
1591.5733,0.125040
1593.4369,0.125483
1595.3006,0.125812
1597.1643,0.125608
1599.0279,0.125145
1600.8916,0.124850
1602.7553,0.124821
1604.6189,0.124814
1606.4826,0.124929
1608.3463,0.125626
1610.2099,0.126205
1612.0736,0.125689
1613.9373,0.124836
1615.8010,0.125684
1617.6646,0.126843
1619.5283,0.123791
1621.3920,0.121239
1623.2556,0.120725
1625.1193,0.119134
1626.9830,0.115950
1628.8466,0.112211
1630.7103,0.107310
1632.5740,0.102579
1634.4376,0.099405
1636.3013,0.097258
1638.1650,0.093828
1640.0286,0.090709
1641.8923,0.088647
1643.7560,0.087265
1645.6197,0.087481
1647.4833,0.089439
1649.3470,0.088571
1651.2107,0.087122
1653.0743,0.091060
1654.9380,0.094785
1656.8017,0.090525
1658.6653,0.087964
1660.5290,0.086341
1662.3927,0.084742
1664.2563,0.082564
1666.1200,0.079503
1667.9837,0.076939
1669.8474,0.075357
1671.7110,0.073844
1673.5747,0.072471
1675.4384,0.072273
1677.3020,0.072304
1679.1657,0.071385
1681.0294,0.071197
1682.8930,0.071621
1684.7567,0.073832
1686.6204,0.073858
1688.4840,0.071201
1690.3477,0.068857
1692.2114,0.065712
1694.0750,0.062348
1695.9387,0.058531
1697.8024,0.054899
1699.6661,0.051688
1701.5297,0.048164
1703.3934,0.044185
1705.2571,0.039830
1707.1207,0.034985
1708.9844,0.031145
1710.8481,0.028284
1712.7117,0.025988
1714.5754,0.023851
1716.4391,0.022388
1718.3027,0.022121
1720.1664,0.022319
1722.0301,0.021339
1723.8937,0.020361
1725.7574,0.019394
1727.6211,0.018257
1729.4848,0.017069
1731.3484,0.016127
1733.2121,0.015340
1735.0758,0.015891
1736.9394,0.015834
1738.8031,0.014912
1740.6668,0.015124
1742.5304,0.015089
1744.3941,0.014790
1746.2578,0.014619
1748.1214,0.014156
1749.9851,0.014135
1751.8488,0.014421
1753.7125,0.014284
1755.5761,0.013588
1757.4398,0.013556
1759.3035,0.013752
1761.1671,0.013483
1763.0308,0.013763
1764.8945,0.013601
1766.7581,0.013074
1768.6218,0.013073
1770.4855,0.012913
1772.3491,0.012839
1774.2128,0.013741
1776.0765,0.013442
1777.9401,0.013189
1779.8038,0.013170
1781.6675,0.013514
1783.5312,0.013478
1785.3948,0.013397
1787.2585,0.013653
1789.1222,0.013442
1790.9858,0.013093
1792.8495,0.013576
1794.7132,0.014032
1796.5768,0.013772
1798.4405,0.013660
1800.3042,0.013606
1802.1678,0.014017
1804.0315,0.014338
1805.8952,0.014206
1807.7589,0.014141
1809.6225,0.014208
1811.4862,0.014241
1813.3499,0.014297
1815.2135,0.014099
1817.0772,0.014012
1818.9409,0.014183
1820.8045,0.014424
1822.6682,0.014427
1824.5319,0.014181
1826.3955,0.014224
1828.2592,0.013981
1830.1229,0.013806
1831.9865,0.014122
1833.8502,0.013860
1835.7139,0.013789
1837.5776,0.013759
1839.4412,0.013841
1841.3049,0.013602
1843.1686,0.013300
1845.0322,0.013657
1846.8959,0.013803
1848.7596,0.013477
1850.6232,0.013612
1852.4869,0.013599
1854.3506,0.013720
1856.2142,0.013873
1858.0779,0.013988
1859.9416,0.013942
1861.8052,0.013947
1863.6689,0.013818
1865.5326,0.013835
1867.3963,0.013822
1869.2599,0.013583
1871.1236,0.013424
1872.9873,0.013472
1874.8509,0.013474
1876.7146,0.013413
1878.5783,0.013352
1880.4419,0.013480
1882.3056,0.013691
1884.1693,0.013714
1886.0329,0.013376
1887.8966,0.013263
1889.7603,0.013244
1891.6240,0.013300
1893.4876,0.013147
1895.3513,0.013063
1897.2150,0.013189
1899.0786,0.013560
1900.9423,0.013369
1902.8060,0.012854
1904.6696,0.012839
1906.5333,0.013006
1908.3970,0.012985
1910.2606,0.013142
1912.1243,0.012969
1913.9880,0.012906
1915.8516,0.013052
1917.7153,0.012612
1919.5790,0.012587
1921.4427,0.012793
1923.3063,0.012427
1925.1700,0.012033
1927.0337,0.011932
1928.8973,0.012202
1930.7610,0.012527
1932.6247,0.013080
1934.4883,0.012742
1936.3520,0.011759
1938.2157,0.011077
1940.0793,0.010790
1941.9430,0.010739
1943.8067,0.010666
1945.6704,0.009779
1947.5340,0.009673
1949.3977,0.009503
1951.2614,0.009309
1953.1250,0.009725
1954.9887,0.008714
1956.8524,0.006723
1958.7160,0.006398
1960.5797,0.006982
1962.4434,0.006945
1964.3070,0.005399
1966.1707,0.004401
1968.0344,0.004829
1969.8980,0.004320
1971.7617,0.002430
1973.6254,0.002131
1975.4891,0.002861
1977.3527,0.003157
1979.2164,0.003452
1981.0801,0.003588
1982.9437,0.004029
1984.8074,0.004924
1986.6711,0.004878
1988.5347,0.004829
1990.3984,0.005296
1992.2621,0.005522
1994.1257,0.005883
1995.9894,0.006098
1997.8531,0.005951
1999.7167,0.006074
2001.5804,0.005727
2003.4441,0.005006
2005.3078,0.004060
2007.1714,0.003008
2009.0351,0.002697
2010.8988,0.002746
2012.7624,0.002545
2014.6261,0.001431
2016.4898,-0.000191
2018.3534,0.000942
2020.2171,0.002804
2022.0808,0.002576
2023.9444,0.002028
2025.8081,0.001420
2027.6718,0.001213
2029.5355,0.002041
2031.3991,0.002017
2033.2628,0.001577
2035.1265,0.001236
2036.9901,0.001784
2038.8538,0.004152
2040.7175,0.005667
2042.5811,0.004457
2044.4448,0.004326
2046.3085,0.005933
2048.1721,0.007060
2050.0358,0.008397
2051.8995,0.009346
2053.7631,0.009245
2055.6268,0.009396
2057.4905,0.009207
2059.3542,0.010027
2061.2178,0.011149
2063.0815,0.011252
2064.9452,0.011747
2066.8088,0.011954
2068.6725,0.011507
2070.5362,0.011733
2072.3998,0.012577
2074.2635,0.012686
2076.1272,0.012334
2077.9908,0.012740
2079.8545,0.013296
2081.7182,0.013497
2083.5819,0.013746
2085.4455,0.014032
2087.3092,0.014045
2089.1729,0.014159
2091.0365,0.014510
2092.9002,0.014464
2094.7639,0.013920
2096.6275,0.013955
2098.4912,0.014229
2100.3549,0.014136
2102.2185,0.014039
2104.0822,0.014548
2105.9459,0.015061
2107.8095,0.015050
2109.6732,0.014867
2111.5369,0.014901
2113.4006,0.015156
2115.2642,0.015434
2117.1279,0.015559
2118.9916,0.015633
2120.8552,0.015512
2122.7189,0.015556
2124.5826,0.015298
2126.4462,0.014381
2128.3099,0.013358
2130.1736,0.012775
2132.0372,0.012417
2133.9009,0.012205
2135.7646,0.011786
2137.6282,0.011012
2139.4919,0.010377
2141.3556,0.010423
2143.2193,0.010298
2145.0829,0.009048
2146.9466,0.007938
2148.8103,0.008592
2150.6739,0.009233
2152.5376,0.007015
2154.4013,0.003283
2156.2649,0.000111
2158.1286,-0.001530
2159.9923,0.001099
2161.8559,0.004540
2163.7196,0.005395
2165.5833,0.005524
2167.4470,0.006087
2169.3106,0.006578
2171.1743,0.006702
2173.0380,0.006615
2174.9016,0.007114
2176.7653,0.007628
2178.6290,0.008067
2180.4926,0.007708
2182.3563,0.007926
2184.2200,0.009557
2186.0836,0.010117
2187.9473,0.009332
2189.8110,0.009527
2191.6746,0.010610
2193.5383,0.010643
2195.4020,0.009933
2197.2657,0.010436
2199.1293,0.011310
2200.9930,0.012075
2202.8567,0.012417
2204.7203,0.012056
2206.5840,0.012557
2208.4477,0.012779
2210.3113,0.011718
2212.1750,0.011407
2214.0387,0.012162
2215.9023,0.013528
2217.7660,0.014214
2219.6297,0.014156
2221.4934,0.013339
2223.3570,0.012851
2225.2207,0.012903
2227.0844,0.014090
2228.9480,0.015353
2230.8117,0.015156
2232.6754,0.015349
2234.5390,0.015877
2236.4027,0.015921
2238.2664,0.015827
2240.1300,0.015833
2241.9937,0.016761
2243.8574,0.017214
2245.7210,0.016658
2247.5847,0.016404
2249.4484,0.016774
2251.3121,0.017617
2253.1757,0.017591
2255.0394,0.016850
2256.9031,0.017659
2258.7667,0.018661
2260.6304,0.018476
2262.4941,0.018646
2264.3577,0.019112
2266.2214,0.019273
2268.0851,0.019433
2269.9487,0.019125
2271.8124,0.019551
2273.6761,0.020321
2275.5397,0.020395
2277.4034,0.020226
2279.2671,0.020581
2281.1308,0.021346
2282.9944,0.022007
2284.8581,0.022217
2286.7218,0.022086
2288.5854,0.022004
2290.4491,0.021991
2292.3128,0.021858
2294.1764,0.022071
2296.0401,0.022312
2297.9038,0.022445
2299.7674,0.022478
2301.6311,0.022484
2303.4948,0.022364
2305.3585,0.022299
2307.2221,0.022753
2309.0858,0.023042
2310.9495,0.022678
2312.8131,0.022634
2314.6768,0.022998
2316.5405,0.023276
2318.4041,0.023210
2320.2678,0.023290
2322.1315,0.023844
2323.9951,0.023869
2325.8588,0.023394
2327.7225,0.022823
2329.5861,0.022433
2331.4498,0.022423
2333.3135,0.022581
2335.1772,0.022760
2337.0408,0.022747
2338.9045,0.022859
2340.7682,0.023123
2342.6318,0.023266
2344.4955,0.023045
2346.3592,0.023097
2348.2228,0.023078
2350.0865,0.022753
2351.9502,0.022419
2353.8138,0.022241
2355.6775,0.022272
2357.5412,0.022214
2359.4049,0.022366
2361.2685,0.022828
2363.1322,0.022735
2364.9959,0.022423
2366.8595,0.022289
2368.7232,0.022741
2370.5869,0.023396
2372.4505,0.023377
2374.3142,0.023131
2376.1779,0.023269
2378.0415,0.023405
2379.9052,0.023416
2381.7689,0.023514
2383.6325,0.023529
2385.4962,0.023274
2387.3599,0.023050
2389.2236,0.023109
2391.0872,0.023448
2392.9509,0.023588
2394.8146,0.023609
2396.6782,0.023616
2398.5419,0.023522
2400.4056,0.023375
2402.2692,0.023509
2404.1329,0.023766
2405.9966,0.024075
2407.8602,0.023990
2409.7239,0.023812
2411.5876,0.024031
2413.4512,0.024044
2415.3149,0.023810
2417.1786,0.023850
2419.0423,0.024076
2420.9059,0.024084
2422.7696,0.024020
2424.6333,0.024385
2426.4969,0.024743
2428.3606,0.024486
2430.2243,0.024081
2432.0879,0.024238
2433.9516,0.024530
2435.8153,0.024777
2437.6789,0.024645
2439.5426,0.024150
2441.4063,0.024131
2443.2700,0.024735
2445.1336,0.024768
2446.9973,0.024541
2448.8610,0.024914
2450.7246,0.025266
2452.5883,0.025400
2454.4520,0.025305
2456.3156,0.024854
2458.1793,0.024489
2460.0430,0.024497
2461.9066,0.024595
2463.7703,0.024556
2465.6340,0.024620
2467.4976,0.024539
2469.3613,0.024711
2471.2250,0.025007
2473.0887,0.024926
2474.9523,0.024848
2476.8160,0.024775
2478.6797,0.024770
2480.5433,0.025122
2482.4070,0.025169
2484.2707,0.024906
2486.1343,0.025161
2487.9980,0.025506
2489.8617,0.025665
2491.7253,0.025470
2493.5890,0.025180
2495.4527,0.025721
2497.3164,0.026351
2499.1800,0.026376
2501.0437,0.026258
2502.9074,0.026126
2504.7710,0.025667
2506.6347,0.025660
2508.4984,0.026261
2510.3620,0.026521
2512.2257,0.026368
2514.0894,0.026557
2515.9530,0.026722
2517.8167,0.026691
2519.6804,0.026917
2521.5440,0.027079
2523.4077,0.026761
2525.2714,0.026560
2527.1351,0.026561
2528.9987,0.026917
2530.8624,0.027252
2532.7261,0.027458
2534.5897,0.027348
2536.4534,0.027274
2538.3171,0.027381
2540.1807,0.027733
2542.0444,0.027858
2543.9081,0.027188
2545.7717,0.026668
2547.6354,0.026763
2549.4991,0.027064
2551.3627,0.027537
2553.2264,0.027760
2555.0901,0.027934
2556.9538,0.027994
2558.8174,0.027595
2560.6811,0.027538
2562.5448,0.028354
2564.4084,0.028543
2566.2721,0.028222
2568.1358,0.027982
2569.9994,0.027911
2571.8631,0.028130
2573.7268,0.028478
2575.5904,0.028627
2577.4541,0.029094
2579.3178,0.029278
2581.1815,0.029584
2583.0451,0.029789
2584.9088,0.029526
2586.7725,0.029227
2588.6361,0.029425
2590.4998,0.029581
2592.3635,0.029833
2594.2271,0.030015
2596.0908,0.030107
2597.9545,0.030559
2599.8181,0.030841
2601.6818,0.030740
2603.5455,0.030758
2605.4091,0.031049
2607.2728,0.031441
2609.1365,0.031370
2611.0002,0.031223
2612.8638,0.031143
2614.7275,0.031202
2616.5912,0.031453
2618.4548,0.031696
2620.3185,0.031960
2622.1822,0.032096
2624.0458,0.032174
2625.9095,0.032491
2627.7732,0.032815
2629.6368,0.033102
2631.5005,0.033319
2633.3642,0.033309
2635.2279,0.033320
2637.0915,0.033675
2638.9552,0.033873
2640.8189,0.033983
2642.6825,0.034235
2644.5462,0.034427
2646.4099,0.034471
2648.2735,0.034619
2650.1372,0.034703
2652.0009,0.034793
2653.8645,0.034934
2655.7282,0.035016
2657.5919,0.035225
2659.4555,0.035373
2661.3192,0.035125
2663.1829,0.035045
2665.0466,0.035294
2666.9102,0.035556
2668.7739,0.035593
2670.6376,0.035525
2672.5012,0.035371
2674.3649,0.035571
2676.2286,0.035907
2678.0922,0.036104
2679.9559,0.036120
2681.8196,0.036275
2683.6832,0.036607
2685.5469,0.036708
2687.4106,0.036840
2689.2742,0.037059
2691.1379,0.037177
2693.0016,0.037405
2694.8653,0.037502
2696.7289,0.037526
2698.5926,0.037583
2700.4563,0.037806
2702.3199,0.038195
2704.1836,0.038509
2706.0473,0.038642
2707.9109,0.038848
2709.7746,0.039088
2711.6383,0.039237
2713.5019,0.039298
2715.3656,0.039569
2717.2293,0.039810
2719.0930,0.040028
2720.9566,0.040331
2722.8203,0.040611
2724.6840,0.040699
2726.5476,0.040994
2728.4113,0.041487
2730.2750,0.041715
2732.1386,0.041746
2734.0023,0.041997
2735.8660,0.042365
2737.7296,0.042836
2739.5933,0.043006
2741.4570,0.043205
2743.3206,0.043463
2745.1843,0.043568
2747.0480,0.044080
2748.9117,0.044765
2750.7753,0.045059
2752.6390,0.045396
2754.5027,0.045613
2756.3663,0.045636
2758.2300,0.045969
2760.0937,0.046416
2761.9573,0.046631
2763.8210,0.046930
2765.6847,0.047308
2767.5483,0.047803
2769.4120,0.048215
2771.2757,0.048523
2773.1394,0.048776
2775.0030,0.049268
2776.8667,0.049921
2778.7304,0.050185
2780.5940,0.050158
2782.4577,0.050470
2784.3214,0.050630
2786.1850,0.050543
2788.0487,0.050436
2789.9124,0.050335
2791.7760,0.050063
2793.6397,0.050000
2795.5034,0.049819
2797.3670,0.049493
2799.2307,0.049491
2801.0944,0.049499
2802.9581,0.049370
2804.8217,0.049383
2806.6854,0.049089
2808.5491,0.048657
2810.4127,0.048533
2812.2764,0.048838
2814.1401,0.048928
2816.0037,0.048912
2817.8674,0.048842
2819.7311,0.049089
2821.5947,0.049547
2823.4584,0.049664
2825.3221,0.049798
2827.1857,0.049836
2829.0494,0.049399
2830.9131,0.048928
2832.7768,0.048916
2834.6404,0.049335
2836.5041,0.049666
2838.3678,0.049951
2840.2314,0.050406
2842.0951,0.051001
2843.9588,0.051261
2845.8224,0.051767
2847.6861,0.052497
2849.5498,0.053091
2851.4134,0.053409
2853.2771,0.053870
2855.1408,0.054436
2857.0045,0.054759
2858.8681,0.054970
2860.7318,0.055365
2862.5955,0.056065
2864.4591,0.056615
2866.3228,0.056599
2868.1865,0.056684
2870.0501,0.056902
2871.9138,0.057142
2873.7775,0.057407
2875.6411,0.057431
2877.5048,0.057701
2879.3685,0.058071
2881.2321,0.058305
2883.0958,0.058483
2884.9595,0.058568
2886.8232,0.058674
2888.6868,0.058936
2890.5505,0.059263
2892.4142,0.059596
2894.2778,0.059617
2896.1415,0.059910
2898.0052,0.060675
2899.8688,0.061000
2901.7325,0.061215
2903.5962,0.061288
2905.4598,0.061468
2907.3235,0.061749
2909.1872,0.062179
2911.0509,0.062724
2912.9145,0.063440
2914.7782,0.064025
2916.6419,0.064843
2918.5055,0.065554
2920.3692,0.066040
2922.2329,0.066306
2924.0965,0.066494
2925.9602,0.066839
2927.8239,0.067172
2929.6875,0.067570
2931.5512,0.067953
2933.4149,0.067809
2935.2785,0.067743
2937.1422,0.067688
2939.0059,0.067528
2940.8696,0.067362
2942.7332,0.067322
2944.5969,0.067484
2946.4606,0.067761
2948.3242,0.067592
2950.1879,0.067801
2952.0516,0.068110
2953.9152,0.068554
2955.7789,0.068836
2957.6426,0.068838
2959.5062,0.068780
2961.3699,0.069151
2963.2336,0.069505
2965.0972,0.069734
2966.9609,0.069897
2968.8246,0.069870
2970.6883,0.069641
2972.5519,0.069541
2974.4156,0.069538
2976.2793,0.069724
2978.1429,0.069850
2980.0066,0.070184
2981.8703,0.070103
2983.7339,0.069592
2985.5976,0.069320
2987.4613,0.069445
2989.3249,0.069550
2991.1886,0.069845
2993.0523,0.070435
2994.9160,0.071467
2996.7796,0.071868
2998.6433,0.071713
3000.5070,0.071870
3002.3706,0.072258
3004.2343,0.072802
3006.0980,0.073562
3007.9616,0.073899
3009.8253,0.074240
3011.6890,0.074568
3013.5526,0.075184
3015.4163,0.075891
3017.2800,0.076505
3019.1436,0.076766
3021.0073,0.076809
3022.8710,0.076551
3024.7347,0.076858
3026.5983,0.077532
3028.4620,0.077760
3030.3257,0.077739
3032.1893,0.078107
3034.0530,0.078945
3035.9167,0.079425
3037.7803,0.079158
3039.6440,0.079086
3041.5077,0.079223
3043.3713,0.079759
3045.2350,0.080311
3047.0987,0.080847
3048.9624,0.080770
3050.8260,0.080566
3052.6897,0.080795
3054.5534,0.081057
3056.4170,0.080985
3058.2807,0.081413
3060.1444,0.081758
3062.0080,0.081699
3063.8717,0.081583
3065.7354,0.082302
3067.5990,0.082611
3069.4627,0.082269
3071.3264,0.081864
3073.1900,0.081701
3075.0537,0.081227
3076.9174,0.080961
3078.7811,0.081715
3080.6447,0.082050
3082.5084,0.081356
3084.3721,0.080794
3086.2357,0.080594
3088.0994,0.080657
3089.9631,0.080229
3091.8267,0.080012
3093.6904,0.079904
3095.5541,0.079261
3097.4177,0.078322
3099.2814,0.077879
3101.1451,0.077627
3103.0087,0.077443
3104.8724,0.076685
3106.7361,0.076099
3108.5998,0.076098
3110.4634,0.076336
3112.3271,0.076093
3114.1908,0.075376
3116.0544,0.075018
3117.9181,0.074948
3119.7818,0.074518
3121.6454,0.074427
3123.5091,0.074283
3125.3728,0.073226
3127.2364,0.072811
3129.1001,0.072864
3130.9638,0.072656
3132.8275,0.072994
3134.6911,0.072811
3136.5548,0.072180
3138.4185,0.071829
3140.2821,0.072143
3142.1458,0.072099
3144.0095,0.071574
3145.8731,0.071693
3147.7368,0.071972
3149.6005,0.071494
3151.4641,0.071346
3153.3278,0.071526
3155.1915,0.071635
3157.0551,0.071308
3158.9188,0.071372
3160.7825,0.071180
3162.6462,0.071083
3164.5098,0.071289
3166.3735,0.071236
3168.2372,0.070327
3170.1008,0.070493
3171.9645,0.070674
3173.8282,0.070816
3175.6918,0.070404
3177.5555,0.070481
3179.4192,0.070660
3181.2828,0.070560
3183.1465,0.069929
3185.0102,0.070002
3186.8739,0.070394
3188.7375,0.070836
3190.6012,0.070228
3192.4649,0.070071
3194.3285,0.070681
3196.1922,0.071258
3198.0559,0.070979
3199.9195,0.071114
3201.7832,0.071208
3203.6469,0.071056
3205.5105,0.070750
3207.3742,0.070693
3209.2379,0.071189
3211.1015,0.071842
3212.9652,0.071845
3214.8289,0.072073
3216.6926,0.072003
3218.5562,0.071744
3220.4199,0.072184
3222.2836,0.072933
3224.1472,0.072534
3226.0109,0.072637
3227.8746,0.072740
3229.7382,0.072173
3231.6019,0.072113
3233.4656,0.073358
3235.3292,0.073800
3237.1929,0.073902
3239.0566,0.074631
3240.9202,0.074954
3242.7839,0.074837
3244.6476,0.074959
3246.5113,0.074941
3248.3749,0.075429
3250.2386,0.075894
3252.1023,0.076398
3253.9659,0.076052
3255.8296,0.076717
3257.6933,0.077469
3259.5569,0.077889
3261.4206,0.078073
3263.2843,0.078469
3265.1479,0.078521
3267.0116,0.078370
3268.8753,0.078255
3270.7390,0.078555
3272.6026,0.078401
3274.4663,0.078675
3276.3300,0.078354
3278.1936,0.077965
3280.0573,0.077788
3281.9210,0.077317
3283.7846,0.077151
3285.6483,0.077559
3287.5120,0.076727
3289.3756,0.075922
3291.2393,0.076259
3293.1030,0.076136
3294.9666,0.074919
3296.8303,0.074962
3298.6940,0.074301
3300.5577,0.073132
3302.4213,0.072183
3304.2850,0.071423
3306.1487,0.070694
3308.0123,0.070544
3309.8760,0.070169
3311.7397,0.069715
3313.6033,0.069543
3315.4670,0.069439
3317.3307,0.068397
3319.1943,0.067783
3321.0580,0.067988
3322.9217,0.068574
3324.7854,0.068711
3326.6490,0.068462
3328.5127,0.067518
3330.3764,0.066969
3332.2400,0.067143
3334.1037,0.067881
3335.9674,0.067006
3337.8310,0.065835
3339.6947,0.065488
3341.5584,0.065106
3343.4220,0.064001
3345.2857,0.063643
3347.1494,0.062916
3349.0130,0.061925
3350.8767,0.060580
3352.7404,0.060281
3354.6041,0.059540
3356.4677,0.058493
3358.3314,0.057967
3360.1951,0.057624
3362.0587,0.057021
3363.9224,0.056764
3365.7861,0.055944
3367.6497,0.055453
3369.5134,0.054689
3371.3771,0.055141
3373.2407,0.055439
3375.1044,0.055069
3376.9681,0.053732
3378.8317,0.053690
3380.6954,0.054154
3382.5591,0.054485
3384.4228,0.054334
3386.2864,0.053860
3388.1501,0.053443
3390.0138,0.053349
3391.8774,0.053647
3393.7411,0.054520
3395.6048,0.054437
3397.4684,0.054008
3399.3321,0.053527
3401.1958,0.053699
3403.0594,0.053862
3404.9231,0.052787
3406.7868,0.051340
3408.6505,0.050892
3410.5141,0.049717
3412.3778,0.048619
3414.2415,0.047721
3416.1051,0.047874
3417.9688,0.047659
3419.8325,0.046121
3421.6961,0.045738
3423.5598,0.045391
3425.4235,0.043673
3427.2871,0.042694
3429.1508,0.042498
3431.0145,0.041045
3432.8781,0.039610
3434.7418,0.039057
3436.6055,0.039251
3438.4692,0.038717
3440.3328,0.036956
3442.1965,0.036906
3444.0602,0.037013
3445.9238,0.036343
3447.7875,0.035501
3449.6512,0.035537
3451.5148,0.035566
3453.3785,0.035591
3455.2422,0.034512
3457.1058,0.033787
3458.9695,0.033497
3460.8332,0.033156
3462.6969,0.032557
3464.5605,0.031999
3466.4242,0.031403
3468.2879,0.032084
3470.1515,0.031469
3472.0152,0.030628
3473.8789,0.030222
3475.7425,0.030587
3477.6062,0.030641
3479.4699,0.030799
3481.3335,0.029969
3483.1972,0.028403
3485.0609,0.028414
3486.9245,0.029376
3488.7882,0.028410
3490.6519,0.027942
3492.5156,0.028307
3494.3792,0.027406
3496.2429,0.025893
3498.1066,0.026833
3499.9702,0.028208
3501.8339,0.027857
3503.6976,0.026491
3505.5612,0.026492
3507.4249,0.025987
3509.2886,0.024846
3511.1522,0.024290
3513.0159,0.025393
3514.8796,0.025171
3516.7432,0.024013
3518.6069,0.023201
3520.4706,0.023134
3522.3343,0.023818
3524.1979,0.023013
3526.0616,0.022364
3527.9253,0.023392
3529.7889,0.022686
3531.6526,0.021752
3533.5163,0.021408
3535.3799,0.021511
3537.2436,0.020730
3539.1073,0.020596
3540.9709,0.021934
3542.8346,0.021672
3544.6983,0.019229
3546.5620,0.018968
3548.4256,0.019836
3550.2893,0.020397
3552.1530,0.020635
3554.0166,0.020199
3555.8803,0.020902
3557.7440,0.019169
3559.6076,0.017434
3561.4713,0.018225
3563.3350,0.018517
3565.1986,0.017911
3567.0623,0.017619
3568.9260,0.018595
3570.7896,0.019407
3572.6533,0.018495
3574.5170,0.017532
3576.3807,0.017663
3578.2443,0.017520
3580.1080,0.017851
3581.9717,0.017929
3583.8353,0.018009
3585.6990,0.017388
3587.5627,0.016209
3589.4263,0.017669
3591.2900,0.018584
3593.1537,0.017797
3595.0173,0.016998
3596.8810,0.016741
3598.7447,0.017029
3600.6084,0.017332
3602.4720,0.017151
3604.3357,0.016013
3606.1994,0.015670
3608.0630,0.015409
3609.9267,0.015778
3611.7904,0.016222
3613.6540,0.016238
3615.5177,0.015731
3617.3814,0.015042
3619.2450,0.015238
3621.1087,0.016621
3622.9724,0.017023
3624.8360,0.016357
3626.6997,0.015205
3628.5634,0.014808
3630.4271,0.015592
3632.2907,0.017865
3634.1544,0.016969
3636.0181,0.016409
3637.8817,0.016801
3639.7454,0.017154
3641.6091,0.016358
3643.4727,0.015622
3645.3364,0.015103
3647.2001,0.014372
3649.0637,0.013821
3650.9274,0.014607
3652.7911,0.017532
3654.6547,0.018534
3656.5184,0.018101
3658.3821,0.019078
3660.2458,0.019749
3662.1094,0.019962
3663.9731,0.020385
3665.8368,0.020853
3667.7004,0.022162
3669.5641,0.025370
3671.4278,0.033192
3673.2914,0.040626
3675.1551,0.038907
3677.0188,0.031307
3678.8824,0.020718
3680.7461,0.015172
3682.6098,0.011909
3684.4735,0.011533
3686.3371,0.011712
3688.2008,0.012006
3690.0645,0.012857
3691.9281,0.013664
3693.7918,0.014496
3695.6555,0.014767
3697.5191,0.014632
3699.3828,0.014141
3701.2465,0.013953
3703.1101,0.013960
3704.9738,0.014056
3706.8375,0.013963
3708.7011,0.012446
3710.5648,0.011939
3712.4285,0.013502
3714.2922,0.015343
3716.1558,0.015930
3718.0195,0.015086
3719.8832,0.014206
3721.7468,0.014117
3723.6105,0.014023
3725.4742,0.013940
3727.3378,0.013447
3729.2015,0.013582
3731.0652,0.013454
3732.9288,0.012350
3734.7925,0.011566
3736.6562,0.012691
3738.5199,0.014082
3740.3835,0.013949
3742.2472,0.013489
3744.1109,0.012411
3745.9745,0.012065
3747.8382,0.013722
3749.7019,0.014376
3751.5655,0.014729
3753.4292,0.016007
3755.2929,0.016141
3757.1565,0.015135
3759.0202,0.015438
3760.8839,0.016223
3762.7475,0.016649
3764.6112,0.016024
3766.4749,0.015360
3768.3386,0.015456
3770.2022,0.016037
3772.0659,0.016799
3773.9296,0.016691
3775.7932,0.015924
3777.6569,0.016133
3779.5206,0.016500
3781.3842,0.017338
3783.2479,0.017573
3785.1116,0.016839
3786.9752,0.016503
3788.8389,0.017214
3790.7026,0.016779
3792.5662,0.015845
3794.4299,0.015953
3796.2936,0.015991
3798.1573,0.015670
3800.0209,0.015879
3801.8846,0.015608
3803.7483,0.016862
3805.6119,0.017705
3807.4756,0.016373
3809.3393,0.015876
3811.2029,0.016351
3813.0666,0.015750
3814.9303,0.015541
3816.7939,0.015515
3818.6576,0.016231
3820.5213,0.015676
3822.3850,0.016055
3824.2486,0.017800
3826.1123,0.017576
3827.9760,0.016630
3829.8396,0.016423
3831.7033,0.016258
3833.5670,0.015971
3835.4306,0.015171
3837.2943,0.014914
3839.1580,0.015235
3841.0216,0.015907
3842.8853,0.016918
3844.7490,0.017252
3846.6126,0.016934
3848.4763,0.016503
3850.3400,0.015733
3852.2037,0.015036
3854.0673,0.015427
3855.9310,0.018436
3857.7947,0.017836
3859.6583,0.016387
3861.5220,0.016185
3863.3857,0.015977
3865.2493,0.016072
3867.1130,0.017930
3868.9767,0.018027
3870.8403,0.017622
3872.7040,0.018310
3874.5677,0.017843
3876.4314,0.017512
3878.2950,0.017108
3880.1587,0.016303
3882.0224,0.017060
3883.8860,0.018152
3885.7497,0.017795
3887.6134,0.017882
3889.4770,0.018248
3891.3407,0.017309
3893.2044,0.016896
3895.0680,0.017478
3896.9317,0.017115
3898.7954,0.016503
3900.6590,0.016810
3902.5227,0.017702
3904.3864,0.018580
3906.2501,0.019087
3908.1137,0.019262
3909.9774,0.018822
3911.8411,0.018378
3913.7047,0.018076
3915.5684,0.017886
3917.4321,0.017359
3919.2957,0.017831
3921.1594,0.018738
3923.0231,0.018920
3924.8867,0.018139
3926.7504,0.018122
3928.6141,0.018171
3930.4777,0.017979
3932.3414,0.017927
3934.2051,0.018899
3936.0688,0.019098
3937.9324,0.018824
3939.7961,0.018385
3941.6598,0.017993
3943.5234,0.018228
3945.3871,0.018979
3947.2508,0.019171
3949.1144,0.018948
3950.9781,0.019055
3952.8418,0.019392
3954.7054,0.019162
3956.5691,0.019219
3958.4328,0.019165
3960.2965,0.019220
3962.1601,0.019387
3964.0238,0.019227
3965.8875,0.019182
3967.7511,0.019074
3969.6148,0.018955
3971.4785,0.019119
3973.3421,0.019092
3975.2058,0.019350
3977.0695,0.019662
3978.9331,0.020091
3980.7968,0.019701
3982.6605,0.019192
3984.5241,0.019122
3986.3878,0.019093
3988.2515,0.019454
3990.1152,0.019432
3991.9788,0.018731
3993.8425,0.019347
3995.7062,0.019998
3997.5698,0.019776
3999.4335,0.019450
