Wavenumber,Intensity
650.4205,0.250899
652.2841,0.250619
654.1478,0.250653
656.0115,0.247580
657.8751,0.246243
659.7388,0.244995
661.6025,0.246604
663.4661,0.249724
665.3298,0.252269
667.1935,0.254651
669.0571,0.255244
670.9208,0.246440
672.7845,0.240764
674.6481,0.235076
676.5118,0.230964
678.3755,0.231235
680.2392,0.231523
682.1028,0.228595
683.9665,0.228431
685.8302,0.228450
687.6938,0.227911
689.5575,0.225913
691.4212,0.224445
693.2848,0.223746
695.1485,0.223387
697.0122,0.222699
698.8758,0.223506
700.7395,0.223672
702.6032,0.222234
704.4669,0.217684
706.3305,0.212223
708.1942,0.204464
710.0579,0.195165
711.9215,0.185525
713.7852,0.175796
715.6489,0.166893
717.5125,0.159882
719.3762,0.153122
721.2399,0.146831
723.1035,0.141209
724.9672,0.135472
726.8309,0.129152
728.6945,0.123916
730.5582,0.119905
732.4219,0.115825
734.2856,0.111874
736.1492,0.108871
738.0129,0.107570
739.8766,0.109166
741.7402,0.112430
743.6039,0.116562
745.4676,0.119484
747.3312,0.120598
749.1949,0.120246
751.0586,0.119671
752.9222,0.119170
754.7859,0.118437
756.6496,0.117406
758.5132,0.117118
760.3769,0.116701
762.2406,0.115714
764.1043,0.115260
765.9679,0.115417
767.8316,0.115011
769.6953,0.114595
771.5589,0.114419
773.4226,0.114868
775.2863,0.115378
777.1499,0.115579
779.0136,0.116023
780.8773,0.117075
782.7409,0.118409
784.6046,0.119924
786.4683,0.122017
788.3320,0.125093
790.1956,0.127291
792.0593,0.128716
793.9230,0.130078
795.7866,0.131278
797.6503,0.132152
799.5140,0.133087
801.3776,0.133678
803.2413,0.134252
805.1050,0.134268
806.9686,0.133174
808.8323,0.130786
810.6960,0.127777
812.5596,0.124718
814.4233,0.121521
816.2870,0.118214
818.1507,0.115134
820.0143,0.112362
821.8780,0.110392
823.7417,0.109359
825.6053,0.109959
827.4690,0.111936
829.3327,0.112717
831.1963,0.106883
833.0600,0.094856
834.9237,0.084831
836.7873,0.080240
838.6510,0.078546
840.5147,0.078020
842.3784,0.078107
844.2420,0.078779
846.1057,0.079552
847.9694,0.078987
849.8330,0.077224
851.6967,0.075309
853.5604,0.073923
855.4240,0.073226
857.2877,0.072548
859.1514,0.071486
861.0150,0.070573
862.8787,0.070085
864.7424,0.069944
866.6060,0.069896
868.4697,0.070062
870.3334,0.070676
872.1971,0.071276
874.0607,0.071483
875.9244,0.071932
877.7881,0.072958
879.6517,0.074046
881.5154,0.074850
883.3791,0.075199
885.2427,0.075432
887.1064,0.075936
888.9701,0.076781
890.8337,0.077545
892.6974,0.078376
894.5611,0.079707
896.4247,0.081269
898.2884,0.082771
900.1521,0.084337
902.0158,0.086420
903.8794,0.089688
905.7431,0.094161
907.6068,0.099626
909.4704,0.105860
911.3341,0.113288
913.1978,0.121870
915.0614,0.126375
916.9251,0.118275
918.7888,0.101769
920.6524,0.089104
922.5161,0.083724
924.3798,0.082236
926.2435,0.081997
928.1071,0.082482
929.9708,0.083345
931.8345,0.084444
933.6981,0.085642
935.5618,0.087055
937.4255,0.088444
939.2891,0.089576
941.1528,0.090852
943.0165,0.092375
944.8801,0.094021
946.7438,0.095735
948.6075,0.097375
950.4711,0.099224
952.3348,0.101164
954.1985,0.103105
956.0622,0.105258
957.9258,0.107623
959.7895,0.110029
961.6532,0.112579
963.5168,0.115500
965.3805,0.118646
967.2442,0.122165
969.1078,0.126121
970.9715,0.130017
972.8352,0.134178
974.6988,0.140484
976.5625,0.151057
978.4262,0.168983
980.2899,0.193680
982.1535,0.203283
984.0172,0.175514
985.8809,0.139400
987.7445,0.123053
989.6082,0.120662
991.4719,0.121804
993.3355,0.123512
995.1992,0.125189
997.0629,0.126676
998.9265,0.128044
1000.7902,0.129595
1002.6539,0.131659
1004.5175,0.134084
1006.3812,0.136513
1008.2449,0.138570
1010.1086,0.140046
1011.9722,0.140856
1013.8359,0.141107
1015.6996,0.141090
1017.5632,0.140910
1019.4269,0.140535
1021.2906,0.139762
1023.1542,0.138593
1025.0179,0.137119
1026.8816,0.135736
1028.7452,0.134878
1030.6089,0.134607
1032.4726,0.134927
1034.3362,0.135680
1036.1999,0.136577
1038.0636,0.137521
1039.9273,0.138806
1041.7909,0.140975
1043.6546,0.143691
1045.5183,0.145886
1047.3819,0.146581
1049.2456,0.144051
1051.1093,0.136699
1052.9729,0.126116
1054.8366,0.116399
1056.7003,0.110188
1058.5639,0.107319
1060.4276,0.106354
1062.2913,0.106171
1064.1550,0.106509
1066.0186,0.107506
1067.8823,0.108943
1069.7460,0.110541
1071.6096,0.112299
1073.4733,0.114023
1075.3370,0.115859
1077.2006,0.117947
1079.0643,0.120306
1080.9280,0.122947
1082.7916,0.125745
1084.6553,0.128800
1086.5190,0.132284
1088.3826,0.136241
1090.2463,0.140675
1092.1100,0.145728
1093.9737,0.151575
1095.8373,0.157899
1097.7010,0.164678
1099.5647,0.171832
1101.4283,0.178871
1103.2920,0.185096
1105.1557,0.189492
1107.0193,0.190156
1108.8830,0.185494
1110.7467,0.175692
1112.6103,0.162812
1114.4740,0.149263
1116.3377,0.136886
1118.2014,0.126917
1120.0650,0.119486
1121.9287,0.114195
1123.7924,0.110708
1125.6560,0.108250
1127.5197,0.105899
1129.3834,0.103187
1131.2470,0.100345
1133.1107,0.097510
1134.9744,0.094740
1136.8380,0.092272
1138.7017,0.090220
1140.5654,0.088594
1142.4290,0.087289
1144.2927,0.086185
1146.1564,0.085223
1148.0201,0.084408
1149.8837,0.083908
1151.7474,0.083772
1153.6111,0.083943
1155.4747,0.084429
1157.3384,0.085251
1159.2021,0.086508
1161.0657,0.088128
1162.9294,0.090149
1164.7931,0.092703
1166.6567,0.095865
1168.5204,0.099705
1170.3841,0.103878
1172.2477,0.107010
1174.1114,0.107191
1175.9751,0.103672
1177.8388,0.098242
1179.7024,0.093524
1181.5661,0.090619
1183.4298,0.089151
1185.2934,0.088324
1187.1571,0.087485
1189.0208,0.086504
1190.8844,0.085515
1192.7481,0.084605
1194.6118,0.083968
1196.4754,0.083597
1198.3391,0.083388
1200.2028,0.083154
1202.0665,0.082825
1203.9301,0.082637
1205.7938,0.082561
1207.6575,0.082534
1209.5211,0.082700
1211.3848,0.083034
1213.2485,0.083455
1215.1121,0.083892
1216.9758,0.084250
1218.8395,0.084247
1220.7031,0.084025
1222.5668,0.083931
1224.4305,0.084039
1226.2941,0.084263
1228.1578,0.084495
1230.0215,0.084697
1231.8852,0.084949
1233.7488,0.085408
1235.6125,0.085902
1237.4762,0.086307
1239.3398,0.086710
1241.2035,0.087236
1243.0672,0.087796
1244.9308,0.088342
1246.7945,0.088947
1248.6582,0.089606
1250.5218,0.090302
1252.3855,0.091108
1254.2492,0.092022
1256.1129,0.093042
1257.9765,0.094173
1259.8402,0.095544
1261.7039,0.096923
1263.5675,0.097933
1265.4312,0.098670
1267.2949,0.098779
1269.1585,0.098217
1271.0222,0.097790
1272.8859,0.097940
1274.7495,0.098525
1276.6132,0.099518
1278.4769,0.101002
1280.3405,0.102910
1282.2042,0.105021
1284.0679,0.107207
1285.9316,0.109575
1287.7952,0.112366
1289.6589,0.115488
1291.5226,0.119061
1293.3862,0.123579
1295.2499,0.129352
1297.1136,0.136124
1298.9772,0.143950
1300.8409,0.153362
1302.7046,0.163571
1304.5682,0.171007
1306.4319,0.170410
1308.2956,0.157549
1310.1592,0.134728
1312.0229,0.112058
1313.8866,0.097636
1315.7503,0.092450
1317.6139,0.092929
1319.4776,0.095896
1321.3413,0.099146
1323.2049,0.102320
1325.0686,0.105914
1326.9323,0.109564
1328.7959,0.112688
1330.6596,0.114711
1332.5233,0.115182
1334.3869,0.113909
1336.2506,0.112011
1338.1143,0.111762
1339.9780,0.113193
1341.8416,0.112944
1343.7053,0.112235
1345.5690,0.113032
1347.4326,0.114861
1349.2963,0.117270
1351.1600,0.119847
1353.0236,0.122602
1354.8873,0.125745
1356.7510,0.127729
1358.6146,0.128438
1360.4783,0.130288
1362.3420,0.135579
1364.2056,0.140124
1366.0693,0.141842
1367.9330,0.145783
1369.7967,0.151036
1371.6603,0.155152
1373.5240,0.162054
1375.3877,0.169512
1377.2513,0.172925
1379.1150,0.177199
1380.9787,0.183208
1382.8423,0.189537
1384.7060,0.196881
1386.5697,0.207872
1388.4333,0.219931
1390.2970,0.224556
1392.1607,0.226578
1394.0244,0.228506
1395.8880,0.224444
1397.7517,0.215256
1399.6154,0.205572
1401.4790,0.195074
1403.3427,0.186310
1405.2064,0.173883
1407.0700,0.154727
1408.9337,0.135146
1410.7974,0.117647
1412.6610,0.104983
1414.5247,0.098503
1416.3884,0.097760
1418.2520,0.103881
1420.1157,0.113989
1421.9794,0.116715
1423.8431,0.113566
1425.7067,0.102758
1427.5704,0.091093
1429.4341,0.084110
1431.2977,0.080978
1433.1614,0.079980
1435.0251,0.081818
1436.8887,0.087754
1438.7524,0.090294
1440.6161,0.090320
1442.4797,0.091995
1444.3434,0.093431
1446.2071,0.094734
1448.0707,0.096136
1449.9344,0.094593
1451.7981,0.090681
1453.6618,0.086534
1455.5254,0.086092
1457.3891,0.093639
1459.2528,0.095747
1461.1164,0.092943
1462.9801,0.092963
1464.8438,0.094996
1466.7074,0.093578
1468.5711,0.089914
1470.4348,0.088849
1472.2984,0.092490
1474.1621,0.095067
1476.0258,0.092826
1477.8895,0.089679
1479.7531,0.087851
1481.6168,0.088237
1483.4805,0.088438
1485.3441,0.088456
1487.2078,0.090677
1489.0715,0.095585
1490.9351,0.098934
1492.7988,0.096848
1494.6625,0.096418
1496.5261,0.100746
1498.3898,0.104672
1500.2535,0.104275
1502.1171,0.102532
1503.9808,0.101681
1505.8445,0.107605
1507.7082,0.123360
1509.5718,0.120821
1511.4355,0.117759
1513.2992,0.117506
1515.1628,0.118321
1517.0265,0.121079
1518.8902,0.121872
1520.7538,0.124344
1522.6175,0.128395
1524.4812,0.127383
1526.3448,0.128362
1528.2085,0.129254
1530.0722,0.127977
1531.9359,0.129373
1533.7995,0.134390
1535.6632,0.133710
1537.5269,0.132167
1539.3905,0.140198
1541.2542,0.153993
1543.1179,0.153802
1544.9815,0.154775
1546.8452,0.154808
1548.7089,0.156209
1550.5725,0.160650
1552.4362,0.162695
1554.2999,0.164419
1556.1635,0.167128
1558.0272,0.177479
1559.8909,0.199577
1561.7546,0.188084
1563.6182,0.182847
1565.4819,0.184588
1567.3456,0.186920
1569.2092,0.192223
1571.0729,0.196565
1572.9366,0.194759
1574.8002,0.197660
1576.6639,0.207262
1578.5276,0.208553
1580.3912,0.207280
1582.2549,0.209359
1584.1186,0.211791
1585.9822,0.213573
1587.8459,0.214678
1589.7096,0.215350
1591.5733,0.215512
1593.4369,0.215423
1595.3006,0.214749
1597.1643,0.212749
1599.0279,0.210142
1600.8916,0.207957
1602.7553,0.205952
1604.6189,0.203869
1606.4826,0.202100
1608.3463,0.200809
1610.2099,0.198572
1612.0736,0.194815
1613.9373,0.190309
1615.8010,0.187048
1617.6646,0.180349
1619.5283,0.169636
1621.3920,0.162492
1623.2556,0.156146
1625.1193,0.146489
1626.9830,0.137299
1628.8466,0.126962
1630.7103,0.115841
1632.5740,0.106493
1634.4376,0.098807
1636.3013,0.089590
1638.1650,0.081664
1640.0286,0.078258
1641.8923,0.076226
1643.7560,0.075693
1645.6197,0.077908
1647.4833,0.082172
1649.3470,0.082584
1651.2107,0.083720
1653.0743,0.092781
1654.9380,0.099388
1656.8017,0.096385
1658.6653,0.096773
1660.5290,0.098419
1662.3927,0.100168
1664.2563,0.100076
1666.1200,0.098243
1667.9837,0.098111
1669.8474,0.099583
1671.7110,0.099094
1673.5747,0.099089
1675.4384,0.101938
1677.3020,0.103400
1679.1657,0.103424
1681.0294,0.105034
1682.8930,0.108371
1684.7567,0.114327
1686.6204,0.112770
1688.4840,0.109110
1690.3477,0.105678
1692.2114,0.100721
1694.0750,0.096389
1695.9387,0.092069
1697.8024,0.086455
1699.6661,0.082777
1701.5297,0.074790
1703.3934,0.067163
1705.2571,0.060335
1707.1207,0.050995
1708.9844,0.044287
1710.8481,0.039500
1712.7117,0.035951
1714.5754,0.033827
1716.4391,0.032307
1718.3027,0.031088
1720.1664,0.029484
1722.0301,0.028050
1723.8937,0.026146
1725.7574,0.023545
1727.6211,0.021204
1729.4848,0.019204
1731.3484,0.017393
1733.2121,0.016287
1735.0758,0.014742
1736.9394,0.013649
1738.8031,0.013535
1740.6668,0.013236
1742.5304,0.012851
1744.3941,0.012481
1746.2578,0.011850
1748.1214,0.011318
1749.9851,0.010947
1751.8488,0.010607
1753.7125,0.010303
1755.5761,0.010291
1757.4398,0.010297
1759.3035,0.010167
1761.1671,0.010182
1763.0308,0.010031
1764.8945,0.009797
1766.7581,0.009812
1768.6218,0.009727
1770.4855,0.009590
1772.3491,0.009607
1774.2128,0.009309
1776.0765,0.009120
1777.9401,0.009382
1779.8038,0.009608
1781.6675,0.009587
1783.5312,0.009482
1785.3948,0.009493
1787.2585,0.009482
1789.1222,0.009377
1790.9858,0.009358
1792.8495,0.009553
1794.7132,0.009537
1796.5768,0.009370
1798.4405,0.009394
1800.3042,0.009636
1802.1678,0.009778
1804.0315,0.009788
1805.8952,0.009723
1807.7589,0.009683
1809.6225,0.009768
1811.4862,0.009892
1813.3499,0.009707
1815.2135,0.009422
1817.0772,0.009397
1818.9409,0.009552
1820.8045,0.009713
1822.6682,0.009823
1824.5319,0.009623
1826.3955,0.009354
1828.2592,0.009269
1830.1229,0.009074
1831.9865,0.008698
1833.8502,0.008609
1835.7139,0.008706
1837.5776,0.008929
1839.4412,0.008999
1841.3049,0.008839
1843.1686,0.008839
1845.0322,0.009081
1846.8959,0.009140
1848.7596,0.009192
1850.6232,0.009119
1852.4869,0.008969
1854.3506,0.008995
1856.2142,0.009214
1858.0779,0.009164
1859.9416,0.009221
1861.8052,0.009293
1863.6689,0.009086
1865.5326,0.009061
1867.3963,0.009364
1869.2599,0.009194
1871.1236,0.008551
1872.9873,0.008494
1874.8509,0.008828
1876.7146,0.009179
1878.5783,0.009174
1880.4419,0.009196
1882.3056,0.009388
1884.1693,0.009139
1886.0329,0.008865
1887.8966,0.008771
1889.7603,0.008839
1891.6240,0.008952
1893.4876,0.009045
1895.3513,0.008986
1897.2150,0.008829
1899.0786,0.008572
1900.9423,0.008709
1902.8060,0.008905
1904.6696,0.008862
1906.5333,0.008898
1908.3970,0.009013
1910.2606,0.008707
1912.1243,0.008481
1913.9880,0.008793
1915.8516,0.009042
1917.7153,0.008927
1919.5790,0.008588
1921.4427,0.008318
1923.3063,0.008032
1925.1700,0.007829
1927.0337,0.007965
1928.8973,0.007865
1930.7610,0.008487
1932.6247,0.008714
1934.4883,0.007995
1936.3520,0.008242
1938.2157,0.008688
1940.0793,0.008091
1941.9430,0.007505
1943.8067,0.006928
1945.6704,0.006736
1947.5340,0.006767
1949.3977,0.006592
1951.2614,0.006384
1953.1250,0.006288
1954.9887,0.005916
1956.8524,0.005663
1958.7160,0.004930
1960.5797,0.003984
1962.4434,0.003563
1964.3070,0.002717
1966.1707,0.001422
1968.0344,0.001037
1969.8980,0.001086
1971.7617,0.000731
1973.6254,0.000429
1975.4891,0.001201
1977.3527,0.001118
1979.2164,0.001454
1981.0801,0.003054
1982.9437,0.003466
1984.8074,0.003234
1986.6711,0.004175
1988.5347,0.004218
1990.3984,0.004095
1992.2621,0.004466
1994.1257,0.004876
1995.9894,0.005289
1997.8531,0.005364
1999.7167,0.004884
2001.5804,0.004353
2003.4441,0.004232
2005.3078,0.003854
2007.1714,0.002409
2009.0351,0.002304
2010.8988,0.003055
2012.7624,0.002551
2014.6261,0.002759
2016.4898,0.003980
2018.3534,0.002667
2020.2171,0.001307
2022.0808,0.001046
2023.9444,0.001651
2025.8081,0.002490
2027.6718,0.002210
2029.5355,0.002423
2031.3991,0.003373
2033.2628,0.002230
2035.1265,0.001191
2036.9901,0.002495
2038.8538,0.003680
2040.7175,0.004064
2042.5811,0.004773
2044.4448,0.004709
2046.3085,0.004723
2048.1721,0.005504
2050.0358,0.007100
2051.8995,0.008302
2053.7631,0.008330
2055.6268,0.008195
2057.4905,0.008654
2059.3542,0.008863
2061.2178,0.009295
2063.0815,0.009669
2064.9452,0.009556
2066.8088,0.009298
2068.6725,0.009705
2070.5362,0.010022
2072.3998,0.010380
2074.2635,0.010670
2076.1272,0.010536
2077.9908,0.010633
2079.8545,0.010812
2081.7182,0.010715
2083.5819,0.011330
2085.4455,0.011817
2087.3092,0.011835
2089.1729,0.011492
2091.0365,0.010866
2092.9002,0.010810
2094.7639,0.011196
2096.6275,0.011206
2098.4912,0.011197
2100.3549,0.011293
2102.2185,0.011347
2104.0822,0.011772
2105.9459,0.011880
2107.8095,0.011778
2109.6732,0.011910
2111.5369,0.011704
2113.4006,0.011812
2115.2642,0.012093
2117.1279,0.011893
2118.9916,0.011750
2120.8552,0.012024
2122.7189,0.011861
2124.5826,0.011582
2126.4462,0.011363
2128.3099,0.011056
2130.1736,0.010431
2132.0372,0.009960
2133.9009,0.010018
2135.7646,0.010448
2137.6282,0.009729
2139.4919,0.007911
2141.3556,0.008030
2143.2193,0.009656
2145.0829,0.008883
2146.9466,0.007009
2148.8103,0.006228
2150.6739,0.005165
2152.5376,0.003052
2154.4013,0.002061
2156.2649,0.000956
2158.1286,0.000010
2159.9923,0.001739
2161.8559,0.003972
2163.7196,0.004147
2165.5833,0.003785
2167.4470,0.003990
2169.3106,0.004885
2171.1743,0.005381
2173.0380,0.006124
2174.9016,0.006512
2176.7653,0.006766
2178.6290,0.006285
2180.4926,0.006248
2182.3563,0.006642
2184.2200,0.007693
2186.0836,0.008450
2187.9473,0.008420
2189.8110,0.007980
2191.6746,0.008312
2193.5383,0.008198
2195.4020,0.007984
2197.2657,0.008827
2199.1293,0.009842
2200.9930,0.009719
2202.8567,0.009862
2204.7203,0.009976
2206.5840,0.009865
2208.4477,0.010388
2210.3113,0.010778
2212.1750,0.011208
2214.0387,0.011492
2215.9023,0.010823
2217.7660,0.011559
2219.6297,0.012185
2221.4934,0.011556
2223.3570,0.011439
2225.2207,0.012360
2227.0844,0.012736
2228.9480,0.012858
2230.8117,0.012784
2232.6754,0.012767
2234.5390,0.013049
2236.4027,0.013307
2238.2664,0.013423
2240.1300,0.013761
2241.9937,0.013845
2243.8574,0.013889
2245.7210,0.014115
2247.5847,0.014403
2249.4484,0.014604
2251.3121,0.014734
2253.1757,0.014958
2255.0394,0.015248
2256.9031,0.015622
2258.7667,0.015900
2260.6304,0.015875
2262.4941,0.015839
2264.3577,0.016031
2266.2214,0.016516
2268.0851,0.016498
2269.9487,0.016681
2271.8124,0.017183
2273.6761,0.017795
2275.5397,0.018268
2277.4034,0.018800
2279.2671,0.019306
2281.1308,0.019392
2282.9944,0.019243
2284.8581,0.019567
2286.7218,0.020070
2288.5854,0.020060
2290.4491,0.020028
2292.3128,0.020059
2294.1764,0.019803
2296.0401,0.019944
2297.9038,0.019951
2299.7674,0.020110
2301.6311,0.020358
2303.4948,0.020252
2305.3585,0.020529
2307.2221,0.020852
2309.0858,0.020609
2310.9495,0.020418
2312.8131,0.020545
2314.6768,0.020577
2316.5405,0.020470
2318.4041,0.020791
2320.2678,0.021171
2322.1315,0.021137
2323.9951,0.021049
2325.8588,0.020700
2327.7225,0.019780
2329.5861,0.019341
2331.4498,0.019400
2333.3135,0.019376
2335.1772,0.019352
2337.0408,0.019572
2338.9045,0.019708
2340.7682,0.019673
2342.6318,0.019836
2344.4955,0.019767
2346.3592,0.019749
2348.2228,0.019528
2350.0865,0.019098
2351.9502,0.018982
2353.8138,0.019029
2355.6775,0.019210
2357.5412,0.019047
2359.4049,0.018736
2361.2685,0.018978
2363.1322,0.018926
2364.9959,0.018908
2366.8595,0.019453
2368.7232,0.019517
2370.5869,0.019365
2372.4505,0.019731
2374.3142,0.019888
2376.1779,0.020150
2378.0415,0.020363
2379.9052,0.020158
2381.7689,0.020206
2383.6325,0.020435
2385.4962,0.020462
2387.3599,0.020447
2389.2236,0.020609
2391.0872,0.020669
2392.9509,0.020432
2394.8146,0.020287
2396.6782,0.020451
2398.5419,0.020648
2400.4056,0.020403
2402.2692,0.020179
2404.1329,0.020433
2405.9966,0.020808
2407.8602,0.021251
2409.7239,0.021343
2411.5876,0.021269
2413.4512,0.021498
2415.3149,0.021565
2417.1786,0.021300
2419.0423,0.021290
2420.9059,0.021139
2422.7696,0.021289
2424.6333,0.021814
2426.4969,0.022096
2428.3606,0.022304
2430.2243,0.022298
2432.0879,0.021856
2433.9516,0.021748
2435.8153,0.021946
2437.6789,0.021837
2439.5426,0.021602
2441.4063,0.021779
2443.2700,0.022495
2445.1336,0.022784
2446.9973,0.022608
2448.8610,0.022392
2450.7246,0.022153
2452.5883,0.022168
2454.4520,0.021978
2456.3156,0.021855
2458.1793,0.021860
2460.0430,0.021725
2461.9066,0.021828
2463.7703,0.022081
2465.6340,0.022076
2467.4976,0.022215
2469.3613,0.022707
2471.2250,0.022777
2473.0887,0.022450
2474.9523,0.022218
2476.8160,0.022356
2478.6797,0.022721
2480.5433,0.022667
2482.4070,0.022618
2484.2707,0.022716
2486.1343,0.022662
2487.9980,0.023096
2489.8617,0.023536
2491.7253,0.023698
2493.5890,0.023545
2495.4527,0.023672
2497.3164,0.023861
2499.1800,0.023942
2501.0437,0.024072
2502.9074,0.024319
2504.7710,0.024615
2506.6347,0.024640
2508.4984,0.024586
2510.3620,0.024553
2512.2257,0.024547
2514.0894,0.024330
2515.9530,0.024416
2517.8167,0.024887
2519.6804,0.024915
2521.5440,0.024793
2523.4077,0.024965
2525.2714,0.025262
2527.1351,0.025643
2528.9987,0.025666
2530.8624,0.025367
2532.7261,0.025528
2534.5897,0.025950
2536.4534,0.026190
2538.3171,0.025993
2540.1807,0.025889
2542.0444,0.025795
2543.9081,0.025565
2545.7717,0.025524
2547.6354,0.025844
2549.4991,0.026314
2551.3627,0.026290
2553.2264,0.026203
2555.0901,0.026432
2556.9538,0.026358
2558.8174,0.026130
2560.6811,0.026329
2562.5448,0.026587
2564.4084,0.026761
2566.2721,0.027095
2568.1358,0.027388
2569.9994,0.027425
2571.8631,0.027653
2573.7268,0.028007
2575.5904,0.028047
2577.4541,0.028332
2579.3178,0.028466
2581.1815,0.028515
2583.0451,0.028578
2584.9088,0.028798
2586.7725,0.029118
2588.6361,0.029360
2590.4998,0.029326
2592.3635,0.029493
2594.2271,0.029877
2596.0908,0.030043
2597.9545,0.030173
2599.8181,0.030630
2601.6818,0.030658
2603.5455,0.030686
2605.4091,0.031117
2607.2728,0.031454
2609.1365,0.031311
2611.0002,0.030960
2612.8638,0.031098
2614.7275,0.031202
2616.5912,0.031253
2618.4548,0.031792
2620.3185,0.031995
2622.1822,0.032018
2624.0458,0.032448
2625.9095,0.033114
2627.7732,0.033489
2629.6368,0.033811
2631.5005,0.034125
2633.3642,0.034332
2635.2279,0.034565
2637.0915,0.034940
2638.9552,0.035056
2640.8189,0.035310
2642.6825,0.035711
2644.5462,0.035975
2646.4099,0.036031
2648.2735,0.036193
2650.1372,0.036398
2652.0009,0.036354
2653.8645,0.036451
2655.7282,0.036794
2657.5919,0.037160
2659.4555,0.037433
2661.3192,0.037454
2663.1829,0.037370
2665.0466,0.037387
2666.9102,0.037557
2668.7739,0.037669
2670.6376,0.037730
2672.5012,0.037816
2674.3649,0.037915
2676.2286,0.038072
2678.0922,0.038461
2679.9559,0.038933
2681.8196,0.039219
2683.6832,0.039271
2685.5469,0.039394
2687.4106,0.039687
2689.2742,0.040249
2691.1379,0.040645
2693.0016,0.040904
2694.8653,0.041182
2696.7289,0.041433
2698.5926,0.041815
2700.4563,0.042328
2702.3199,0.042664
2704.1836,0.042806
2706.0473,0.043117
2707.9109,0.043613
2709.7746,0.044060
2711.6383,0.044477
2713.5019,0.044754
2715.3656,0.045173
2717.2293,0.045570
2719.0930,0.045913
2720.9566,0.046397
2722.8203,0.047084
2724.6840,0.047886
2726.5476,0.048539
2728.4113,0.049040
2730.2750,0.049364
2732.1386,0.049527
2734.0023,0.050089
2735.8660,0.050823
2737.7296,0.051399
2739.5933,0.051841
2741.4570,0.052264
2743.3206,0.052682
2745.1843,0.053050
2747.0480,0.053757
2748.9117,0.054736
2750.7753,0.055565
2752.6390,0.056272
2754.5027,0.056674
2756.3663,0.057105
2758.2300,0.057651
2760.0937,0.058550
2761.9573,0.059235
2763.8210,0.059795
2765.6847,0.060562
2767.5483,0.061276
2769.4120,0.061850
2771.2757,0.062649
2773.1394,0.063433
2775.0030,0.064314
2776.8667,0.065330
2778.7304,0.066077
2780.5940,0.066380
2782.4577,0.066577
2784.3214,0.066968
2786.1850,0.066918
2788.0487,0.066380
2789.9124,0.065971
2791.7760,0.065681
2793.6397,0.065419
2795.5034,0.064954
2797.3670,0.064362
2799.2307,0.063944
2801.0944,0.063556
2802.9581,0.062967
2804.8217,0.062558
2806.6854,0.062159
2808.5491,0.061722
2810.4127,0.061790
2812.2764,0.062077
2814.1401,0.061915
2816.0037,0.061791
2817.8674,0.061829
2819.7311,0.061922
2821.5947,0.062227
2823.4584,0.062590
2825.3221,0.062722
2827.1857,0.062684
2829.0494,0.062323
2830.9131,0.062104
2832.7768,0.062129
2834.6404,0.062421
2836.5041,0.062542
2838.3678,0.062925
2840.2314,0.063767
2842.0951,0.064244
2843.9588,0.064445
2845.8224,0.065189
2847.6861,0.066370
2849.5498,0.067289
2851.4134,0.067857
2853.2771,0.068773
2855.1408,0.069812
2857.0045,0.071011
2858.8681,0.071856
2860.7318,0.072535
2862.5955,0.073156
2864.4591,0.073534
2866.3228,0.073338
2868.1865,0.073026
2870.0501,0.072995
2871.9138,0.073351
2873.7775,0.073529
2875.6411,0.073779
2877.5048,0.073780
2879.3685,0.073925
2881.2321,0.074448
2883.0958,0.075104
2884.9595,0.075795
2886.8232,0.076487
2888.6868,0.076862
2890.5505,0.077214
2892.4142,0.077641
2894.2778,0.078434
2896.1415,0.079247
2898.0052,0.079738
2899.8688,0.079731
2901.7325,0.079537
2903.5962,0.079365
2905.4598,0.079619
2907.3235,0.080032
2909.1872,0.080738
2911.0509,0.081282
2912.9145,0.081955
2914.7782,0.082783
2916.6419,0.083893
2918.5055,0.085052
2920.3692,0.086022
2922.2329,0.086916
2924.0965,0.087640
2925.9602,0.088033
2927.8239,0.088257
2929.6875,0.088532
2931.5512,0.089589
2933.4149,0.090722
2935.2785,0.091311
2937.1422,0.091657
2939.0059,0.092366
2940.8696,0.092744
2942.7332,0.092990
2944.5969,0.093158
2946.4606,0.093386
2948.3242,0.093388
2950.1879,0.093211
2952.0516,0.093054
2953.9152,0.093180
2955.7789,0.093405
2957.6426,0.094086
2959.5062,0.094549
2961.3699,0.095093
2963.2336,0.096121
2965.0972,0.096901
2966.9609,0.097311
2968.8246,0.098578
2970.6883,0.099978
2972.5519,0.100783
2974.4156,0.101300
2976.2793,0.102235
2978.1429,0.103136
2980.0066,0.103883
2981.8703,0.103984
2983.7339,0.104031
2985.5976,0.104746
2987.4613,0.105837
2989.3249,0.106407
2991.1886,0.107089
2993.0523,0.107878
2994.9160,0.108624
2996.7796,0.108972
2998.6433,0.109826
3000.5070,0.110945
3002.3706,0.112172
3004.2343,0.112595
3006.0980,0.112712
3007.9616,0.113665
3009.8253,0.114966
3011.6890,0.115747
3013.5526,0.116782
3015.4163,0.117120
3017.2800,0.117511
3019.1436,0.118089
3021.0073,0.118404
3022.8710,0.118203
3024.7347,0.118212
3026.5983,0.118325
3028.4620,0.118868
3030.3257,0.119581
3032.1893,0.120273
3034.0530,0.120369
3035.9167,0.120922
3037.7803,0.121600
3039.6440,0.122106
3041.5077,0.122317
3043.3713,0.122647
3045.2350,0.122873
3047.0987,0.123251
3048.9624,0.123242
3050.8260,0.123251
3052.6897,0.123512
3054.5534,0.123760
3056.4170,0.123828
3058.2807,0.123898
3060.1444,0.124246
3062.0080,0.124544
3063.8717,0.124262
3065.7354,0.124547
3067.5990,0.124529
3069.4627,0.124086
3071.3264,0.123842
3073.1900,0.123607
3075.0537,0.122975
3076.9174,0.122638
3078.7811,0.122702
3080.6447,0.122907
3082.5084,0.122165
3084.3721,0.121125
3086.2357,0.120707
3088.0994,0.120032
3089.9631,0.118901
3091.8267,0.118470
3093.6904,0.117891
3095.5541,0.116901
3097.4177,0.115727
3099.2814,0.114997
3101.1451,0.114293
3103.0087,0.112969
3104.8724,0.111302
3106.7361,0.110361
3108.5998,0.109882
3110.4634,0.109250
3112.3271,0.107959
3114.1908,0.106800
3116.0544,0.106415
3117.9181,0.106380
3119.7818,0.106102
3121.6454,0.105167
3123.5091,0.104084
3125.3728,0.103016
3127.2364,0.102176
3129.1001,0.101647
3130.9638,0.100951
3132.8275,0.100068
3134.6911,0.098962
3136.5548,0.098053
3138.4185,0.097369
3140.2821,0.097898
3142.1458,0.097850
3144.0095,0.096936
3145.8731,0.095908
3147.7368,0.095309
3149.6005,0.094563
3151.4641,0.093696
3153.3278,0.093345
3155.1915,0.092932
3157.0551,0.092145
3158.9188,0.091769
3160.7825,0.091027
3162.6462,0.089876
3164.5098,0.088518
3166.3735,0.088384
3168.2372,0.088413
3170.1008,0.087834
3171.9645,0.087023
3173.8282,0.086682
3175.6918,0.086450
3177.5555,0.086024
3179.4192,0.085194
3181.2828,0.084590
3183.1465,0.084206
3185.0102,0.083743
3186.8739,0.083398
3188.7375,0.083591
3190.6012,0.083319
3192.4649,0.082740
3194.3285,0.082806
3196.1922,0.083121
3198.0559,0.082481
3199.9195,0.082857
3201.7832,0.083063
3203.6469,0.082505
3205.5105,0.082333
3207.3742,0.082512
3209.2379,0.082229
3211.1015,0.082225
3212.9652,0.082043
3214.8289,0.082218
3216.6926,0.082181
3218.5562,0.082650
3220.4199,0.082392
3222.2836,0.082138
3224.1472,0.082275
3226.0109,0.082564
3227.8746,0.082318
3229.7382,0.082397
3231.6019,0.082681
3233.4656,0.083285
3235.3292,0.083732
3237.1929,0.084507
3239.0566,0.084067
3240.9202,0.084026
3242.7839,0.084103
3244.6476,0.085325
3246.5113,0.086212
3248.3749,0.085996
3250.2386,0.085837
3252.1023,0.085958
3253.9659,0.086572
3255.8296,0.087667
3257.6933,0.087944
3259.5569,0.088051
3261.4206,0.088191
3263.2843,0.088716
3265.1479,0.088150
3267.0116,0.088501
3268.8753,0.088793
3270.7390,0.088405
3272.6026,0.087893
3274.4663,0.087919
3276.3300,0.088461
3278.1936,0.088608
3280.0573,0.087848
3281.9210,0.087035
3283.7846,0.086646
3285.6483,0.086438
3287.5120,0.086194
3289.3756,0.085929
3291.2393,0.084934
3293.1030,0.084172
3294.9666,0.083567
3296.8303,0.082723
3298.6940,0.081894
3300.5577,0.080918
3302.4213,0.079919
3304.2850,0.079723
3306.1487,0.078598
3308.0123,0.077373
3309.8760,0.076649
3311.7397,0.076516
3313.6033,0.076253
3315.4670,0.075303
3317.3307,0.074902
3319.1943,0.075484
3321.0580,0.075452
3322.9217,0.075948
3324.7854,0.076208
3326.6490,0.076082
3328.5127,0.075947
3330.3764,0.075819
3332.2400,0.074794
3334.1037,0.074427
3335.9674,0.074583
3337.8310,0.074314
3339.6947,0.073300
3341.5584,0.072413
3343.4220,0.071430
3345.2857,0.069793
3347.1494,0.067907
3349.0130,0.066905
3350.8767,0.065990
3352.7404,0.064634
3354.6041,0.062382
3356.4677,0.061686
3358.3314,0.061382
3360.1951,0.060567
3362.0587,0.059129
3363.9224,0.057755
3365.7861,0.056102
3367.6497,0.055671
3369.5134,0.056161
3371.3771,0.056921
3373.2407,0.056086
3375.1044,0.054546
3376.9681,0.054847
3378.8317,0.055369
3380.6954,0.054408
3382.5591,0.054527
3384.4228,0.054829
3386.2864,0.054239
3388.1501,0.053052
3390.0138,0.053455
3391.8774,0.054817
3393.7411,0.055682
3395.6048,0.056047
3397.4684,0.056310
3399.3321,0.056465
3401.1958,0.056095
3403.0594,0.054968
3404.9231,0.053785
3406.7868,0.052457
3408.6505,0.051511
3410.5141,0.049482
3412.3778,0.047526
3414.2415,0.046165
3416.1051,0.045126
3417.9688,0.043507
3419.8325,0.041693
3421.6961,0.040621
3423.5598,0.038993
3425.4235,0.037056
3427.2871,0.036166
3429.1508,0.035490
3431.0145,0.034452
3432.8781,0.033161
3434.7418,0.032162
3436.6055,0.031022
3438.4692,0.030901
3440.3328,0.029749
3442.1965,0.029167
3444.0602,0.028131
3445.9238,0.026386
3447.7875,0.025719
3449.6512,0.024938
3451.5148,0.024390
3453.3785,0.024792
3455.2422,0.024614
3457.1058,0.023583
3458.9695,0.023182
3460.8332,0.023904
3462.6969,0.023233
3464.5605,0.022526
3466.4242,0.021704
3468.2879,0.020962
3470.1515,0.020330
3472.0152,0.020303
3473.8789,0.019981
3475.7425,0.019402
3477.6062,0.018978
3479.4699,0.019395
3481.3335,0.018891
3483.1972,0.017807
3485.0609,0.017729
3486.9245,0.017021
3488.7882,0.016345
3490.6519,0.016013
3492.5156,0.015123
3494.3792,0.014110
3496.2429,0.013353
3498.1066,0.014100
3499.9702,0.014835
3501.8339,0.015041
3503.6976,0.014082
3505.5612,0.012721
3507.4249,0.012553
3509.2886,0.012566
3511.1522,0.012194
3513.0159,0.012061
3514.8796,0.011479
3516.7432,0.012355
3518.6069,0.011842
3520.4706,0.009584
3522.3343,0.009190
3524.1979,0.010337
3526.0616,0.010680
3527.9253,0.009341
3529.7889,0.007740
3531.6526,0.007966
3533.5163,0.008748
3535.3799,0.009802
3537.2436,0.009566
3539.1073,0.008929
3540.9709,0.008654
3542.8346,0.008513
3544.6983,0.008722
3546.5620,0.009364
3548.4256,0.007156
3550.2893,0.006497
3552.1530,0.008383
3554.0166,0.008530
3555.8803,0.008245
3557.7440,0.007846
3559.6076,0.006833
3561.4713,0.006156
3563.3350,0.005703
3565.1986,0.006872
3567.0623,0.007427
3568.9260,0.005122
3570.7896,0.004534
3572.6533,0.005546
3574.5170,0.006266
3576.3807,0.007196
3578.2443,0.007208
3580.1080,0.006531
3581.9717,0.007124
3583.8353,0.008012
3585.6990,0.006848
3587.5627,0.005571
3589.4263,0.005478
3591.2900,0.006354
3593.1537,0.006262
3595.0173,0.006261
3596.8810,0.006669
3598.7447,0.006523
3600.6084,0.006769
3602.4720,0.006267
3604.3357,0.005639
3606.1994,0.005647
3608.0630,0.005958
3609.9267,0.005870
3611.7904,0.005308
3613.6540,0.006625
3615.5177,0.006929
3617.3814,0.006635
3619.2450,0.006277
3621.1087,0.005692
3622.9724,0.006263
3624.8360,0.006776
3626.6997,0.006471
3628.5634,0.005943
3630.4271,0.004316
3632.2907,0.005129
3634.1544,0.006903
3636.0181,0.007636
3637.8817,0.007891
3639.7454,0.007839
3641.6091,0.007495
3643.4727,0.007616
3645.3364,0.007241
3647.2001,0.006242
3649.0637,0.004831
3650.9274,0.004677
3652.7911,0.004989
3654.6547,0.006003
3656.5184,0.007503
3658.3821,0.008119
3660.2458,0.008305
3662.1094,0.009113
3663.9731,0.008918
3665.8368,0.008963
3667.7004,0.009425
3669.5641,0.009708
3671.4278,0.010389
3673.2914,0.011190
3675.1551,0.012597
3677.0188,0.012119
3678.8824,0.009006
3680.7461,0.007959
3682.6098,0.007647
3684.4735,0.007712
3686.3371,0.007096
3688.2008,0.006224
3690.0645,0.005821
3691.9281,0.005613
3693.7918,0.006284
3695.6555,0.006920
3697.5191,0.007204
3699.3828,0.007397
3701.2465,0.007115
3703.1101,0.007439
3704.9738,0.007579
3706.8375,0.007210
3708.7011,0.007260
3710.5648,0.007259
3712.4285,0.006220
3714.2922,0.006433
3716.1558,0.006843
3718.0195,0.006753
3719.8832,0.006504
3721.7468,0.006567
3723.6105,0.006596
3725.4742,0.006329
3727.3378,0.006538
3729.2015,0.006408
3731.0652,0.006595
3732.9288,0.006976
3734.7925,0.005746
3736.6562,0.005108
3738.5199,0.005130
3740.3835,0.005752
3742.2472,0.005992
3744.1109,0.005808
3745.9745,0.005066
3747.8382,0.005145
3749.7019,0.006051
3751.5655,0.006118
3753.4292,0.006115
3755.2929,0.006965
3757.1565,0.007066
3759.0202,0.007214
3760.8839,0.007612
3762.7475,0.008396
3764.6112,0.008968
3766.4749,0.009104
3768.3386,0.008642
3770.2022,0.008792
3772.0659,0.008901
3773.9296,0.008510
3775.7932,0.008962
3777.6569,0.009635
3779.5206,0.008949
3781.3842,0.008141
3783.2479,0.008354
3785.1116,0.008602
3786.9752,0.008846
3788.8389,0.008909
3790.7026,0.008619
3792.5662,0.008786
3794.4299,0.009046
3796.2936,0.008958
3798.1573,0.008169
3800.0209,0.007650
3801.8846,0.008311
3803.7483,0.008837
3805.6119,0.008264
3807.4756,0.008599
3809.3393,0.008820
3811.2029,0.008793
3813.0666,0.008791
3814.9303,0.008585
3816.7939,0.008690
3818.6576,0.008333
3820.5213,0.007634
3822.3850,0.007547
3824.2486,0.008038
3826.1123,0.008517
3827.9760,0.008578
3829.8396,0.008768
3831.7033,0.008936
3833.5670,0.009292
3835.4306,0.008679
3837.2943,0.008557
3839.1580,0.008663
3841.0216,0.008197
3842.8853,0.008009
3844.7490,0.009426
3846.6126,0.009415
3848.4763,0.008766
3850.3400,0.008580
3852.2037,0.008338
3854.0673,0.007201
3855.9310,0.007080
3857.7947,0.008330
3859.6583,0.008885
3861.5220,0.008782
3863.3857,0.008589
3865.2493,0.008816
3867.1130,0.009630
3868.9767,0.009460
3870.8403,0.009094
3872.7040,0.008959
3874.5677,0.009457
3876.4314,0.009491
3878.2950,0.009318
3880.1587,0.009144
3882.0224,0.009119
3883.8860,0.009350
3885.7497,0.008897
3887.6134,0.008723
3889.4770,0.009159
3891.3407,0.009122
3893.2044,0.009200
3895.0680,0.009877
3896.9317,0.009864
3898.7954,0.009382
3900.6590,0.009534
3902.5227,0.009244
3904.3864,0.008630
3906.2501,0.009439
3908.1137,0.010461
3909.9774,0.010666
3911.8411,0.010505
3913.7047,0.010014
3915.5684,0.010106
3917.4321,0.010117
3919.2957,0.009859
3921.1594,0.009602
3923.0231,0.009813
3924.8867,0.010506
3926.7504,0.010792
3928.6141,0.010755
3930.4777,0.010359
3932.3414,0.009810
3934.2051,0.010170
3936.0688,0.010401
3937.9324,0.010618
3939.7961,0.010569
3941.6598,0.009822
3943.5234,0.010057
3945.3871,0.010535
3947.2508,0.010589
3949.1144,0.010744
3950.9781,0.010809
3952.8418,0.010635
3954.7054,0.010685
3956.5691,0.011158
3958.4328,0.011600
3960.2965,0.010831
3962.1601,0.010307
3964.0238,0.010966
3965.8875,0.011028
3967.7511,0.010680
3969.6148,0.010662
3971.4785,0.010748
3973.3421,0.010658
3975.2058,0.010552
3977.0695,0.010622
3978.9331,0.010750
3980.7968,0.010725
3982.6605,0.010759
3984.5241,0.010858
3986.3878,0.010965
3988.2515,0.010837
3990.1152,0.010920
3991.9788,0.011240
3993.8425,0.011154
3995.7062,0.010901
3997.5698,0.011231
3999.4335,0.011904
