Wavenumber,Intensity
650.4205,0.230457
652.2841,0.233440
654.1478,0.232601
656.0115,0.229784
657.8751,0.230634
659.7388,0.232377
661.6025,0.237210
663.4661,0.240048
665.3298,0.244013
667.1935,0.247249
669.0571,0.245650
670.9208,0.237095
672.7845,0.229460
674.6481,0.223300
676.5118,0.218808
678.3755,0.216224
680.2392,0.215238
682.1028,0.213015
683.9665,0.211634
685.8302,0.209758
687.6938,0.208598
689.5575,0.206713
691.4212,0.204979
693.2848,0.203437
695.1485,0.202472
697.0122,0.201856
698.8758,0.202133
700.7395,0.201819
702.6032,0.201458
704.4669,0.198446
706.3305,0.192135
708.1942,0.184185
710.0579,0.177352
711.9215,0.169763
713.7852,0.161091
715.6489,0.152862
717.5125,0.145716
719.3762,0.138863
721.2399,0.132919
723.1035,0.127835
724.9672,0.123412
726.8309,0.118364
728.6945,0.113343
730.5582,0.109116
732.4219,0.106092
734.2856,0.103030
736.1492,0.099934
738.0129,0.098664
739.8766,0.100024
741.7402,0.102800
743.6039,0.106462
745.4676,0.109720
747.3312,0.110490
749.1949,0.109002
751.0586,0.107540
752.9222,0.106888
754.7859,0.106433
756.6496,0.106217
758.5132,0.106182
760.3769,0.105161
762.2406,0.104280
764.1043,0.103815
765.9679,0.103614
767.8316,0.103621
769.6953,0.104014
771.5589,0.104568
773.4226,0.104564
775.2863,0.104557
777.1499,0.105661
779.0136,0.107295
780.8773,0.108573
782.7409,0.109902
784.6046,0.111778
786.4683,0.113899
788.3320,0.116058
790.1956,0.118114
792.0593,0.120200
793.9230,0.121356
795.7866,0.122066
797.6503,0.122394
799.5140,0.122674
801.3776,0.123491
803.2413,0.124520
805.1050,0.124493
806.9686,0.123370
808.8323,0.121021
810.6960,0.118432
812.5596,0.115443
814.4233,0.112417
816.2870,0.109566
818.1507,0.106914
820.0143,0.104530
821.8780,0.103083
823.7417,0.102762
825.6053,0.103579
827.4690,0.105282
829.3327,0.106049
831.1963,0.101278
833.0600,0.090906
834.9237,0.082067
836.7873,0.078281
838.6510,0.077475
840.5147,0.077676
842.3784,0.078246
844.2420,0.079249
846.1057,0.080499
847.9694,0.080757
849.8330,0.079215
851.6967,0.077606
853.5604,0.076980
855.4240,0.076923
857.2877,0.076587
859.1514,0.075349
861.0150,0.074169
862.8787,0.073884
864.7424,0.074006
866.6060,0.074217
868.4697,0.074503
870.3334,0.074939
872.1971,0.075403
874.0607,0.076197
875.9244,0.077267
877.7881,0.078097
879.6517,0.078911
881.5154,0.079806
883.3791,0.080633
885.2427,0.081298
887.1064,0.081918
888.9701,0.082684
890.8337,0.083824
892.6974,0.085288
894.5611,0.086649
896.4247,0.088235
898.2884,0.090029
900.1521,0.091852
902.0158,0.093906
903.8794,0.096854
905.7431,0.100814
907.6068,0.105682
909.4704,0.111203
911.3341,0.117529
913.1978,0.124512
915.0614,0.127385
916.9251,0.119449
918.7888,0.105114
920.6524,0.094969
922.5161,0.091373
924.3798,0.091070
926.2435,0.091769
928.1071,0.092631
929.9708,0.093743
931.8345,0.095119
933.6981,0.096539
935.5618,0.098023
937.4255,0.099533
939.2891,0.100866
941.1528,0.102184
943.0165,0.103602
944.8801,0.105341
946.7438,0.107084
948.6075,0.108717
950.4711,0.110531
952.3348,0.112469
954.1985,0.114386
956.0622,0.116414
957.9258,0.118534
959.7895,0.120693
961.6532,0.122990
963.5168,0.125667
965.3805,0.128578
967.2442,0.131790
969.1078,0.135327
970.9715,0.138777
972.8352,0.142553
974.6988,0.148362
976.5625,0.158050
978.4262,0.174068
980.2899,0.195085
982.1535,0.202155
984.0172,0.176795
985.8809,0.145460
987.7445,0.132626
989.6082,0.131950
991.4719,0.133872
993.3355,0.136274
995.1992,0.138301
997.0629,0.139507
998.9265,0.140851
1000.7902,0.142774
1002.6539,0.145146
1004.5175,0.147766
1006.3812,0.150488
1008.2449,0.153091
1010.1086,0.155114
1011.9722,0.156467
1013.8359,0.157089
1015.6996,0.156740
1017.5632,0.155448
1019.4269,0.153315
1021.2906,0.150538
1023.1542,0.147505
1025.0179,0.144359
1026.8816,0.141363
1028.7452,0.138889
1030.6089,0.137226
1032.4726,0.136208
1034.3362,0.135722
1036.1999,0.135520
1038.0636,0.135403
1039.9273,0.135812
1041.7909,0.137054
1043.6546,0.138800
1045.5183,0.140362
1047.3819,0.140591
1049.2456,0.138046
1051.1093,0.131536
1052.9729,0.122585
1054.8366,0.114658
1056.7003,0.109645
1058.5639,0.107357
1060.4276,0.106674
1062.2913,0.106697
1064.1550,0.107114
1066.0186,0.107872
1067.8823,0.108856
1069.7460,0.110085
1071.6096,0.111487
1073.4733,0.112869
1075.3370,0.114372
1077.2006,0.116172
1079.0643,0.118214
1080.9280,0.120422
1082.7916,0.122699
1084.6553,0.125261
1086.5190,0.128264
1088.3826,0.131466
1090.2463,0.135053
1092.1100,0.139448
1093.9737,0.144404
1095.8373,0.149681
1097.7010,0.155409
1099.5647,0.161251
1101.4283,0.167089
1103.2920,0.172247
1105.1557,0.175494
1107.0193,0.175544
1108.8830,0.171021
1110.7467,0.161962
1112.6103,0.150391
1114.4740,0.138285
1116.3377,0.127379
1118.2014,0.118683
1120.0650,0.112337
1121.9287,0.107930
1123.7924,0.104829
1125.6560,0.102473
1127.5197,0.100281
1129.3834,0.097831
1131.2470,0.095197
1133.1107,0.092487
1134.9744,0.089917
1136.8380,0.087563
1138.7017,0.085491
1140.5654,0.083931
1142.4290,0.082801
1144.2927,0.081941
1146.1564,0.081257
1148.0201,0.080523
1149.8837,0.079991
1151.7474,0.079812
1153.6111,0.080073
1155.4747,0.080735
1157.3384,0.081651
1159.2021,0.082889
1161.0657,0.084426
1162.9294,0.086269
1164.7931,0.088388
1166.6567,0.090851
1168.5204,0.094063
1170.3841,0.097672
1172.2477,0.100360
1174.1114,0.100302
1175.9751,0.096778
1177.8388,0.091445
1179.7024,0.086939
1181.5661,0.084355
1183.4298,0.083130
1185.2934,0.082497
1187.1571,0.081878
1189.0208,0.081110
1190.8844,0.080357
1192.7481,0.079696
1194.6118,0.079166
1196.4754,0.078924
1198.3391,0.078906
1200.2028,0.078905
1202.0665,0.078840
1203.9301,0.078666
1205.7938,0.078490
1207.6575,0.078407
1209.5211,0.078515
1211.3848,0.078989
1213.2485,0.079597
1215.1121,0.080066
1216.9758,0.080301
1218.8395,0.080175
1220.7031,0.079696
1222.5668,0.079245
1224.4305,0.079118
1226.2941,0.079208
1228.1578,0.079395
1230.0215,0.079609
1231.8852,0.079857
1233.7488,0.080186
1235.6125,0.080587
1237.4762,0.081003
1239.3398,0.081353
1241.2035,0.081625
1243.0672,0.081959
1244.9308,0.082415
1246.7945,0.082936
1248.6582,0.083555
1250.5218,0.084268
1252.3855,0.085009
1254.2492,0.085743
1256.1129,0.086498
1257.9765,0.087489
1259.8402,0.088761
1261.7039,0.090124
1263.5675,0.091305
1265.4312,0.092043
1267.2949,0.091819
1269.1585,0.090904
1271.0222,0.090352
1272.8859,0.090449
1274.7495,0.090991
1276.6132,0.092029
1278.4769,0.093532
1280.3405,0.095337
1282.2042,0.097292
1284.0679,0.099366
1285.9316,0.101452
1287.7952,0.103627
1289.6589,0.106083
1291.5226,0.109187
1293.3862,0.113063
1295.2499,0.117875
1297.1136,0.123759
1298.9772,0.130729
1300.8409,0.139004
1302.7046,0.147815
1304.5682,0.153960
1306.4319,0.152998
1308.2956,0.141426
1310.1592,0.121310
1312.0229,0.101576
1313.8866,0.089418
1315.7503,0.085656
1317.6139,0.086780
1319.4776,0.089839
1321.3413,0.092959
1323.2049,0.096149
1325.0686,0.099924
1326.9323,0.103267
1328.7959,0.105265
1330.6596,0.105901
1332.5233,0.105486
1334.3869,0.104178
1336.2506,0.102861
1338.1143,0.102799
1339.9780,0.103982
1341.8416,0.103915
1343.7053,0.103503
1345.5690,0.104121
1347.4326,0.105728
1349.2963,0.108251
1351.1600,0.111157
1353.0236,0.114207
1354.8873,0.117563
1356.7510,0.119794
1358.6146,0.120455
1360.4783,0.121406
1362.3420,0.124647
1364.2056,0.127266
1366.0693,0.128580
1367.9330,0.131967
1369.7967,0.136506
1371.6603,0.140299
1373.5240,0.145985
1375.3877,0.152140
1377.2513,0.155898
1379.1150,0.160478
1380.9787,0.166370
1382.8423,0.172516
1384.7060,0.179483
1386.5697,0.188893
1388.4333,0.199223
1390.2970,0.203941
1392.1607,0.205713
1394.0244,0.205815
1395.8880,0.201004
1397.7517,0.193039
1399.6154,0.184338
1401.4790,0.175866
1403.3427,0.168335
1405.2064,0.156201
1407.0700,0.139388
1408.9337,0.123061
1410.7974,0.108020
1412.6610,0.097342
1414.5247,0.092323
1416.3884,0.091932
1418.2520,0.096155
1420.1157,0.103762
1421.9794,0.106472
1423.8431,0.103405
1425.7067,0.093350
1427.5704,0.083407
1429.4341,0.077222
1431.2977,0.074716
1433.1614,0.074636
1435.0251,0.076488
1436.8887,0.080699
1438.7524,0.083152
1440.6161,0.084292
1442.4797,0.086133
1444.3434,0.087572
1446.2071,0.089038
1448.0707,0.090111
1449.9344,0.088763
1451.7981,0.086002
1453.6618,0.083227
1455.5254,0.082804
1457.3891,0.087938
1459.2528,0.090357
1461.1164,0.089454
1462.9801,0.089970
1464.8438,0.090688
1466.7074,0.088161
1468.5711,0.084888
1470.4348,0.083430
1472.2984,0.084936
1474.1621,0.086233
1476.0258,0.085265
1477.8895,0.083709
1479.7531,0.082994
1481.6168,0.083634
1483.4805,0.084358
1485.3441,0.084999
1487.2078,0.086742
1489.0715,0.090131
1490.9351,0.092962
1492.7988,0.092079
1494.6625,0.091962
1496.5261,0.094612
1498.3898,0.097481
1500.2535,0.097943
1502.1171,0.097481
1503.9808,0.097405
1505.8445,0.101172
1507.7082,0.111764
1509.5718,0.111804
1511.4355,0.111067
1513.2992,0.111627
1515.1628,0.112436
1517.0265,0.113817
1518.8902,0.113667
1520.7538,0.114859
1522.6175,0.116419
1524.4812,0.115826
1526.3448,0.116401
1528.2085,0.116790
1530.0722,0.116201
1531.9359,0.117348
1533.7995,0.120317
1535.6632,0.120012
1537.5269,0.119684
1539.3905,0.124483
1541.2542,0.133012
1543.1179,0.134572
1544.9815,0.136460
1546.8452,0.137950
1548.7089,0.140262
1550.5725,0.144263
1552.4362,0.146807
1554.2999,0.148964
1556.1635,0.151594
1558.0272,0.158014
1559.8909,0.171419
1561.7546,0.167485
1563.6182,0.166122
1565.4819,0.167964
1567.3456,0.170119
1569.2092,0.174174
1571.0729,0.177855
1572.9366,0.178349
1574.8002,0.181003
1576.6639,0.186763
1578.5276,0.188477
1580.3912,0.188652
1582.2549,0.190139
1584.1186,0.191766
1585.9822,0.193121
1587.8459,0.194166
1589.7096,0.194719
1591.5733,0.194742
1593.4369,0.194731
1595.3006,0.194147
1597.1643,0.192859
1599.0279,0.191317
1600.8916,0.189648
1602.7553,0.187745
1604.6189,0.186315
1606.4826,0.185146
1608.3463,0.183958
1610.2099,0.182085
1612.0736,0.179422
1613.9373,0.176027
1615.8010,0.171945
1617.6646,0.164164
1619.5283,0.157486
1621.3920,0.152623
1623.2556,0.145880
1625.1193,0.137334
1626.9830,0.130129
1628.8466,0.120618
1630.7103,0.111399
1632.5740,0.104017
1634.4376,0.096306
1636.3013,0.084931
1638.1650,0.079002
1640.0286,0.077783
1641.8923,0.076781
1643.7560,0.076776
1645.6197,0.078397
1647.4833,0.080577
1649.3470,0.081780
1651.2107,0.084051
1653.0743,0.089498
1654.9380,0.092870
1656.8017,0.093035
1658.6653,0.094264
1660.5290,0.095527
1662.3927,0.096052
1664.2563,0.095352
1666.1200,0.094622
1667.9837,0.094346
1669.8474,0.093919
1671.7110,0.093753
1673.5747,0.094735
1675.4384,0.096834
1677.3020,0.098399
1679.1657,0.099529
1681.0294,0.101064
1682.8930,0.102757
1684.7567,0.104793
1686.6204,0.104564
1688.4840,0.102796
1690.3477,0.099590
1692.2114,0.095532
1694.0750,0.091777
1695.9387,0.085963
1697.8024,0.079379
1699.6661,0.075315
1701.5297,0.066970
1703.3934,0.061625
1705.2571,0.055526
1707.1207,0.046348
1708.9844,0.040807
1710.8481,0.036898
1712.7117,0.033682
1714.5754,0.031295
1716.4391,0.028998
1718.3027,0.027124
1720.1664,0.026347
1722.0301,0.025833
1723.8937,0.024240
1725.7574,0.021915
1727.6211,0.020056
1729.4848,0.018407
1731.3484,0.016920
1733.2121,0.015742
1735.0758,0.013861
1736.9394,0.013305
1738.8031,0.013625
1740.6668,0.013305
1742.5304,0.012942
1744.3941,0.012640
1746.2578,0.012355
1748.1214,0.012190
1749.9851,0.011732
1751.8488,0.011218
1753.7125,0.011141
1755.5761,0.011310
1757.4398,0.011279
1759.3035,0.011192
1761.1671,0.011320
1763.0308,0.011162
1764.8945,0.011081
1766.7581,0.011230
1768.6218,0.011166
1770.4855,0.011095
1772.3491,0.010980
1774.2128,0.010744
1776.0765,0.010828
1777.9401,0.010766
1779.8038,0.010927
1781.6675,0.011312
1783.5312,0.011364
1785.3948,0.011213
1787.2585,0.011147
1789.1222,0.011213
1790.9858,0.011259
1792.8495,0.010984
1794.7132,0.010937
1796.5768,0.011208
1798.4405,0.011454
1800.3042,0.011554
1802.1678,0.011463
1804.0315,0.011464
1805.8952,0.011663
1807.7589,0.011865
1809.6225,0.011982
1811.4862,0.011784
1813.3499,0.011671
1815.2135,0.011739
1817.0772,0.011657
1818.9409,0.011665
1820.8045,0.011806
1822.6682,0.011829
1824.5319,0.011801
1826.3955,0.011679
1828.2592,0.011548
1830.1229,0.011358
1831.9865,0.011140
1833.8502,0.011234
1835.7139,0.011437
1837.5776,0.011437
1839.4412,0.011377
1841.3049,0.011424
1843.1686,0.011569
1845.0322,0.011377
1846.8959,0.011213
1848.7596,0.011347
1850.6232,0.011481
1852.4869,0.011654
1854.3506,0.011698
1856.2142,0.011779
1858.0779,0.012041
1859.9416,0.011967
1861.8052,0.011709
1863.6689,0.011638
1865.5326,0.011696
1867.3963,0.011813
1869.2599,0.011647
1871.1236,0.011252
1872.9873,0.011266
1874.8509,0.011449
1876.7146,0.011610
1878.5783,0.011795
1880.4419,0.012088
1882.3056,0.012024
1884.1693,0.011639
1886.0329,0.011703
1887.8966,0.011886
1889.7603,0.011544
1891.6240,0.011093
1893.4876,0.011025
1895.3513,0.011195
1897.2150,0.011505
1899.0786,0.011739
1900.9423,0.011903
1902.8060,0.011805
1904.6696,0.011746
1906.5333,0.012050
1908.3970,0.011953
1910.2606,0.011392
1912.1243,0.011392
1913.9880,0.011977
1915.8516,0.012138
1917.7153,0.011750
1919.5790,0.011192
1921.4427,0.011218
1923.3063,0.011386
1925.1700,0.011153
1927.0337,0.011084
1928.8973,0.011061
1930.7610,0.010912
1932.6247,0.011260
1934.4883,0.011425
1936.3520,0.011046
1938.2157,0.011004
1940.0793,0.011299
1941.9430,0.011121
1943.8067,0.009982
1945.6704,0.009595
1947.5340,0.009551
1949.3977,0.008912
1951.2614,0.008701
1953.1250,0.009012
1954.9887,0.008935
1956.8524,0.008482
1958.7160,0.007879
1960.5797,0.006688
1962.4434,0.006228
1964.3070,0.006305
1966.1707,0.005714
1968.0344,0.004246
1969.8980,0.002760
1971.7617,0.002087
1973.6254,0.002127
1975.4891,0.003606
1977.3527,0.005223
1979.2164,0.005565
1981.0801,0.005385
1982.9437,0.004874
1984.8074,0.004721
1986.6711,0.004985
1988.5347,0.005295
1990.3984,0.005824
1992.2621,0.006316
1994.1257,0.006339
1995.9894,0.006235
1997.8531,0.007271
1999.7167,0.008610
2001.5804,0.008141
2003.4441,0.006110
2005.3078,0.004652
2007.1714,0.004694
2009.0351,0.004687
2010.8988,0.003451
2012.7624,0.003757
2014.6261,0.005269
2016.4898,0.004544
2018.3534,0.003001
2020.2171,0.003616
2022.0808,0.004393
2023.9444,0.003924
2025.8081,0.004066
2027.6718,0.003359
2029.5355,0.002730
2031.3991,0.002885
2033.2628,0.002386
2035.1265,0.003456
2036.9901,0.005698
2038.8538,0.006383
2040.7175,0.006272
2042.5811,0.006521
2044.4448,0.007217
2046.3085,0.008103
2048.1721,0.008206
2050.0358,0.008624
2051.8995,0.009528
2053.7631,0.010348
2055.6268,0.010973
2057.4905,0.011467
2059.3542,0.011728
2061.2178,0.011321
2063.0815,0.011119
2064.9452,0.011573
2066.8088,0.012027
2068.6725,0.011996
2070.5362,0.012120
2072.3998,0.013052
2074.2635,0.013452
2076.1272,0.013253
2077.9908,0.013872
2079.8545,0.014816
2081.7182,0.014586
2083.5819,0.014043
2085.4455,0.014227
2087.3092,0.014534
2089.1729,0.014567
2091.0365,0.014839
2092.9002,0.014920
2094.7639,0.014085
2096.6275,0.013946
2098.4912,0.014669
2100.3549,0.015337
2102.2185,0.015745
2104.0822,0.015079
2105.9459,0.014588
2107.8095,0.015150
2109.6732,0.015158
2111.5369,0.014834
2113.4006,0.015089
2115.2642,0.015361
2117.1279,0.015948
2118.9916,0.015888
2120.8552,0.015143
2122.7189,0.015255
2124.5826,0.015480
2126.4462,0.014965
2128.3099,0.014400
2130.1736,0.014080
2132.0372,0.013726
2133.9009,0.012540
2135.7646,0.011251
2137.6282,0.011430
2139.4919,0.011886
2141.3556,0.011797
2143.2193,0.010718
2145.0829,0.010472
2146.9466,0.011728
2148.8103,0.010743
2150.6739,0.008326
2152.5376,0.007145
2154.4013,0.005246
2156.2649,0.003320
2158.1286,0.003508
2159.9923,0.004462
2161.8559,0.005768
2163.7196,0.006857
2165.5833,0.006988
2167.4470,0.006595
2169.3106,0.006014
2171.1743,0.005765
2173.0380,0.007644
2174.9016,0.008544
2176.7653,0.006883
2178.6290,0.006728
2180.4926,0.007751
2182.3563,0.008623
2184.2200,0.009582
2186.0836,0.010242
2187.9473,0.010574
2189.8110,0.009998
2191.6746,0.010574
2193.5383,0.011392
2195.4020,0.010827
2197.2657,0.010941
2199.1293,0.012244
2200.9930,0.012741
2202.8567,0.012345
2204.7203,0.012703
2206.5840,0.012854
2208.4477,0.012573
2210.3113,0.013300
2212.1750,0.013989
2214.0387,0.014313
2215.9023,0.014413
2217.7660,0.013890
2219.6297,0.013574
2221.4934,0.013690
2223.3570,0.014487
2225.2207,0.015479
2227.0844,0.014992
2228.9480,0.014596
2230.8117,0.015481
2232.6754,0.016025
2234.5390,0.015975
2236.4027,0.015817
2238.2664,0.015965
2240.1300,0.016601
2241.9937,0.016948
2243.8574,0.017324
2245.7210,0.017520
2247.5847,0.016940
2249.4484,0.016806
2251.3121,0.017249
2253.1757,0.017550
2255.0394,0.017573
2256.9031,0.017917
2258.7667,0.018449
2260.6304,0.018789
2262.4941,0.019179
2264.3577,0.019537
2266.2214,0.019588
2268.0851,0.019652
2269.9487,0.019950
2271.8124,0.020697
2273.6761,0.021485
2275.5397,0.021627
2277.4034,0.021380
2279.2671,0.021418
2281.1308,0.021723
2282.9944,0.022090
2284.8581,0.022452
2286.7218,0.022824
2288.5854,0.023003
2290.4491,0.023061
2292.3128,0.023091
2294.1764,0.023085
2296.0401,0.023204
2297.9038,0.023510
2299.7674,0.023469
2301.6311,0.023348
2303.4948,0.023624
2305.3585,0.024068
2307.2221,0.024319
2309.0858,0.024215
2310.9495,0.024008
2312.8131,0.023803
2314.6768,0.023834
2316.5405,0.024051
2318.4041,0.024125
2320.2678,0.024025
2322.1315,0.024180
2323.9951,0.024422
2325.8588,0.024098
2327.7225,0.023589
2329.5861,0.023312
2331.4498,0.023213
2333.3135,0.023367
2335.1772,0.023435
2337.0408,0.023327
2338.9045,0.023321
2340.7682,0.023626
2342.6318,0.024034
2344.4955,0.024139
2346.3592,0.024001
2348.2228,0.023708
2350.0865,0.023388
2351.9502,0.023182
2353.8138,0.023199
2355.6775,0.023194
2357.5412,0.023228
2359.4049,0.023512
2361.2685,0.023630
2363.1322,0.023308
2364.9959,0.023018
2366.8595,0.023124
2368.7232,0.023612
2370.5869,0.023854
2372.4505,0.023742
2374.3142,0.023613
2376.1779,0.023840
2378.0415,0.024221
2379.9052,0.024390
2381.7689,0.024311
2383.6325,0.024349
2385.4962,0.024618
2387.3599,0.024757
2389.2236,0.024486
2391.0872,0.024245
2392.9509,0.024382
2394.8146,0.024507
2396.6782,0.024516
2398.5419,0.024821
2400.4056,0.024956
2402.2692,0.024720
2404.1329,0.024724
2405.9966,0.024816
2407.8602,0.024842
2409.7239,0.025165
2411.5876,0.025438
2413.4512,0.025429
2415.3149,0.025346
2417.1786,0.025471
2419.0423,0.025605
2420.9059,0.025638
2422.7696,0.025765
2424.6333,0.026006
2426.4969,0.025953
2428.3606,0.025933
2430.2243,0.026049
2432.0879,0.025979
2433.9516,0.025957
2435.8153,0.025814
2437.6789,0.025797
2439.5426,0.026286
2441.4063,0.026534
2443.2700,0.026399
2445.1336,0.026223
2446.9973,0.026199
2448.8610,0.026149
2450.7246,0.026388
2452.5883,0.026708
2454.4520,0.026464
2456.3156,0.025882
2458.1793,0.025769
2460.0430,0.026247
2461.9066,0.026926
2463.7703,0.026908
2465.6340,0.026470
2467.4976,0.026261
2469.3613,0.026110
2471.2250,0.026119
2473.0887,0.026365
2474.9523,0.026630
2476.8160,0.026684
2478.6797,0.026665
2480.5433,0.026818
2482.4070,0.027038
2484.2707,0.027270
2486.1343,0.027255
2487.9980,0.027391
2489.8617,0.027856
2491.7253,0.027960
2493.5890,0.028045
2495.4527,0.028431
2497.3164,0.028428
2499.1800,0.028176
2501.0437,0.028355
2502.9074,0.028635
2504.7710,0.028521
2506.6347,0.028584
2508.4984,0.028906
2510.3620,0.029193
2512.2257,0.029285
2514.0894,0.029067
2515.9530,0.028755
2517.8167,0.029034
2519.6804,0.029113
2521.5440,0.029490
2523.4077,0.030274
2525.2714,0.030185
2527.1351,0.029707
2528.9987,0.029692
2530.8624,0.029996
2532.7261,0.030028
2534.5897,0.029987
2536.4534,0.030054
2538.3171,0.029970
2540.1807,0.029983
2542.0444,0.030022
2543.9081,0.030202
2545.7717,0.030424
2547.6354,0.030443
2549.4991,0.030297
2551.3627,0.030466
2553.2264,0.030686
2555.0901,0.030750
2556.9538,0.030843
2558.8174,0.031101
2560.6811,0.031497
2562.5448,0.031862
2564.4084,0.031886
2566.2721,0.031728
2568.1358,0.031868
2569.9994,0.032218
2571.8631,0.032426
2573.7268,0.032447
2575.5904,0.032508
2577.4541,0.032559
2579.3178,0.032530
2581.1815,0.032634
2583.0451,0.032807
2584.9088,0.033026
2586.7725,0.033322
2588.6361,0.033583
2590.4998,0.033668
2592.3635,0.033750
2594.2271,0.033953
2596.0908,0.034216
2597.9545,0.034634
2599.8181,0.034750
2601.6818,0.034452
2603.5455,0.034510
2605.4091,0.034848
2607.2728,0.035175
2609.1365,0.035522
2611.0002,0.035566
2612.8638,0.035373
2614.7275,0.035506
2616.5912,0.035603
2618.4548,0.035908
2620.3185,0.036515
2622.1822,0.036907
2624.0458,0.036809
2625.9095,0.037013
2627.7732,0.037507
2629.6368,0.037827
2631.5005,0.037885
2633.3642,0.038234
2635.2279,0.038697
2637.0915,0.038917
2638.9552,0.039129
2640.8189,0.039278
2642.6825,0.039432
2644.5462,0.039611
2646.4099,0.039675
2648.2735,0.040075
2650.1372,0.040607
2652.0009,0.040677
2653.8645,0.040879
2655.7282,0.041284
2657.5919,0.041159
2659.4555,0.041050
2661.3192,0.041132
2663.1829,0.041122
2665.0466,0.041218
2666.9102,0.041445
2668.7739,0.041711
2670.6376,0.041840
2672.5012,0.041784
2674.3649,0.041828
2676.2286,0.041944
2678.0922,0.042287
2679.9559,0.042802
2681.8196,0.043275
2683.6832,0.043512
2685.5469,0.043588
2687.4106,0.043802
2689.2742,0.044086
2691.1379,0.044277
2693.0016,0.044431
2694.8653,0.044678
2696.7289,0.045233
2698.5926,0.045575
2700.4563,0.045696
2702.3199,0.045918
2704.1836,0.046326
2706.0473,0.046731
2707.9109,0.047156
2709.7746,0.047398
2711.6383,0.047762
2713.5019,0.048168
2715.3656,0.048565
2717.2293,0.048932
2719.0930,0.049296
2720.9566,0.049597
2722.8203,0.049951
2724.6840,0.050632
2726.5476,0.051303
2728.4113,0.051892
2730.2750,0.052382
2732.1386,0.052657
2734.0023,0.052918
2735.8660,0.053512
2737.7296,0.054061
2739.5933,0.054400
2741.4570,0.054772
2743.3206,0.055175
2745.1843,0.055682
2747.0480,0.055968
2748.9117,0.056450
2750.7753,0.057177
2752.6390,0.057792
2754.5027,0.058276
2756.3663,0.058775
2758.2300,0.059127
2760.0937,0.059793
2761.9573,0.060745
2763.8210,0.061359
2765.6847,0.061729
2767.5483,0.062357
2769.4120,0.063141
2771.2757,0.063952
2773.1394,0.064537
2775.0030,0.065213
2776.8667,0.065886
2778.7304,0.066581
2780.5940,0.066918
2782.4577,0.067047
2784.3214,0.067036
2786.1850,0.066845
2788.0487,0.066633
2789.9124,0.066546
2791.7760,0.066255
2793.6397,0.065765
2795.5034,0.065050
2797.3670,0.064564
2799.2307,0.064436
2801.0944,0.064217
2802.9581,0.063797
2804.8217,0.063453
2806.6854,0.063042
2808.5491,0.062761
2810.4127,0.062755
2812.2764,0.062853
2814.1401,0.062788
2816.0037,0.062896
2817.8674,0.063308
2819.7311,0.063628
2821.5947,0.063892
2823.4584,0.064086
2825.3221,0.064126
2827.1857,0.064255
2829.0494,0.063881
2830.9131,0.063511
2832.7768,0.063498
2834.6404,0.063991
2836.5041,0.064697
2838.3678,0.065116
2840.2314,0.065375
2842.0951,0.065866
2843.9588,0.066373
2845.8224,0.067093
2847.6861,0.067859
2849.5498,0.068680
2851.4134,0.069286
2853.2771,0.070156
2855.1408,0.071188
2857.0045,0.071979
2858.8681,0.072784
2860.7318,0.073886
2862.5955,0.074326
2864.4591,0.074301
2866.3228,0.074235
2868.1865,0.074203
2870.0501,0.073992
2871.9138,0.073902
2873.7775,0.074253
2875.6411,0.074750
2877.5048,0.075135
2879.3685,0.075485
2881.2321,0.075481
2883.0958,0.075703
2884.9595,0.076320
2886.8232,0.077062
2888.6868,0.077164
2890.5505,0.077216
2892.4142,0.077812
2894.2778,0.078558
2896.1415,0.078977
2898.0052,0.079110
2899.8688,0.079118
2901.7325,0.079211
2903.5962,0.079245
2905.4598,0.079192
2907.3235,0.079048
2909.1872,0.079549
2911.0509,0.080341
2912.9145,0.080947
2914.7782,0.081744
2916.6419,0.082635
2918.5055,0.083325
2920.3692,0.084223
2922.2329,0.084726
2924.0965,0.085060
2925.9602,0.085595
2927.8239,0.086421
2929.6875,0.087095
2931.5512,0.087567
2933.4149,0.087727
2935.2785,0.087856
2937.1422,0.088440
2939.0059,0.089138
2940.8696,0.089272
2942.7332,0.089451
2944.5969,0.089579
2946.4606,0.089829
2948.3242,0.089967
2950.1879,0.089857
2952.0516,0.089849
2953.9152,0.089957
2955.7789,0.089879
2957.6426,0.089953
2959.5062,0.090404
2961.3699,0.091136
2963.2336,0.091958
2965.0972,0.093020
2966.9609,0.093734
2968.8246,0.094364
2970.6883,0.095280
2972.5519,0.096016
2974.4156,0.096569
2976.2793,0.097328
2978.1429,0.098094
2980.0066,0.098784
2981.8703,0.098815
2983.7339,0.099107
2985.5976,0.099834
2987.4613,0.100319
2989.3249,0.100691
2991.1886,0.101228
2993.0523,0.101801
2994.9160,0.102522
2996.7796,0.103040
2998.6433,0.103942
3000.5070,0.104895
3002.3706,0.105710
3004.2343,0.106506
3006.0980,0.107123
3007.9616,0.107342
3009.8253,0.107867
3011.6890,0.108805
3013.5526,0.109548
3015.4163,0.109796
3017.2800,0.110196
3019.1436,0.110626
3021.0073,0.110968
3022.8710,0.111149
3024.7347,0.111387
3026.5983,0.111538
3028.4620,0.111670
3030.3257,0.111757
3032.1893,0.112399
3034.0530,0.112802
3035.9167,0.113044
3037.7803,0.112989
3039.6440,0.113160
3041.5077,0.113731
3043.3713,0.114725
3045.2350,0.115548
3047.0987,0.115739
3048.9624,0.115658
3050.8260,0.115801
3052.6897,0.115746
3054.5534,0.115998
3056.4170,0.116634
3058.2807,0.117015
3060.1444,0.116747
3062.0080,0.116594
3063.8717,0.115869
3065.7354,0.115991
3067.5990,0.116637
3069.4627,0.117214
3071.3264,0.117221
3073.1900,0.116696
3075.0537,0.115911
3076.9174,0.115251
3078.7811,0.114855
3080.6447,0.115122
3082.5084,0.114904
3084.3721,0.113699
3086.2357,0.112884
3088.0994,0.112616
3089.9631,0.111894
3091.8267,0.111014
3093.6904,0.110323
3095.5541,0.109752
3097.4177,0.108785
3099.2814,0.108320
3101.1451,0.107814
3103.0087,0.106937
3104.8724,0.105974
3106.7361,0.105198
3108.5998,0.104201
3110.4634,0.103595
3112.3271,0.102770
3114.1908,0.102006
3116.0544,0.101754
3117.9181,0.101642
3119.7818,0.100747
3121.6454,0.100208
3123.5091,0.099771
3125.3728,0.098576
3127.2364,0.097534
3129.1001,0.097303
3130.9638,0.096873
3132.8275,0.096813
3134.6911,0.096039
3136.5548,0.095419
3138.4185,0.095081
3140.2821,0.094793
3142.1458,0.094490
3144.0095,0.094177
3145.8731,0.093186
3147.7368,0.092337
3149.6005,0.091220
3151.4641,0.090767
3153.3278,0.090968
3155.1915,0.091209
3157.0551,0.090148
3158.9188,0.088650
3160.7825,0.087766
3162.6462,0.087527
3164.5098,0.086906
3166.3735,0.086119
3168.2372,0.084837
3170.1008,0.084182
3171.9645,0.084218
3173.8282,0.083786
3175.6918,0.082842
3177.5555,0.082084
3179.4192,0.081418
3181.2828,0.081224
3183.1465,0.081095
3185.0102,0.081065
3186.8739,0.079990
3188.7375,0.078990
3190.6012,0.078895
3192.4649,0.079238
3194.3285,0.078985
3196.1922,0.079021
3198.0559,0.079227
3199.9195,0.078972
3201.7832,0.078263
3203.6469,0.077991
3205.5105,0.078092
3207.3742,0.078595
3209.2379,0.078477
3211.1015,0.078904
3212.9652,0.078562
3214.8289,0.077713
3216.6926,0.077179
3218.5562,0.077852
3220.4199,0.078119
3222.2836,0.077679
3224.1472,0.077592
3226.0109,0.078042
3227.8746,0.078357
3229.7382,0.077929
3231.6019,0.077101
3233.4656,0.077776
3235.3292,0.079480
3237.1929,0.080275
3239.0566,0.079405
3240.9202,0.079191
3242.7839,0.079540
3244.6476,0.079553
3246.5113,0.079530
3248.3749,0.080636
3250.2386,0.081490
3252.1023,0.081348
3253.9659,0.081314
3255.8296,0.082054
3257.6933,0.083600
3259.5569,0.084836
3261.4206,0.084112
3263.2843,0.083259
3265.1479,0.083425
3267.0116,0.083814
3268.8753,0.083652
3270.7390,0.083690
3272.6026,0.083824
3274.4663,0.084193
3276.3300,0.083753
3278.1936,0.083851
3280.0573,0.084343
3281.9210,0.084028
3283.7846,0.082373
3285.6483,0.082102
3287.5120,0.082603
3289.3756,0.082103
3291.2393,0.080454
3293.1030,0.079780
3294.9666,0.079886
3296.8303,0.079647
3298.6940,0.078414
3300.5577,0.077703
3302.4213,0.076908
3304.2850,0.075660
3306.1487,0.074523
3308.0123,0.073992
3309.8760,0.073140
3311.7397,0.073330
3313.6033,0.073488
3315.4670,0.073305
3317.3307,0.073049
3319.1943,0.072415
3321.0580,0.072649
3322.9217,0.073067
3324.7854,0.073028
3326.6490,0.073967
3328.5127,0.073672
3330.3764,0.073176
3332.2400,0.073037
3334.1037,0.073058
3335.9674,0.072753
3337.8310,0.071551
3339.6947,0.070726
3341.5584,0.070584
3343.4220,0.068396
3345.2857,0.066733
3347.1494,0.066040
3349.0130,0.064640
3350.8767,0.064042
3352.7404,0.063470
3354.6041,0.062312
3356.4677,0.061333
3358.3314,0.060306
3360.1951,0.059904
3362.0587,0.058396
3363.9224,0.056682
3365.7861,0.055783
3367.6497,0.055819
3369.5134,0.055675
3371.3771,0.056184
3373.2407,0.055690
3375.1044,0.055418
3376.9681,0.056114
3378.8317,0.056148
3380.6954,0.054734
3382.5591,0.054430
3384.4228,0.055122
3386.2864,0.055245
3388.1501,0.055119
3390.0138,0.055155
3391.8774,0.055169
3393.7411,0.055120
3395.6048,0.054457
3397.4684,0.054887
3399.3321,0.055203
3401.1958,0.054413
3403.0594,0.053402
3404.9231,0.053092
3406.7868,0.052728
3408.6505,0.051690
3410.5141,0.049829
3412.3778,0.048519
3414.2415,0.047120
3416.1051,0.045005
3417.9688,0.043405
3419.8325,0.042489
3421.6961,0.040387
3423.5598,0.038824
3425.4235,0.037204
3427.2871,0.036086
3429.1508,0.035509
3431.0145,0.035176
3432.8781,0.033878
3434.7418,0.032101
3436.6055,0.030769
3438.4692,0.029601
3440.3328,0.028179
3442.1965,0.028611
3444.0602,0.027994
3445.9238,0.026940
3447.7875,0.026286
3449.6512,0.025133
3451.5148,0.024246
3453.3785,0.024111
3455.2422,0.023893
3457.1058,0.023500
3458.9695,0.023004
3460.8332,0.023128
3462.6969,0.022533
3464.5605,0.022295
3466.4242,0.022781
3468.2879,0.023517
3470.1515,0.022607
3472.0152,0.021327
3473.8789,0.020979
3475.7425,0.020867
3477.6062,0.019488
3479.4699,0.019094
3481.3335,0.018667
3483.1972,0.018265
3485.0609,0.017924
3486.9245,0.017804
3488.7882,0.017360
3490.6519,0.017634
3492.5156,0.017808
3494.3792,0.016929
3496.2429,0.016715
3498.1066,0.016668
3499.9702,0.015646
3501.8339,0.014877
3503.6976,0.013868
3505.5612,0.013542
3507.4249,0.014030
3509.2886,0.015131
3511.1522,0.014738
3513.0159,0.013894
3514.8796,0.014174
3516.7432,0.013136
3518.6069,0.012567
3520.4706,0.012764
3522.3343,0.011953
3524.1979,0.011537
3526.0616,0.012201
3527.9253,0.012688
3529.7889,0.010673
3531.6526,0.009501
3533.5163,0.010174
3535.3799,0.010450
3537.2436,0.009834
3539.1073,0.010792
3540.9709,0.011760
3542.8346,0.011460
3544.6983,0.010300
3546.5620,0.009880
3548.4256,0.009143
3550.2893,0.009224
3552.1530,0.010317
3554.0166,0.010912
3555.8803,0.009743
3557.7440,0.009799
3559.6076,0.010137
3561.4713,0.009489
3563.3350,0.008272
3565.1986,0.007086
3567.0623,0.005720
3568.9260,0.005677
3570.7896,0.007450
3572.6533,0.009331
3574.5170,0.010212
3576.3807,0.009212
3578.2443,0.008247
3580.1080,0.008841
3581.9717,0.009146
3583.8353,0.009238
3585.6990,0.009286
3587.5627,0.008137
3589.4263,0.007190
3591.2900,0.007816
3593.1537,0.009002
3595.0173,0.009542
3596.8810,0.008460
3598.7447,0.006652
3600.6084,0.006944
3602.4720,0.008211
3604.3357,0.008980
3606.1994,0.010538
3608.0630,0.011024
3609.9267,0.009500
3611.7904,0.006951
3613.6540,0.007071
3615.5177,0.007143
3617.3814,0.007439
3619.2450,0.007913
3621.1087,0.008021
3622.9724,0.009077
3624.8360,0.010336
3626.6997,0.010766
3628.5634,0.010892
3630.4271,0.009553
3632.2907,0.008174
3634.1544,0.008946
3636.0181,0.009437
3637.8817,0.009510
3639.7454,0.009881
3641.6091,0.009907
3643.4727,0.010482
3645.3364,0.010207
3647.2001,0.009082
3649.0637,0.007981
3650.9274,0.007546
3652.7911,0.007395
3654.6547,0.008420
3656.5184,0.009653
3658.3821,0.010406
3660.2458,0.011477
3662.1094,0.012240
3663.9731,0.012440
3665.8368,0.013052
3667.7004,0.013452
3669.5641,0.014115
3671.4278,0.016198
3673.2914,0.017616
3675.1551,0.017436
3677.0188,0.015385
3678.8824,0.010019
3680.7461,0.008347
3682.6098,0.007871
3684.4735,0.008990
3686.3371,0.010042
3688.2008,0.010405
3690.0645,0.009091
3691.9281,0.007605
3693.7918,0.008359
3695.6555,0.009689
3697.5191,0.010372
3699.3828,0.010369
3701.2465,0.010215
3703.1101,0.009912
3704.9738,0.009337
3706.8375,0.009902
3708.7011,0.009672
3710.5648,0.010003
3712.4285,0.009779
3714.2922,0.008483
3716.1558,0.008924
3718.0195,0.010361
3719.8832,0.011048
3721.7468,0.010512
3723.6105,0.010466
3725.4742,0.011085
3727.3378,0.010411
3729.2015,0.009852
3731.0652,0.009881
3732.9288,0.010110
3734.7925,0.008498
3736.6562,0.006260
3738.5199,0.006383
3740.3835,0.008124
3742.2472,0.008518
3744.1109,0.008725
3745.9745,0.008652
3747.8382,0.007909
3749.7019,0.008260
3751.5655,0.008007
3753.4292,0.006821
3755.2929,0.008614
3757.1565,0.010363
3759.0202,0.010814
3760.8839,0.010859
3762.7475,0.011327
3764.6112,0.011423
3766.4749,0.011904
3768.3386,0.012077
3770.2022,0.012503
3772.0659,0.011769
3773.9296,0.011572
3775.7932,0.012060
3777.6569,0.012333
3779.5206,0.012309
3781.3842,0.011920
3783.2479,0.011860
3785.1116,0.012723
3786.9752,0.013063
3788.8389,0.012419
3790.7026,0.011516
3792.5662,0.011824
3794.4299,0.012367
3796.2936,0.012142
3798.1573,0.011131
3800.0209,0.011009
3801.8846,0.011277
3803.7483,0.011272
3805.6119,0.011272
3807.4756,0.011775
3809.3393,0.012532
3811.2029,0.012502
3813.0666,0.011950
3814.9303,0.011920
3816.7939,0.012109
3818.6576,0.011994
3820.5213,0.011297
3822.3850,0.011441
3824.2486,0.011224
3826.1123,0.011695
3827.9760,0.012181
3829.8396,0.011904
3831.7033,0.011822
3833.5670,0.012382
3835.4306,0.012163
3837.2943,0.011546
3839.1580,0.011388
3841.0216,0.011337
3842.8853,0.010888
3844.7490,0.011223
3846.6126,0.011520
3848.4763,0.011702
3850.3400,0.012242
3852.2037,0.012520
3854.0673,0.011662
3855.9310,0.010308
3857.7947,0.010399
3859.6583,0.012119
3861.5220,0.012994
3863.3857,0.013003
3865.2493,0.012589
3867.1130,0.012462
3868.9767,0.012236
3870.8403,0.012684
3872.7040,0.011974
3874.5677,0.012536
3876.4314,0.013255
3878.2950,0.012776
3880.1587,0.012512
3882.0224,0.012730
3883.8860,0.012383
3885.7497,0.013015
3887.6134,0.013528
3889.4770,0.013060
3891.3407,0.013055
3893.2044,0.013039
3895.0680,0.013015
3896.9317,0.013644
3898.7954,0.013355
3900.6590,0.013299
3902.5227,0.013646
3904.3864,0.013346
3906.2501,0.012654
3908.1137,0.012781
3909.9774,0.013339
3911.8411,0.013812
3913.7047,0.014203
3915.5684,0.013793
3917.4321,0.013722
3919.2957,0.014707
3921.1594,0.014552
3923.0231,0.014270
3924.8867,0.014041
3926.7504,0.014115
3928.6141,0.013849
3930.4777,0.013872
3932.3414,0.013864
3934.2051,0.014270
3936.0688,0.013830
3937.9324,0.013855
3939.7961,0.014091
3941.6598,0.014386
3943.5234,0.014815
3945.3871,0.014597
3947.2508,0.014269
3949.1144,0.014906
3950.9781,0.014854
3952.8418,0.014272
3954.7054,0.014180
3956.5691,0.014498
3958.4328,0.014932
3960.2965,0.014836
3962.1601,0.014086
3964.0238,0.013846
3965.8875,0.014339
3967.7511,0.014841
3969.6148,0.014479
3971.4785,0.014696
3973.3421,0.015006
3975.2058,0.015434
3977.0695,0.015013
3978.9331,0.014373
3980.7968,0.014449
3982.6605,0.015219
3984.5241,0.015352
3986.3878,0.015128
3988.2515,0.014632
3990.1152,0.014568
3991.9788,0.014993
3993.8425,0.015455
3995.7062,0.015240
3997.5698,0.015537
3999.4335,0.015268
