Wavenumber,Intensity
650.4205,0.124327
652.2841,0.123084
654.1478,0.118648
656.0115,0.112781
657.8751,0.107311
659.7388,0.102052
661.6025,0.097994
663.4661,0.094713
665.3298,0.090989
667.1935,0.087395
669.0571,0.087634
670.9208,0.086097
672.7845,0.084743
674.6481,0.086525
676.5118,0.089139
678.3755,0.089586
680.2392,0.089311
682.1028,0.089501
683.9665,0.089298
685.8302,0.089132
687.6938,0.089777
689.5575,0.089082
691.4212,0.090116
693.2848,0.092400
695.1485,0.093706
697.0122,0.093039
698.8758,0.092814
700.7395,0.093127
702.6032,0.091758
704.4669,0.090657
706.3305,0.089663
708.1942,0.085934
710.0579,0.081295
711.9215,0.078225
713.7852,0.075031
715.6489,0.071172
717.5125,0.068083
719.3762,0.064985
721.2399,0.062599
723.1035,0.060216
724.9672,0.058019
726.8309,0.056336
728.6945,0.054814
730.5582,0.052906
732.4219,0.050749
734.2856,0.049219
736.1492,0.048499
738.0129,0.047927
739.8766,0.048529
741.7402,0.050075
743.6039,0.051315
745.4676,0.051823
747.3312,0.051898
749.1949,0.051699
751.0586,0.051609
752.9222,0.051405
754.7859,0.051208
756.6496,0.050777
758.5132,0.050503
760.3769,0.050551
762.2406,0.050200
764.1043,0.049719
765.9679,0.049772
767.8316,0.049890
769.6953,0.049996
771.5589,0.050510
773.4226,0.051069
775.2863,0.051422
777.1499,0.052019
779.0136,0.052380
780.8773,0.052884
782.7409,0.053352
784.6046,0.053752
786.4683,0.054937
788.3320,0.056214
790.1956,0.057036
792.0593,0.058027
793.9230,0.059052
795.7866,0.060201
797.6503,0.061062
799.5140,0.061672
801.3776,0.062654
803.2413,0.063284
805.1050,0.063286
806.9686,0.063352
808.8323,0.062958
810.6960,0.061544
812.5596,0.060042
814.4233,0.059184
816.2870,0.058238
818.1507,0.057593
820.0143,0.057245
821.8780,0.057355
823.7417,0.058114
825.6053,0.059357
827.4690,0.061414
829.3327,0.063791
831.1963,0.063763
833.0600,0.061400
834.9237,0.060073
836.7873,0.060893
838.6510,0.062079
840.5147,0.062208
842.3784,0.061732
844.2420,0.060533
846.1057,0.058311
847.9694,0.053801
849.8330,0.045860
851.6967,0.037520
853.5604,0.031716
855.4240,0.028752
857.2877,0.027280
859.1514,0.026468
861.0150,0.026029
862.8787,0.026038
864.7424,0.026276
866.6060,0.026601
868.4697,0.027233
870.3334,0.027945
872.1971,0.028823
874.0607,0.030010
875.9244,0.031236
877.7881,0.032720
879.6517,0.034855
881.5154,0.037337
883.3791,0.039245
885.2427,0.039911
887.1064,0.038775
888.9701,0.036105
890.8337,0.033176
892.6974,0.031017
894.5611,0.030064
896.4247,0.029924
898.2884,0.030213
900.1521,0.030806
902.0158,0.031661
903.8794,0.033049
905.7431,0.035125
907.6068,0.037669
909.4704,0.040034
911.3341,0.042381
913.1978,0.044955
915.0614,0.046096
916.9251,0.042937
918.7888,0.036558
920.6524,0.031747
922.5161,0.029956
924.3798,0.029726
926.2435,0.030119
928.1071,0.030644
929.9708,0.031113
931.8345,0.031834
933.6981,0.032824
935.5618,0.034106
937.4255,0.035533
939.2891,0.037173
941.1528,0.038650
943.0165,0.039511
944.8801,0.039456
946.7438,0.038159
948.6075,0.036410
950.4711,0.035333
952.3348,0.035203
954.1985,0.035644
956.0622,0.036227
957.9258,0.036902
959.7895,0.037838
961.6532,0.038968
963.5168,0.040093
965.3805,0.041348
967.2442,0.043003
969.1078,0.044948
970.9715,0.047007
972.8352,0.049443
974.6988,0.053153
976.5625,0.058933
978.4262,0.068045
980.2899,0.079735
982.1535,0.084865
984.0172,0.075424
985.8809,0.063625
987.7445,0.060577
989.6082,0.061320
991.4719,0.058095
993.3355,0.050580
995.1992,0.043282
997.0629,0.038877
998.9265,0.036936
1000.7902,0.036321
1002.6539,0.036289
1004.5175,0.036452
1006.3812,0.036911
1008.2449,0.037551
1010.1086,0.038160
1011.9722,0.038687
1013.8359,0.039414
1015.6996,0.040337
1017.5632,0.041331
1019.4269,0.042234
1021.2906,0.042973
1023.1542,0.043887
1025.0179,0.044806
1026.8816,0.045622
1028.7452,0.046589
1030.6089,0.047562
1032.4726,0.048565
1034.3362,0.049801
1036.1999,0.051272
1038.0636,0.052907
1039.9273,0.054604
1041.7909,0.056494
1043.6546,0.058701
1045.5183,0.060860
1047.3819,0.062565
1049.2456,0.063091
1051.1093,0.061647
1052.9729,0.058776
1054.8366,0.056413
1056.7003,0.055705
1058.5639,0.055989
1060.4276,0.055777
1062.2913,0.054129
1064.1550,0.051818
1066.0186,0.050226
1067.8823,0.049810
1069.7460,0.050055
1071.6096,0.050574
1073.4733,0.051675
1075.3370,0.053006
1077.2006,0.054197
1079.0643,0.055584
1080.9280,0.057108
1082.7916,0.058617
1084.6553,0.060323
1086.5190,0.062256
1088.3826,0.064234
1090.2463,0.066232
1092.1100,0.068470
1093.9737,0.071081
1095.8373,0.074061
1097.7010,0.077166
1099.5647,0.080328
1101.4283,0.083489
1103.2920,0.086145
1105.1557,0.087980
1107.0193,0.088202
1108.8830,0.086159
1110.7467,0.082211
1112.6103,0.077067
1114.4740,0.071752
1116.3377,0.067010
1118.2014,0.063124
1120.0650,0.060321
1121.9287,0.058552
1123.7924,0.057505
1125.6560,0.056951
1127.5197,0.056499
1129.3834,0.055661
1131.2470,0.054470
1133.1107,0.053126
1134.9744,0.051799
1136.8380,0.050806
1138.7017,0.050315
1140.5654,0.050097
1142.4290,0.050275
1144.2927,0.050875
1146.1564,0.051712
1148.0201,0.053003
1149.8837,0.054729
1151.7474,0.056569
1153.6111,0.058379
1155.4747,0.059665
1157.3384,0.059261
1159.2021,0.056443
1161.0657,0.052307
1162.9294,0.049031
1164.7931,0.047668
1166.6567,0.047735
1168.5204,0.048672
1170.3841,0.050096
1172.2477,0.051276
1174.1114,0.051434
1175.9751,0.050375
1177.8388,0.048662
1179.7024,0.047198
1181.5661,0.046509
1183.4298,0.046423
1185.2934,0.046606
1187.1571,0.046659
1189.0208,0.046418
1190.8844,0.046148
1192.7481,0.045903
1194.6118,0.045758
1196.4754,0.045849
1198.3391,0.046095
1200.2028,0.046382
1202.0665,0.046662
1203.9301,0.046833
1205.7938,0.046775
1207.6575,0.046760
1209.5211,0.046929
1211.3848,0.047104
1213.2485,0.047480
1215.1121,0.047991
1216.9758,0.048426
1218.8395,0.048727
1220.7031,0.048885
1222.5668,0.049191
1224.4305,0.049734
1226.2941,0.050237
1228.1578,0.050616
1230.0215,0.051003
1231.8852,0.051435
1233.7488,0.051882
1235.6125,0.052339
1237.4762,0.052795
1239.3398,0.053232
1241.2035,0.053805
1243.0672,0.054663
1244.9308,0.055628
1246.7945,0.056558
1248.6582,0.057617
1250.5218,0.058957
1252.3855,0.060562
1254.2492,0.062269
1256.1129,0.064175
1257.9765,0.066265
1259.8402,0.068036
1261.7039,0.068644
1263.5675,0.067433
1265.4312,0.064722
1267.2949,0.061611
1269.1585,0.059339
1271.0222,0.058392
1272.8859,0.058545
1274.7495,0.059416
1276.6132,0.060776
1278.4769,0.062426
1280.3405,0.064401
1282.2042,0.066703
1284.0679,0.069361
1285.9316,0.072629
1287.7952,0.076662
1289.6589,0.081388
1291.5226,0.086138
1293.3862,0.088996
1295.2499,0.088276
1297.1136,0.085157
1298.9772,0.082722
1300.8409,0.083048
1302.7046,0.085563
1304.5682,0.087085
1306.4319,0.084491
1308.2956,0.077250
1310.1592,0.067669
1312.0229,0.059459
1313.8866,0.055051
1315.7503,0.054430
1317.6139,0.056038
1319.4776,0.058786
1321.3413,0.061908
1323.2049,0.065229
1325.0686,0.068977
1326.9323,0.073170
1328.7959,0.077642
1330.6596,0.081591
1332.5233,0.083408
1334.3869,0.081451
1336.2506,0.077071
1338.1143,0.073653
1339.9780,0.072375
1341.8416,0.071543
1343.7053,0.069886
1345.5690,0.067813
1347.4326,0.066654
1349.2963,0.067003
1351.1600,0.068297
1353.0236,0.070123
1354.8873,0.072598
1356.7510,0.075195
1358.6146,0.077356
1360.4783,0.079635
1362.3420,0.082907
1364.2056,0.086308
1366.0693,0.089168
1367.9330,0.093032
1369.7967,0.097684
1371.6603,0.101960
1373.5240,0.107097
1375.3877,0.112761
1377.2513,0.117254
1379.1150,0.122144
1380.9787,0.127778
1382.8423,0.133344
1384.7060,0.138218
1386.5697,0.140715
1388.4333,0.139196
1390.2970,0.134590
1392.1607,0.129184
1394.0244,0.124100
1395.8880,0.120992
1397.7517,0.120034
1399.6154,0.118410
1401.4790,0.114301
1403.3427,0.106462
1405.2064,0.092721
1407.0700,0.079763
1408.9337,0.073412
1410.7974,0.071059
1412.6610,0.069852
1414.5247,0.067085
1416.3884,0.062825
1418.2520,0.058516
1420.1157,0.054830
1421.9794,0.053202
1423.8431,0.051000
1425.7067,0.046768
1427.5704,0.043435
1429.4341,0.041249
1431.2977,0.039491
1433.1614,0.038814
1435.0251,0.039614
1436.8887,0.041858
1438.7524,0.044307
1440.6161,0.046605
1442.4797,0.049704
1444.3434,0.053041
1446.2071,0.055982
1448.0707,0.057352
1449.9344,0.055732
1451.7981,0.052906
1453.6618,0.050767
1455.5254,0.050722
1457.3891,0.054037
1459.2528,0.057707
1461.1164,0.059670
1462.9801,0.061827
1464.8438,0.063143
1466.7074,0.061440
1468.5711,0.058457
1470.4348,0.056358
1472.2984,0.055678
1474.1621,0.055983
1476.0258,0.056434
1477.8895,0.056739
1479.7531,0.057361
1481.6168,0.058850
1483.4805,0.060586
1485.3441,0.062073
1487.2078,0.064021
1489.0715,0.066985
1490.9351,0.070255
1492.7988,0.072313
1494.6625,0.074276
1496.5261,0.077426
1498.3898,0.080790
1500.2535,0.083076
1502.1171,0.084516
1503.9808,0.085335
1505.8445,0.085819
1507.7082,0.084890
1509.5718,0.082676
1511.4355,0.080054
1513.2992,0.076524
1515.1628,0.073438
1517.0265,0.070165
1518.8902,0.067540
1520.7538,0.066608
1522.6175,0.065192
1524.4812,0.064897
1526.3448,0.065307
1528.2085,0.065676
1530.0722,0.066359
1531.9359,0.067556
1533.7995,0.069301
1535.6632,0.070562
1537.5269,0.071889
1539.3905,0.074915
1541.2542,0.078924
1543.1179,0.081181
1544.9815,0.083846
1546.8452,0.086391
1548.7089,0.089111
1550.5725,0.092630
1552.4362,0.095719
1554.2999,0.098493
1556.1635,0.101304
1558.0272,0.104428
1559.8909,0.109786
1561.7546,0.111111
1563.6182,0.112186
1565.4819,0.113533
1567.3456,0.114390
1569.2092,0.114594
1571.0729,0.114242
1572.9366,0.113950
1574.8002,0.113020
1576.6639,0.110315
1578.5276,0.108050
1580.3912,0.106661
1582.2549,0.104449
1584.1186,0.102111
1585.9822,0.100061
1587.8459,0.098142
1589.7096,0.096338
1591.5733,0.094715
1593.4369,0.093151
1595.3006,0.091380
1597.1643,0.089827
1599.0279,0.088625
1600.8916,0.087435
1602.7553,0.086181
1604.6189,0.085084
1606.4826,0.084593
1608.3463,0.084124
1610.2099,0.083240
1612.0736,0.082521
1613.9373,0.082127
1615.8010,0.080883
1617.6646,0.078163
1619.5283,0.077233
1621.3920,0.077001
1623.2556,0.075434
1625.1193,0.073609
1626.9830,0.072166
1628.8466,0.069189
1630.7103,0.065331
1632.5740,0.061505
1634.4376,0.056215
1636.3013,0.047614
1638.1650,0.042924
1640.0286,0.041967
1641.8923,0.040615
1643.7560,0.039743
1645.6197,0.039364
1647.4833,0.039269
1649.3470,0.040530
1651.2107,0.041956
1653.0743,0.042090
1654.9380,0.041783
1656.8017,0.042686
1658.6653,0.043397
1660.5290,0.043599
1662.3927,0.043185
1664.2563,0.042369
1666.1200,0.041860
1667.9837,0.041096
1669.8474,0.039466
1671.7110,0.038050
1673.5747,0.037782
1675.4384,0.037846
1677.3020,0.038372
1679.1657,0.039149
1681.0294,0.039917
1682.8930,0.040439
1684.7567,0.040262
1686.6204,0.040318
1688.4840,0.040332
1690.3477,0.039249
1692.2114,0.037946
1694.0750,0.036655
1695.9387,0.034070
1697.8024,0.031364
1699.6661,0.029944
1701.5297,0.026583
1703.3934,0.025049
1705.2571,0.023125
1707.1207,0.019675
1708.9844,0.017529
1710.8481,0.016029
1712.7117,0.014791
1714.5754,0.013806
1716.4391,0.012545
1718.3027,0.011578
1720.1664,0.011417
1722.0301,0.011518
1723.8937,0.011101
1725.7574,0.010354
1727.6211,0.009818
1729.4848,0.009186
1731.3484,0.008349
1733.2121,0.007674
1735.0758,0.006832
1736.9394,0.006830
1738.8031,0.007083
1740.6668,0.006798
1742.5304,0.006542
1744.3941,0.006526
1746.2578,0.006456
1748.1214,0.006294
1749.9851,0.005996
1751.8488,0.005641
1753.7125,0.005466
1755.5761,0.005631
1757.4398,0.005605
1759.3035,0.005466
1761.1671,0.005404
1763.0308,0.005233
1764.8945,0.005251
1766.7581,0.005450
1768.6218,0.005324
1770.4855,0.005019
1772.3491,0.004797
1774.2128,0.004850
1776.0765,0.005135
1777.9401,0.005223
1779.8038,0.005169
1781.6675,0.005182
1783.5312,0.005150
1785.3948,0.005050
1787.2585,0.005000
1789.1222,0.005172
1790.9858,0.005263
1792.8495,0.004952
1794.7132,0.004835
1796.5768,0.005134
1798.4405,0.005116
1800.3042,0.004869
1802.1678,0.004803
1804.0315,0.005020
1805.8952,0.005100
1807.7589,0.005089
1809.6225,0.005153
1811.4862,0.005099
1813.3499,0.004916
1815.2135,0.004856
1817.0772,0.004976
1818.9409,0.005204
1820.8045,0.005297
1822.6682,0.005261
1824.5319,0.005182
1826.3955,0.005168
1828.2592,0.005226
1830.1229,0.005110
1831.9865,0.004752
1833.8502,0.004862
1835.7139,0.005135
1837.5776,0.005146
1839.4412,0.004980
1841.3049,0.005096
1843.1686,0.005112
1845.0322,0.004595
1846.8959,0.004442
1848.7596,0.004777
1850.6232,0.004988
1852.4869,0.005061
1854.3506,0.004999
1856.2142,0.004799
1858.0779,0.004796
1859.9416,0.005118
1861.8052,0.005191
1863.6689,0.005025
1865.5326,0.005062
1867.3963,0.005273
1869.2599,0.005298
1871.1236,0.005003
1872.9873,0.005033
1874.8509,0.005303
1876.7146,0.005235
1878.5783,0.005073
1880.4419,0.004994
1882.3056,0.005059
1884.1693,0.005279
1886.0329,0.005268
1887.8966,0.005217
1889.7603,0.005095
1891.6240,0.004855
1893.4876,0.005107
1895.3513,0.004959
1897.2150,0.004910
1899.0786,0.005009
1900.9423,0.004983
1902.8060,0.004962
1904.6696,0.004767
1906.5333,0.004771
1908.3970,0.005030
1910.2606,0.005100
1912.1243,0.005002
1913.9880,0.004994
1915.8516,0.005218
1917.7153,0.005564
1919.5790,0.005431
1921.4427,0.005431
1923.3063,0.005503
1925.1700,0.005074
1927.0337,0.005053
1928.8973,0.004863
1930.7610,0.004833
1932.6247,0.004948
1934.4883,0.004706
1936.3520,0.004802
1938.2157,0.005508
1940.0793,0.005583
1941.9430,0.005107
1943.8067,0.004998
1945.6704,0.005168
1947.5340,0.004784
1949.3977,0.004401
1951.2614,0.004090
1953.1250,0.004258
1954.9887,0.004519
1956.8524,0.004532
1958.7160,0.003871
1960.5797,0.003175
1962.4434,0.002846
1964.3070,0.002682
1966.1707,0.002545
1968.0344,0.002631
1969.8980,0.002939
1971.7617,0.002914
1973.6254,0.002521
1975.4891,0.003259
1977.3527,0.003931
1979.2164,0.003944
1981.0801,0.003616
1982.9437,0.003386
1984.8074,0.003350
1986.6711,0.004182
1988.5347,0.005230
1990.3984,0.004927
1992.2621,0.004018
1994.1257,0.003752
1995.9894,0.004441
1997.8531,0.005519
1999.7167,0.005563
2001.5804,0.004922
2003.4441,0.004479
2005.3078,0.005158
2007.1714,0.004539
2009.0351,0.003197
2010.8988,0.003644
2012.7624,0.004241
2014.6261,0.003139
2016.4898,0.002377
2018.3534,0.003691
2020.2171,0.004357
2022.0808,0.002983
2023.9444,0.003374
2025.8081,0.004111
2027.6718,0.004499
2029.5355,0.005227
2031.3991,0.004432
2033.2628,0.003700
2035.1265,0.005301
2036.9901,0.006277
2038.8538,0.005352
2040.7175,0.004975
2042.5811,0.005739
2044.4448,0.005842
2046.3085,0.004915
2048.1721,0.004991
2050.0358,0.006217
2051.8995,0.006613
2053.7631,0.006173
2055.6268,0.006963
2057.4905,0.007714
2059.3542,0.006848
2061.2178,0.006304
2063.0815,0.006285
2064.9452,0.006516
2066.8088,0.006566
2068.6725,0.006630
2070.5362,0.006802
2072.3998,0.007176
2074.2635,0.007656
2076.1272,0.007280
2077.9908,0.007333
2079.8545,0.007977
2081.7182,0.008528
2083.5819,0.008375
2085.4455,0.008174
2087.3092,0.008251
2089.1729,0.008214
2091.0365,0.008453
2092.9002,0.008393
2094.7639,0.008027
2096.6275,0.007737
2098.4912,0.008128
2100.3549,0.008588
2102.2185,0.008893
2104.0822,0.009042
2105.9459,0.008630
2107.8095,0.008237
2109.6732,0.008159
2111.5369,0.008279
2113.4006,0.008698
2115.2642,0.008839
2117.1279,0.008635
2118.9916,0.008844
2120.8552,0.009289
2122.7189,0.009072
2124.5826,0.009065
2126.4462,0.008893
2128.3099,0.008217
2130.1736,0.007717
2132.0372,0.007640
2133.9009,0.007762
2135.7646,0.008255
2137.6282,0.008189
2139.4919,0.008384
2141.3556,0.009449
2143.2193,0.008193
2145.0829,0.006762
2146.9466,0.007045
2148.8103,0.007398
2150.6739,0.007463
2152.5376,0.007535
2154.4013,0.007451
2156.2649,0.007215
2158.1286,0.006830
2159.9923,0.005986
2161.8559,0.006323
2163.7196,0.008138
2165.5833,0.008628
2167.4470,0.007104
2169.3106,0.008450
2171.1743,0.010513
2173.0380,0.009396
2174.9016,0.007934
2176.7653,0.007971
2178.6290,0.009161
2180.4926,0.009549
2182.3563,0.010158
2184.2200,0.011925
2186.0836,0.012606
2187.9473,0.011676
2189.8110,0.010941
2191.6746,0.011058
2193.5383,0.011923
2195.4020,0.012756
2197.2657,0.012152
2199.1293,0.011057
2200.9930,0.011154
2202.8567,0.012102
2204.7203,0.012337
2206.5840,0.012072
2208.4477,0.012423
2210.3113,0.014061
2212.1750,0.013545
2214.0387,0.012121
2215.9023,0.012168
2217.7660,0.013285
2219.6297,0.013448
2221.4934,0.012079
2223.3570,0.011371
2225.2207,0.012071
2227.0844,0.012476
2228.9480,0.012206
2230.8117,0.012354
2232.6754,0.012721
2234.5390,0.011816
2236.4027,0.011116
2238.2664,0.011500
2240.1300,0.011911
2241.9937,0.012137
2243.8574,0.011911
2245.7210,0.011365
2247.5847,0.011660
2249.4484,0.012225
2251.3121,0.012219
2253.1757,0.011626
2255.0394,0.012128
2256.9031,0.012985
2258.7667,0.012522
2260.6304,0.011792
2262.4941,0.012230
2264.3577,0.012482
2266.2214,0.012356
2268.0851,0.012297
2269.9487,0.012152
2271.8124,0.012348
2273.6761,0.012677
2275.5397,0.012817
2277.4034,0.012980
2279.2671,0.013040
2281.1308,0.012882
2282.9944,0.012738
2284.8581,0.013405
2286.7218,0.013864
2288.5854,0.013359
2290.4491,0.012680
2292.3128,0.012491
2294.1764,0.012755
2296.0401,0.013163
2297.9038,0.013209
2299.7674,0.012939
2301.6311,0.012949
2303.4948,0.013209
2305.3585,0.013321
2307.2221,0.013260
2309.0858,0.013083
2310.9495,0.013049
2312.8131,0.013303
2314.6768,0.013422
2316.5405,0.013439
2318.4041,0.013480
2320.2678,0.013466
2322.1315,0.013858
2323.9951,0.014278
2325.8588,0.013939
2327.7225,0.013292
2329.5861,0.013020
2331.4498,0.012774
2333.3135,0.012971
2335.1772,0.013209
2337.0408,0.012917
2338.9045,0.012697
2340.7682,0.012944
2342.6318,0.013316
2344.4955,0.013575
2346.3592,0.013507
2348.2228,0.013329
2350.0865,0.013368
2351.9502,0.013239
2353.8138,0.013220
2355.6775,0.013257
2357.5412,0.013218
2359.4049,0.013232
2361.2685,0.013120
2363.1322,0.013145
2364.9959,0.013184
2366.8595,0.013332
2368.7232,0.013797
2370.5869,0.013918
2372.4505,0.013847
2374.3142,0.013964
2376.1779,0.013988
2378.0415,0.014115
2379.9052,0.014418
2381.7689,0.014324
2383.6325,0.014216
2385.4962,0.014553
2387.3599,0.014866
2389.2236,0.014883
2391.0872,0.014978
2392.9509,0.015000
2394.8146,0.015075
2396.6782,0.015313
2398.5419,0.015517
2400.4056,0.015640
2402.2692,0.015526
2404.1329,0.015532
2405.9966,0.015807
2407.8602,0.016076
2409.7239,0.015985
2411.5876,0.015916
2413.4512,0.016148
2415.3149,0.016358
2417.1786,0.016298
2419.0423,0.016206
2420.9059,0.016616
2422.7696,0.016797
2424.6333,0.016771
2426.4969,0.016878
2428.3606,0.017102
2430.2243,0.017147
2432.0879,0.016860
2433.9516,0.016386
2435.8153,0.016659
2437.6789,0.017351
2439.5426,0.017294
2441.4063,0.017444
2443.2700,0.017913
2445.1336,0.017801
2446.9973,0.017703
2448.8610,0.017928
2450.7246,0.018229
2452.5883,0.018459
2454.4520,0.018393
2456.3156,0.018454
2458.1793,0.018357
2460.0430,0.018074
2461.9066,0.018098
2463.7703,0.017921
2465.6340,0.017976
2467.4976,0.018558
2469.3613,0.018954
2471.2250,0.019060
2473.0887,0.018982
2474.9523,0.018815
2476.8160,0.018992
2478.6797,0.019079
2480.5433,0.019502
2482.4070,0.019812
2484.2707,0.019508
2486.1343,0.019502
2487.9980,0.019917
2489.8617,0.020323
2491.7253,0.020369
2493.5890,0.020101
2495.4527,0.020261
2497.3164,0.020324
2499.1800,0.020310
2501.0437,0.020203
2502.9074,0.020356
2504.7710,0.020489
2506.6347,0.020691
2508.4984,0.020766
2510.3620,0.020934
2512.2257,0.020914
2514.0894,0.020809
2515.9530,0.020720
2517.8167,0.020538
2519.6804,0.020609
2521.5440,0.021138
2523.4077,0.021074
2525.2714,0.021070
2527.1351,0.021753
2528.9987,0.021992
2530.8624,0.021933
2532.7261,0.021862
2534.5897,0.021746
2536.4534,0.021761
2538.3171,0.021845
2540.1807,0.022134
2542.0444,0.022667
2543.9081,0.023042
2545.7717,0.023106
2547.6354,0.023302
2549.4991,0.023354
2551.3627,0.023193
2553.2264,0.023300
2555.0901,0.023611
2556.9538,0.023367
2558.8174,0.023424
2560.6811,0.024135
2562.5448,0.024373
2564.4084,0.023915
2566.2721,0.023921
2568.1358,0.024373
2569.9994,0.024762
2571.8631,0.024966
2573.7268,0.024562
2575.5904,0.024727
2577.4541,0.025298
2579.3178,0.025473
2581.1815,0.025350
2583.0451,0.025120
2584.9088,0.025242
2586.7725,0.026126
2588.6361,0.026564
2590.4998,0.026265
2592.3635,0.026373
2594.2271,0.026621
2596.0908,0.026954
2597.9545,0.028019
2599.8181,0.028626
2601.6818,0.028547
2603.5455,0.028726
2605.4091,0.028956
2607.2728,0.029239
2609.1365,0.029611
2611.0002,0.029542
2612.8638,0.029406
2614.7275,0.029618
2616.5912,0.029757
2618.4548,0.030159
2620.3185,0.030306
2622.1822,0.030217
2624.0458,0.030217
2625.9095,0.030567
2627.7732,0.030729
2629.6368,0.030824
2631.5005,0.030925
2633.3642,0.030918
2635.2279,0.030844
2637.0915,0.030985
2638.9552,0.031301
2640.8189,0.031435
2642.6825,0.031212
2644.5462,0.030889
2646.4099,0.030652
2648.2735,0.030485
2650.1372,0.030348
2652.0009,0.030304
2653.8645,0.030064
2655.7282,0.029955
2657.5919,0.029943
2659.4555,0.029920
2661.3192,0.029792
2663.1829,0.029738
2665.0466,0.029784
2666.9102,0.029833
2668.7739,0.029828
2670.6376,0.029976
2672.5012,0.029977
2674.3649,0.029912
2676.2286,0.030021
2678.0922,0.030313
2679.9559,0.030608
2681.8196,0.031023
2683.6832,0.031378
2685.5469,0.031458
2687.4106,0.031800
2689.2742,0.032266
2691.1379,0.032622
2693.0016,0.032863
2694.8653,0.033093
2696.7289,0.033429
2698.5926,0.033779
2700.4563,0.034165
2702.3199,0.034300
2704.1836,0.034580
2706.0473,0.034808
2707.9109,0.034980
2709.7746,0.035224
2711.6383,0.035506
2713.5019,0.035596
2715.3656,0.035842
2717.2293,0.035948
2719.0930,0.036102
2720.9566,0.036340
2722.8203,0.036510
2724.6840,0.036562
2726.5476,0.036753
2728.4113,0.037121
2730.2750,0.037407
2732.1386,0.037471
2734.0023,0.037767
2735.8660,0.038018
2737.7296,0.038215
2739.5933,0.038528
2741.4570,0.038768
2743.3206,0.038844
2745.1843,0.039023
2747.0480,0.039242
2748.9117,0.039523
2750.7753,0.039717
2752.6390,0.039939
2754.5027,0.040150
2756.3663,0.040420
2758.2300,0.040898
2760.0937,0.041253
2761.9573,0.041324
2763.8210,0.041635
2765.6847,0.041865
2767.5483,0.042256
2769.4120,0.042698
2771.2757,0.042846
2773.1394,0.043147
2775.0030,0.043632
2776.8667,0.043797
2778.7304,0.044032
2780.5940,0.044207
2782.4577,0.044167
2784.3214,0.043907
2786.1850,0.044101
2788.0487,0.044000
2789.9124,0.043429
2791.7760,0.043258
2793.6397,0.043189
2795.5034,0.042704
2797.3670,0.042330
2799.2307,0.042291
2801.0944,0.042128
2802.9581,0.041564
2804.8217,0.041112
2806.6854,0.040683
2808.5491,0.040658
2810.4127,0.040956
2812.2764,0.041023
2814.1401,0.040849
2816.0037,0.040776
2817.8674,0.040676
2819.7311,0.040808
2821.5947,0.041169
2823.4584,0.041469
2825.3221,0.041670
2827.1857,0.041509
2829.0494,0.040951
2830.9131,0.040884
2832.7768,0.041367
2834.6404,0.041600
2836.5041,0.041758
2838.3678,0.042057
2840.2314,0.042464
2842.0951,0.043022
2843.9588,0.043440
2845.8224,0.043772
2847.6861,0.044023
2849.5498,0.044544
2851.4134,0.045105
2853.2771,0.045482
2855.1408,0.045620
2857.0045,0.046058
2858.8681,0.046400
2860.7318,0.046657
2862.5955,0.046929
2864.4591,0.047118
2866.3228,0.047126
2868.1865,0.047387
2870.0501,0.047450
2871.9138,0.047642
2873.7775,0.047504
2875.6411,0.047304
2877.5048,0.047304
2879.3685,0.047598
2881.2321,0.047810
2883.0958,0.047862
2884.9595,0.047520
2886.8232,0.047263
2888.6868,0.047468
2890.5505,0.047709
2892.4142,0.047459
2894.2778,0.047512
2896.1415,0.047777
2898.0052,0.047387
2899.8688,0.046833
2901.7325,0.046995
2903.5962,0.047545
2905.4598,0.047852
2907.3235,0.048025
2909.1872,0.048328
2911.0509,0.048491
2912.9145,0.048649
2914.7782,0.048764
2916.6419,0.048955
2918.5055,0.049086
2920.3692,0.049289
2922.2329,0.049698
2924.0965,0.050066
2925.9602,0.050444
2927.8239,0.051238
2929.6875,0.051891
2931.5512,0.052294
2933.4149,0.051834
2935.2785,0.050942
2937.1422,0.050628
2939.0059,0.051211
2940.8696,0.051280
2942.7332,0.051472
2944.5969,0.051641
2946.4606,0.051866
2948.3242,0.052060
2950.1879,0.051649
2952.0516,0.051470
2953.9152,0.051233
2955.7789,0.050813
2957.6426,0.051053
2959.5062,0.051607
2961.3699,0.051693
2963.2336,0.051475
2965.0972,0.051602
2966.9609,0.051744
2968.8246,0.052167
2970.6883,0.052415
2972.5519,0.052270
2974.4156,0.051956
2976.2793,0.052226
2978.1429,0.052593
2980.0066,0.052707
2981.8703,0.052672
2983.7339,0.053034
2985.5976,0.053062
2987.4613,0.053079
2989.3249,0.053347
2991.1886,0.053399
2993.0523,0.053421
2994.9160,0.053638
2996.7796,0.053663
2998.6433,0.053729
3000.5070,0.053930
3002.3706,0.054204
3004.2343,0.054418
3006.0980,0.054443
3007.9616,0.054520
3009.8253,0.054825
3011.6890,0.055417
3013.5526,0.055926
3015.4163,0.055619
3017.2800,0.055530
3019.1436,0.055933
3021.0073,0.055364
3022.8710,0.054862
3024.7347,0.055094
3026.5983,0.055101
3028.4620,0.055246
3030.3257,0.055235
3032.1893,0.054989
3034.0530,0.054585
3035.9167,0.054853
3037.7803,0.055219
3039.6440,0.055325
3041.5077,0.054918
3043.3713,0.054762
3045.2350,0.054631
3047.0987,0.054338
3048.9624,0.054287
3050.8260,0.054214
3052.6897,0.053467
3054.5534,0.053129
3056.4170,0.053238
3058.2807,0.053079
3060.1444,0.052636
3062.0080,0.053028
3063.8717,0.053421
3065.7354,0.052885
3067.5990,0.052456
3069.4627,0.052732
3071.3264,0.052196
3073.1900,0.051496
3075.0537,0.051149
3076.9174,0.051053
3078.7811,0.051241
3080.6447,0.050772
3082.5084,0.049528
3084.3721,0.048844
3086.2357,0.049224
3088.0994,0.049287
3089.9631,0.048893
3091.8267,0.048354
3093.6904,0.047216
3095.5541,0.046289
3097.4177,0.046023
3099.2814,0.046077
3101.1451,0.045457
3103.0087,0.044507
3104.8724,0.043335
3106.7361,0.043332
3108.5998,0.043432
3110.4634,0.042799
3112.3271,0.042033
3114.1908,0.041893
3116.0544,0.041666
3117.9181,0.041239
3119.7818,0.040693
3121.6454,0.040670
3123.5091,0.040401
3125.3728,0.039755
3127.2364,0.039445
3129.1001,0.039000
3130.9638,0.038339
3132.8275,0.037910
3134.6911,0.037950
3136.5548,0.037888
3138.4185,0.037249
3140.2821,0.037066
3142.1458,0.036864
3144.0095,0.036392
3145.8731,0.036145
3147.7368,0.035898
3149.6005,0.035768
3151.4641,0.035176
3153.3278,0.034877
3155.1915,0.035159
3157.0551,0.034892
3158.9188,0.034673
3160.7825,0.034018
3162.6462,0.033675
3164.5098,0.033891
3166.3735,0.032956
3168.2372,0.032144
3170.1008,0.032097
3171.9645,0.031974
3173.8282,0.032217
3175.6918,0.032579
3177.5555,0.032006
3179.4192,0.031261
3181.2828,0.030777
3183.1465,0.030134
3185.0102,0.030445
3186.8739,0.030982
3188.7375,0.030942
3190.6012,0.030625
3192.4649,0.030091
3194.3285,0.029811
3196.1922,0.030082
3198.0559,0.030501
3199.9195,0.030436
3201.7832,0.030137
3203.6469,0.030783
3205.5105,0.031155
3207.3742,0.030970
3209.2379,0.030408
3211.1015,0.029590
3212.9652,0.029420
3214.8289,0.029755
3216.6926,0.030208
3218.5562,0.030349
3220.4199,0.030028
3222.2836,0.030104
3224.1472,0.030264
3226.0109,0.030536
3227.8746,0.030121
3229.7382,0.030032
3231.6019,0.030127
3233.4656,0.030111
3235.3292,0.030216
3237.1929,0.030544
3239.0566,0.030768
3240.9202,0.030832
3242.7839,0.031028
3244.6476,0.031472
3246.5113,0.031214
3248.3749,0.031102
3250.2386,0.030972
3252.1023,0.031503
3253.9659,0.031567
3255.8296,0.031348
3257.6933,0.031421
3259.5569,0.031683
3261.4206,0.031922
3263.2843,0.032069
3265.1479,0.031800
3267.0116,0.031191
3268.8753,0.031183
3270.7390,0.031819
3272.6026,0.031877
3274.4663,0.031897
3276.3300,0.031510
3278.1936,0.031216
3280.0573,0.031512
3281.9210,0.031474
3283.7846,0.030690
3285.6483,0.030361
3287.5120,0.031109
3289.3756,0.031284
3291.2393,0.031051
3293.1030,0.030628
3294.9666,0.030063
3296.8303,0.029257
3298.6940,0.028715
3300.5577,0.028654
3302.4213,0.028827
3304.2850,0.028442
3306.1487,0.027766
3308.0123,0.027483
3309.8760,0.027247
3311.7397,0.027363
3313.6033,0.027285
3315.4670,0.027459
3317.3307,0.027487
3319.1943,0.027430
3321.0580,0.027395
3322.9217,0.026641
3324.7854,0.026171
3326.6490,0.027058
3328.5127,0.026918
3330.3764,0.026212
3332.2400,0.026558
3334.1037,0.026443
3335.9674,0.025662
3337.8310,0.025709
3339.6947,0.025762
3341.5584,0.025612
3343.4220,0.024771
3345.2857,0.024141
3347.1494,0.023980
3349.0130,0.024098
3350.8767,0.023776
3352.7404,0.023478
3354.6041,0.023089
3356.4677,0.022491
3358.3314,0.021551
3360.1951,0.020654
3362.0587,0.020042
3363.9224,0.020694
3365.7861,0.020278
3367.6497,0.019504
3369.5134,0.019618
3371.3771,0.019728
3373.2407,0.019594
3375.1044,0.019303
3376.9681,0.018592
3378.8317,0.018532
3380.6954,0.018884
3382.5591,0.019180
3384.4228,0.019084
3386.2864,0.018959
3388.1501,0.019480
3390.0138,0.019680
3391.8774,0.019849
3393.7411,0.018938
3395.6048,0.018705
3397.4684,0.019511
3399.3321,0.019299
3401.1958,0.019751
3403.0594,0.019990
3404.9231,0.020231
3406.7868,0.019570
3408.6505,0.017636
3410.5141,0.016841
3412.3778,0.016914
3414.2415,0.016439
3416.1051,0.015609
3417.9688,0.014854
3419.8325,0.014593
3421.6961,0.013658
3423.5598,0.012922
3425.4235,0.012430
3427.2871,0.012175
3429.1508,0.011795
3431.0145,0.010910
3432.8781,0.010288
3434.7418,0.010088
3436.6055,0.010471
3438.4692,0.010950
3440.3328,0.011236
3442.1965,0.010839
3444.0602,0.010001
3445.9238,0.009242
3447.7875,0.008998
3449.6512,0.009335
3451.5148,0.008881
3453.3785,0.008318
3455.2422,0.008756
3457.1058,0.009470
3458.9695,0.009398
3460.8332,0.008886
3462.6969,0.009103
3464.5605,0.008340
3466.4242,0.007563
3468.2879,0.007173
3470.1515,0.007464
3472.0152,0.008836
3473.8789,0.007315
3475.7425,0.006137
3477.6062,0.006590
3479.4699,0.007204
3481.3335,0.007497
3483.1972,0.006768
3485.0609,0.006789
3486.9245,0.006800
3488.7882,0.006119
3490.6519,0.006707
3492.5156,0.006744
3494.3792,0.005794
3496.2429,0.004895
3498.1066,0.005363
3499.9702,0.005756
3501.8339,0.005456
3503.6976,0.005037
3505.5612,0.004577
3507.4249,0.003812
3509.2886,0.004406
3511.1522,0.005164
3513.0159,0.005078
3514.8796,0.005199
3516.7432,0.005725
3518.6069,0.005483
3520.4706,0.005270
3522.3343,0.004830
3524.1979,0.005229
3526.0616,0.004971
3527.9253,0.003592
3529.7889,0.002482
3531.6526,0.003303
3533.5163,0.003838
3535.3799,0.003736
3537.2436,0.004316
3539.1073,0.004004
3540.9709,0.003928
3542.8346,0.003851
3544.6983,0.002998
3546.5620,0.002653
3548.4256,0.003089
3550.2893,0.002936
3552.1530,0.003492
3554.0166,0.004232
3555.8803,0.003463
3557.7440,0.002795
3559.6076,0.003786
3561.4713,0.004152
3563.3350,0.003834
3565.1986,0.003945
3567.0623,0.003279
3568.9260,0.001844
3570.7896,0.002562
3572.6533,0.003552
3574.5170,0.002830
3576.3807,0.002656
3578.2443,0.002533
3580.1080,0.002925
3581.9717,0.003158
3583.8353,0.003212
3585.6990,0.003891
3587.5627,0.003913
3589.4263,0.002653
3591.2900,0.001959
3593.1537,0.002085
3595.0173,0.002342
3596.8810,0.002056
3598.7447,0.002068
3600.6084,0.003025
3602.4720,0.003011
3604.3357,0.002385
3606.1994,0.003230
3608.0630,0.003891
3609.9267,0.003644
3611.7904,0.003186
3613.6540,0.003051
3615.5177,0.002489
3617.3814,0.002191
3619.2450,0.001716
3621.1087,0.001008
3622.9724,0.001531
3624.8360,0.003085
3626.6997,0.003310
3628.5634,0.003308
3630.4271,0.003228
3632.2907,0.002240
3634.1544,0.002425
3636.0181,0.002548
3637.8817,0.003050
3639.7454,0.003455
3641.6091,0.003097
3643.4727,0.003267
3645.3364,0.004234
3647.2001,0.004659
3649.0637,0.003734
3650.9274,0.001846
3652.7911,0.000663
3654.6547,0.001496
3656.5184,0.003108
3658.3821,0.003638
3660.2458,0.003509
3662.1094,0.003518
3663.9731,0.003559
3665.8368,0.003378
3667.7004,0.003200
3669.5641,0.003221
3671.4278,0.002945
3673.2914,0.002050
3675.1551,0.002700
3677.0188,0.003175
3678.8824,0.001865
3680.7461,0.002493
3682.6098,0.002868
3684.4735,0.003075
3686.3371,0.003367
3688.2008,0.003207
3690.0645,0.002183
3691.9281,0.001984
3693.7918,0.002642
3695.6555,0.003013
3697.5191,0.003136
3699.3828,0.003525
3701.2465,0.004169
3703.1101,0.004063
3704.9738,0.003309
3706.8375,0.003542
3708.7011,0.003931
3710.5648,0.003100
3712.4285,0.001914
3714.2922,0.001625
3716.1558,0.001970
3718.0195,0.003229
3719.8832,0.004009
3721.7468,0.003577
3723.6105,0.003028
3725.4742,0.002989
3727.3378,0.003599
3729.2015,0.004065
3731.0652,0.003598
3732.9288,0.003740
3734.7925,0.003108
3736.6562,0.000403
3738.5199,0.000554
3740.3835,0.002429
3742.2472,0.003355
3744.1109,0.003922
3745.9745,0.002665
3747.8382,0.000946
3749.7019,0.001802
3751.5655,0.001789
3753.4292,0.001009
3755.2929,0.001826
3757.1565,0.002915
3759.0202,0.003617
3760.8839,0.003744
3762.7475,0.003743
3764.6112,0.003809
3766.4749,0.003967
3768.3386,0.003611
3770.2022,0.003396
3772.0659,0.003657
3773.9296,0.003770
3775.7932,0.004039
3777.6569,0.004482
3779.5206,0.004520
3781.3842,0.004182
3783.2479,0.004292
3785.1116,0.004327
3786.9752,0.003849
3788.8389,0.003687
3790.7026,0.004220
3792.5662,0.004474
3794.4299,0.004173
3796.2936,0.004084
3798.1573,0.004016
3800.0209,0.003730
3801.8846,0.003700
3803.7483,0.003465
3805.6119,0.003376
3807.4756,0.003778
3809.3393,0.003318
3811.2029,0.003531
3813.0666,0.004180
3814.9303,0.004423
3816.7939,0.004028
3818.6576,0.003142
3820.5213,0.003354
3822.3850,0.003323
3824.2486,0.002704
3826.1123,0.003429
3827.9760,0.004036
3829.8396,0.004114
3831.7033,0.004094
3833.5670,0.003833
3835.4306,0.003698
3837.2943,0.003684
3839.1580,0.003631
3841.0216,0.003036
3842.8853,0.002840
3844.7490,0.003553
3846.6126,0.004344
3848.4763,0.004616
3850.3400,0.004625
3852.2037,0.004172
3854.0673,0.002534
3855.9310,0.001188
3857.7947,0.002543
3859.6583,0.003719
3861.5220,0.004177
3863.3857,0.004054
3865.2493,0.003631
3867.1130,0.003569
3868.9767,0.004061
3870.8403,0.004857
3872.7040,0.004220
3874.5677,0.003352
3876.4314,0.002953
3878.2950,0.003768
3880.1587,0.004833
3882.0224,0.004523
3883.8860,0.003780
3885.7497,0.003825
3887.6134,0.003844
3889.4770,0.003824
3891.3407,0.004231
3893.2044,0.004423
3895.0680,0.004352
3896.9317,0.004592
3898.7954,0.004599
3900.6590,0.004297
3902.5227,0.003685
3904.3864,0.003685
3906.2501,0.004055
3908.1137,0.003963
3909.9774,0.004283
3911.8411,0.004797
3913.7047,0.004938
3915.5684,0.005050
3917.4321,0.005086
3919.2957,0.004796
3921.1594,0.004344
3923.0231,0.004420
3924.8867,0.004483
3926.7504,0.004008
3928.6141,0.003856
3930.4777,0.004576
3932.3414,0.004813
3934.2051,0.004608
3936.0688,0.004642
3937.9324,0.004951
3939.7961,0.005191
3941.6598,0.004976
3943.5234,0.004529
3945.3871,0.004436
3947.2508,0.004331
3949.1144,0.004328
3950.9781,0.004464
3952.8418,0.004682
3954.7054,0.004780
3956.5691,0.004786
3958.4328,0.004777
3960.2965,0.004812
3962.1601,0.004765
3964.0238,0.004409
3965.8875,0.004314
3967.7511,0.004635
3969.6148,0.004735
3971.4785,0.004706
3973.3421,0.004808
3975.2058,0.005119
3977.0695,0.005049
3978.9331,0.004830
3980.7968,0.004957
3982.6605,0.005216
3984.5241,0.005186
3986.3878,0.005401
3988.2515,0.005055
3990.1152,0.004652
3991.9788,0.004998
3993.8425,0.005094
3995.7062,0.004968
3997.5698,0.005315
3999.4335,0.005446
