Wavenumber,Intensity
650.4205,0.158501
652.2841,0.158642
654.1478,0.161346
656.0115,0.162812
657.8751,0.165625
659.7388,0.170972
661.6025,0.179084
663.4661,0.185212
665.3298,0.188548
667.1935,0.190124
669.0571,0.188645
670.9208,0.178539
672.7845,0.166516
674.6481,0.155712
676.5118,0.149441
678.3755,0.144469
680.2392,0.139713
682.1028,0.136079
683.9665,0.134781
685.8302,0.133651
687.6938,0.132844
689.5575,0.132100
691.4212,0.132837
693.2848,0.134034
695.1485,0.135071
697.0122,0.136878
698.8758,0.139574
700.7395,0.141877
702.6032,0.144942
704.4669,0.148299
706.3305,0.150973
708.1942,0.152355
710.0579,0.152836
711.9215,0.150208
713.7852,0.145167
715.6489,0.137062
717.5125,0.124808
719.3762,0.111617
721.2399,0.102415
723.1035,0.096656
724.9672,0.092682
726.8309,0.089863
728.6945,0.087377
730.5582,0.085597
732.4219,0.084637
734.2856,0.082532
736.1492,0.080407
738.0129,0.079961
739.8766,0.081058
741.7402,0.083490
743.6039,0.086831
745.4676,0.089569
747.3312,0.091458
749.1949,0.093523
751.0586,0.094974
752.9222,0.094196
754.7859,0.090780
756.6496,0.088035
758.5132,0.087398
760.3769,0.088313
762.2406,0.091087
764.1043,0.095505
765.9679,0.101043
767.8316,0.105183
769.6953,0.104583
771.5589,0.101140
773.4226,0.100756
775.2863,0.100528
777.1499,0.093813
779.0136,0.085420
780.8773,0.080933
782.7409,0.079230
784.6046,0.078547
786.4683,0.078202
788.3320,0.078564
790.1956,0.079558
792.0593,0.081075
793.9230,0.082707
795.7866,0.084445
797.6503,0.087051
799.5140,0.090128
801.3776,0.091238
803.2413,0.089712
805.1050,0.087782
806.9686,0.086893
808.8323,0.086557
810.6960,0.086420
812.5596,0.085799
814.4233,0.084896
816.2870,0.084539
818.1507,0.085504
820.0143,0.088147
821.8780,0.091901
823.7417,0.093982
825.6053,0.093107
827.4690,0.093030
829.3327,0.096334
831.1963,0.099290
833.0600,0.096966
834.9237,0.088567
836.7873,0.078995
838.6510,0.073850
840.5147,0.075013
842.3784,0.080385
844.2420,0.087536
846.1057,0.092946
847.9694,0.092093
849.8330,0.084373
851.6967,0.074877
853.5604,0.067896
855.4240,0.064047
857.2877,0.062059
859.1514,0.060921
861.0150,0.060177
862.8787,0.059974
864.7424,0.060385
866.6060,0.061276
868.4697,0.062437
870.3334,0.063123
872.1971,0.063364
874.0607,0.063130
875.9244,0.062450
877.7881,0.062130
879.6517,0.062188
881.5154,0.062519
883.3791,0.063672
885.2427,0.065644
887.1064,0.067996
888.9701,0.069547
890.8337,0.069178
892.6974,0.068110
894.5611,0.068464
896.4247,0.070571
898.2884,0.073817
900.1521,0.077049
902.0158,0.078225
903.8794,0.076937
905.7431,0.075959
907.6068,0.077795
909.4704,0.082451
911.3341,0.089205
913.1978,0.097302
915.0614,0.103963
916.9251,0.103681
918.7888,0.097039
920.6524,0.091106
922.5161,0.088455
924.3798,0.085773
926.2435,0.081254
928.1071,0.076394
929.9708,0.072918
931.8345,0.071065
933.6981,0.070660
935.5618,0.071786
937.4255,0.074555
939.2891,0.079210
941.1528,0.085467
943.0165,0.090693
944.8801,0.091547
946.7438,0.089015
948.6075,0.085093
950.4711,0.080221
952.3348,0.076788
954.1985,0.076396
956.0622,0.078109
957.9258,0.080919
959.7895,0.084507
961.6532,0.088430
963.5168,0.091388
965.3805,0.092726
967.2442,0.093934
969.1078,0.096089
970.9715,0.099041
972.8352,0.102887
974.6988,0.108373
976.5625,0.116213
978.4262,0.127806
980.2899,0.143219
982.1535,0.151832
984.0172,0.140765
985.8809,0.123886
987.7445,0.116871
989.6082,0.117507
991.4719,0.120009
993.3355,0.122136
995.1992,0.123685
997.0629,0.125269
998.9265,0.126898
1000.7902,0.128244
1002.6539,0.129038
1004.5175,0.128954
1006.3812,0.127671
1008.2449,0.125713
1010.1086,0.124145
1011.9722,0.123582
1013.8359,0.124120
1015.6996,0.125557
1017.5632,0.127473
1019.4269,0.129698
1021.2906,0.132304
1023.1542,0.135479
1025.0179,0.138718
1026.8816,0.140958
1028.7452,0.141630
1030.6089,0.141394
1032.4726,0.140749
1034.3362,0.138977
1036.1999,0.135613
1038.0636,0.132033
1039.9273,0.130267
1041.7909,0.130935
1043.6546,0.132942
1045.5183,0.135147
1047.3819,0.136909
1049.2456,0.136972
1051.1093,0.134417
1052.9729,0.129768
1054.8366,0.125076
1056.7003,0.122359
1058.5639,0.121958
1060.4276,0.122859
1062.2913,0.123604
1064.1550,0.122850
1066.0186,0.120067
1067.8823,0.116339
1069.7460,0.113771
1071.6096,0.113466
1073.4733,0.114725
1075.3370,0.116636
1077.2006,0.118729
1079.0643,0.120747
1080.9280,0.122808
1082.7916,0.124934
1084.6553,0.126466
1086.5190,0.126593
1088.3826,0.125503
1090.2463,0.124820
1092.1100,0.125526
1093.9737,0.127185
1095.8373,0.129642
1097.7010,0.133174
1099.5647,0.137845
1101.4283,0.142929
1103.2920,0.147326
1105.1557,0.149952
1107.0193,0.149710
1108.8830,0.147014
1110.7467,0.142530
1112.6103,0.137044
1114.4740,0.131354
1116.3377,0.126428
1118.2014,0.122896
1120.0650,0.121142
1121.9287,0.120722
1123.7924,0.120524
1125.6560,0.120067
1127.5197,0.119663
1129.3834,0.119400
1131.2470,0.118971
1133.1107,0.118136
1134.9744,0.116772
1136.8380,0.114528
1138.7017,0.111427
1140.5654,0.108307
1142.4290,0.105800
1144.2927,0.103815
1146.1564,0.101816
1148.0201,0.099642
1149.8837,0.097657
1151.7474,0.096124
1153.6111,0.095138
1155.4747,0.094732
1157.3384,0.094952
1159.2021,0.095796
1161.0657,0.097101
1162.9294,0.098999
1164.7931,0.101712
1166.6567,0.104931
1168.5204,0.107907
1170.3841,0.110181
1172.2477,0.111501
1174.1114,0.111124
1175.9751,0.108349
1177.8388,0.103985
1179.7024,0.100070
1181.5661,0.098398
1183.4298,0.099035
1185.2934,0.100388
1187.1571,0.100764
1189.0208,0.098774
1190.8844,0.093465
1192.7481,0.085904
1194.6118,0.079407
1196.4754,0.075722
1198.3391,0.074102
1200.2028,0.073386
1202.0665,0.073003
1203.9301,0.072760
1205.7938,0.072406
1207.6575,0.071760
1209.5211,0.071314
1211.3848,0.071437
1213.2485,0.071676
1215.1121,0.072017
1216.9758,0.072789
1218.8395,0.073694
1220.7031,0.074514
1222.5668,0.075510
1224.4305,0.076724
1226.2941,0.078101
1228.1578,0.079709
1230.0215,0.081430
1231.8852,0.083190
1233.7488,0.085217
1235.6125,0.087518
1237.4762,0.089452
1239.3398,0.090238
1241.2035,0.089391
1243.0672,0.087619
1244.9308,0.086446
1246.7945,0.086284
1248.6582,0.086426
1250.5218,0.086516
1252.3855,0.086813
1254.2492,0.087773
1256.1129,0.089265
1257.9765,0.090728
1259.8402,0.092254
1261.7039,0.093875
1263.5675,0.095745
1265.4312,0.098519
1267.2949,0.101988
1269.1585,0.104895
1271.0222,0.105027
1272.8859,0.101916
1274.7495,0.098870
1276.6132,0.098380
1278.4769,0.099993
1280.3405,0.102829
1282.2042,0.106185
1284.0679,0.109920
1285.9316,0.114391
1287.7952,0.120361
1289.6589,0.127790
1291.5226,0.136322
1293.3862,0.145055
1295.2499,0.151110
1297.1136,0.151403
1298.9772,0.147560
1300.8409,0.145391
1302.7046,0.148534
1304.5682,0.155407
1306.4319,0.161686
1308.2956,0.162443
1310.1592,0.156521
1312.0229,0.148908
1313.8866,0.143275
1315.7503,0.139930
1317.6139,0.138735
1319.4776,0.138022
1321.3413,0.137461
1323.2049,0.139679
1325.0686,0.145708
1326.9323,0.152633
1328.7959,0.155528
1330.6596,0.151222
1332.5233,0.142980
1334.3869,0.137467
1336.2506,0.138259
1338.1143,0.144484
1339.9780,0.152405
1341.8416,0.155137
1343.7053,0.154381
1345.5690,0.155280
1347.4326,0.159161
1349.2963,0.162903
1351.1600,0.162279
1353.0236,0.158733
1354.8873,0.157954
1356.7510,0.160194
1358.6146,0.161217
1360.4783,0.160504
1362.3420,0.160426
1364.2056,0.157829
1366.0693,0.154121
1367.9330,0.155918
1369.7967,0.162671
1371.6603,0.167603
1373.5240,0.169935
1375.3877,0.168915
1377.2513,0.169540
1379.1150,0.178455
1380.9787,0.192471
1382.8423,0.205152
1384.7060,0.215290
1386.5697,0.223255
1388.4333,0.226354
1390.2970,0.225572
1392.1607,0.227422
1394.0244,0.231939
1395.8880,0.232645
1397.7517,0.224523
1399.6154,0.213301
1401.4790,0.204510
1403.3427,0.200139
1405.2064,0.194052
1407.0700,0.181699
1408.9337,0.167168
1410.7974,0.153071
1412.6610,0.140758
1414.5247,0.131000
1416.3884,0.123758
1418.2520,0.120109
1420.1157,0.118032
1421.9794,0.114185
1423.8431,0.109265
1425.7067,0.100639
1427.5704,0.092196
1429.4341,0.086966
1431.2977,0.084767
1433.1614,0.084837
1435.0251,0.088740
1436.8887,0.098816
1438.7524,0.103224
1440.6161,0.100532
1442.4797,0.098592
1444.3434,0.098069
1446.2071,0.099793
1448.0707,0.104381
1449.9344,0.107753
1451.7981,0.108799
1453.6618,0.108933
1455.5254,0.109727
1457.3891,0.115817
1459.2528,0.115611
1461.1164,0.111792
1462.9801,0.112360
1464.8438,0.117774
1466.7074,0.120509
1468.5711,0.118326
1470.4348,0.116985
1472.2984,0.118494
1474.1621,0.117338
1476.0258,0.114042
1477.8895,0.112172
1479.7531,0.112772
1481.6168,0.116570
1483.4805,0.120504
1485.3441,0.123605
1487.2078,0.129371
1489.0715,0.139854
1490.9351,0.150148
1492.7988,0.151644
1494.6625,0.153498
1496.5261,0.162983
1498.3898,0.174358
1500.2535,0.178828
1502.1171,0.179997
1503.9808,0.180769
1505.8445,0.186692
1507.7082,0.202820
1509.5718,0.199527
1511.4355,0.193484
1513.2992,0.187800
1515.1628,0.181957
1517.0265,0.173791
1518.8902,0.162705
1520.7538,0.154860
1522.6175,0.143407
1524.4812,0.134386
1526.3448,0.128204
1528.2085,0.121590
1530.0722,0.116282
1531.9359,0.114774
1533.7995,0.116565
1535.6632,0.115187
1537.5269,0.113766
1539.3905,0.120746
1541.2542,0.138000
1543.1179,0.143564
1544.9815,0.149800
1546.8452,0.154903
1548.7089,0.160265
1550.5725,0.170709
1552.4362,0.178670
1554.2999,0.184731
1556.1635,0.191536
1558.0272,0.203294
1559.8909,0.233131
1561.7546,0.226787
1563.6182,0.222680
1565.4819,0.226022
1567.3456,0.230205
1569.2092,0.236231
1571.0729,0.241936
1572.9366,0.241553
1574.8002,0.243912
1576.6639,0.251133
1578.5276,0.252542
1580.3912,0.250865
1582.2549,0.249650
1584.1186,0.246211
1585.9822,0.239872
1587.8459,0.230866
1589.7096,0.220741
1591.5733,0.210847
1593.4369,0.202436
1595.3006,0.195443
1597.1643,0.190647
1599.0279,0.187960
1600.8916,0.187068
1602.7553,0.187371
1604.6189,0.188015
1606.4826,0.187307
1608.3463,0.184283
1610.2099,0.177928
1612.0736,0.169423
1613.9373,0.160194
1615.8010,0.151459
1617.6646,0.140870
1619.5283,0.134023
1621.3920,0.129926
1623.2556,0.124970
1625.1193,0.118510
1626.9830,0.112959
1628.8466,0.105650
1630.7103,0.097662
1632.5740,0.090630
1634.4376,0.084081
1636.3013,0.075555
1638.1650,0.068889
1640.0286,0.064960
1641.8923,0.061191
1643.7560,0.058139
1645.6197,0.056100
1647.4833,0.054356
1649.3470,0.053333
1651.2107,0.052956
1653.0743,0.054728
1654.9380,0.056649
1656.8017,0.055672
1658.6653,0.055238
1660.5290,0.054960
1662.3927,0.054501
1664.2563,0.053438
1666.1200,0.051884
1667.9837,0.050546
1669.8474,0.049513
1671.7110,0.049016
1673.5747,0.048950
1675.4384,0.049874
1677.3020,0.050828
1679.1657,0.051490
1681.0294,0.052898
1682.8930,0.054926
1684.7567,0.059036
1686.6204,0.060416
1688.4840,0.059503
1690.3477,0.058925
1692.2114,0.057484
1694.0750,0.055429
1695.9387,0.053096
1697.8024,0.050817
1699.6661,0.049270
1701.5297,0.045961
1703.3934,0.042502
1705.2571,0.038963
1707.1207,0.034385
1708.9844,0.031136
1710.8481,0.028595
1712.7117,0.026355
1714.5754,0.024687
1716.4391,0.023626
1718.3027,0.023560
1720.1664,0.023063
1722.0301,0.022121
1723.8937,0.021286
1725.7574,0.020182
1727.6211,0.018942
1729.4848,0.017990
1731.3484,0.017285
1733.2121,0.016897
1735.0758,0.016770
1736.9394,0.016141
1738.8031,0.015869
1740.6668,0.015837
1742.5304,0.015619
1744.3941,0.015458
1746.2578,0.015162
1748.1214,0.014649
1749.9851,0.014361
1751.8488,0.014264
1753.7125,0.013930
1755.5761,0.013506
1757.4398,0.013050
1759.3035,0.012526
1761.1671,0.012341
1763.0308,0.012418
1764.8945,0.012150
1766.7581,0.011887
1768.6218,0.011801
1770.4855,0.011545
1772.3491,0.011481
1774.2128,0.011574
1776.0765,0.011545
1777.9401,0.011432
1779.8038,0.011345
1781.6675,0.011417
1783.5312,0.011427
1785.3948,0.011472
1787.2585,0.011332
1789.1222,0.011107
1790.9858,0.011262
1792.8495,0.011370
1794.7132,0.011156
1796.5768,0.011161
1798.4405,0.011201
1800.3042,0.011042
1802.1678,0.010991
1804.0315,0.011011
1805.8952,0.010946
1807.7589,0.010944
1809.6225,0.010903
1811.4862,0.010902
1813.3499,0.010849
1815.2135,0.010601
1817.0772,0.010542
1818.9409,0.010743
1820.8045,0.010691
1822.6682,0.010401
1824.5319,0.010460
1826.3955,0.010559
1828.2592,0.010248
1830.1229,0.010179
1831.9865,0.010345
1833.8502,0.010340
1835.7139,0.010294
1837.5776,0.010299
1839.4412,0.010217
1841.3049,0.009966
1843.1686,0.009996
1845.0322,0.010271
1846.8959,0.010345
1848.7596,0.010342
1850.6232,0.010157
1852.4869,0.009959
1854.3506,0.010066
1856.2142,0.010269
1858.0779,0.010288
1859.9416,0.010296
1861.8052,0.010326
1863.6689,0.010184
1865.5326,0.009896
1867.3963,0.009648
1869.2599,0.009748
1871.1236,0.009804
1872.9873,0.009506
1874.8509,0.009452
1876.7146,0.009793
1878.5783,0.009974
1880.4419,0.009988
1882.3056,0.009912
1884.1693,0.009748
1886.0329,0.009648
1887.8966,0.009458
1889.7603,0.009431
1891.6240,0.009422
1893.4876,0.009351
1895.3513,0.009469
1897.2150,0.009326
1899.0786,0.009107
1900.9423,0.009297
1902.8060,0.009519
1904.6696,0.009655
1906.5333,0.009908
1908.3970,0.009928
1910.2606,0.009555
1912.1243,0.009249
1913.9880,0.009387
1915.8516,0.009438
1917.7153,0.009119
1919.5790,0.008847
1921.4427,0.008907
1923.3063,0.009174
1925.1700,0.009418
1927.0337,0.009272
1928.8973,0.008734
1930.7610,0.008477
1932.6247,0.009010
1934.4883,0.009298
1936.3520,0.008739
1938.2157,0.008375
1940.0793,0.008829
1941.9430,0.009064
1943.8067,0.008585
1945.6704,0.008050
1947.5340,0.007390
1949.3977,0.006996
1951.2614,0.007068
1953.1250,0.007147
1954.9887,0.006858
1956.8524,0.006382
1958.7160,0.006178
1960.5797,0.006403
1962.4434,0.005648
1964.3070,0.004311
1966.1707,0.004301
1968.0344,0.004747
1969.8980,0.004862
1971.7617,0.003833
1973.6254,0.002798
1975.4891,0.003372
1977.3527,0.004039
1979.2164,0.004299
1981.0801,0.005538
1982.9437,0.006278
1984.8074,0.005577
1986.6711,0.005999
1988.5347,0.006679
1990.3984,0.006249
1992.2621,0.005824
1994.1257,0.005893
1995.9894,0.006158
1997.8531,0.006183
1999.7167,0.006020
2001.5804,0.005697
2003.4441,0.006108
2005.3078,0.006605
2007.1714,0.005870
2009.0351,0.005402
2010.8988,0.005476
2012.7624,0.005320
2014.6261,0.005012
2016.4898,0.005056
2018.3534,0.005455
2020.2171,0.005286
2022.0808,0.005253
2023.9444,0.005335
2025.8081,0.004899
2027.6718,0.004677
2029.5355,0.005390
2031.3991,0.006675
2033.2628,0.006946
2035.1265,0.006830
2036.9901,0.007416
2038.8538,0.007453
2040.7175,0.007185
2042.5811,0.008014
2044.4448,0.007977
2046.3085,0.007551
2048.1721,0.009914
2050.0358,0.013023
2051.8995,0.012651
2053.7631,0.011156
2055.6268,0.012366
2057.4905,0.013633
2059.3542,0.012958
2061.2178,0.013079
2063.0815,0.013918
2064.9452,0.013945
2066.8088,0.013964
2068.6725,0.014709
2070.5362,0.015623
2072.3998,0.015645
2074.2635,0.015430
2076.1272,0.016095
2077.9908,0.016933
2079.8545,0.017176
2081.7182,0.017089
2083.5819,0.017504
2085.4455,0.018323
2087.3092,0.018615
2089.1729,0.018524
2091.0365,0.018552
2092.9002,0.019012
2094.7639,0.019607
2096.6275,0.019581
2098.4912,0.019473
2100.3549,0.019530
2102.2185,0.019850
2104.0822,0.020485
2105.9459,0.020530
2107.8095,0.020272
2109.6732,0.020380
2111.5369,0.020398
2113.4006,0.020985
2115.2642,0.021578
2117.1279,0.021154
2118.9916,0.020865
2120.8552,0.020647
2122.7189,0.020156
2124.5826,0.019684
2126.4462,0.019283
2128.3099,0.018889
2130.1736,0.018803
2132.0372,0.018506
2133.9009,0.017372
2135.7646,0.016778
2137.6282,0.016873
2139.4919,0.015571
2141.3556,0.014003
2143.2193,0.014264
2145.0829,0.014105
2146.9466,0.013434
2148.8103,0.013231
2150.6739,0.011410
2152.5376,0.009312
2154.4013,0.007709
2156.2649,0.007150
2158.1286,0.006722
2159.9923,0.005082
2161.8559,0.006768
2163.7196,0.009207
2165.5833,0.009381
2167.4470,0.009275
2169.3106,0.009659
2171.1743,0.009370
2173.0380,0.008798
2174.9016,0.008741
2176.7653,0.008654
2178.6290,0.007890
2180.4926,0.007673
2182.3563,0.008663
2184.2200,0.009748
2186.0836,0.010502
2187.9473,0.010833
2189.8110,0.011201
2191.6746,0.010806
2193.5383,0.010002
2195.4020,0.010557
2197.2657,0.011628
2199.1293,0.011138
2200.9930,0.010764
2202.8567,0.011522
2204.7203,0.010919
2206.5840,0.010549
2208.4477,0.010987
2210.3113,0.010774
2212.1750,0.010878
2214.0387,0.010786
2215.9023,0.010702
2217.7660,0.011546
2219.6297,0.012852
2221.4934,0.013606
2223.3570,0.013503
2225.2207,0.013106
2227.0844,0.012736
2228.9480,0.012817
2230.8117,0.013429
2232.6754,0.014259
2234.5390,0.014357
2236.4027,0.013741
2238.2664,0.013748
2240.1300,0.014514
2241.9937,0.014510
2243.8574,0.013760
2245.7210,0.014030
2247.5847,0.014842
2249.4484,0.014973
2251.3121,0.014615
2253.1757,0.014888
2255.0394,0.015208
2256.9031,0.015330
2258.7667,0.016090
2260.6304,0.017132
2262.4941,0.017522
2264.3577,0.016555
2266.2214,0.016028
2268.0851,0.016855
2269.9487,0.017236
2271.8124,0.017082
2273.6761,0.017488
2275.5397,0.017997
2277.4034,0.018622
2279.2671,0.019135
2281.1308,0.019348
2282.9944,0.019733
2284.8581,0.019960
2286.7218,0.020071
2288.5854,0.020265
2290.4491,0.020519
2292.3128,0.020481
2294.1764,0.020294
2296.0401,0.020267
2297.9038,0.020551
2299.7674,0.020721
2301.6311,0.020746
2303.4948,0.020923
2305.3585,0.020840
2307.2221,0.020598
2309.0858,0.020867
2310.9495,0.021183
2312.8131,0.021082
2314.6768,0.021095
2316.5405,0.021512
2318.4041,0.021937
2320.2678,0.022290
2322.1315,0.022683
2323.9951,0.022848
2325.8588,0.022549
2327.7225,0.021886
2329.5861,0.021337
2331.4498,0.021335
2333.3135,0.021530
2335.1772,0.021360
2337.0408,0.021470
2338.9045,0.022049
2340.7682,0.022009
2342.6318,0.021956
2344.4955,0.022605
2346.3592,0.022790
2348.2228,0.022068
2350.0865,0.021498
2351.9502,0.021286
2353.8138,0.021345
2355.6775,0.021817
2357.5412,0.022257
2359.4049,0.021840
2361.2685,0.021707
2363.1322,0.022383
2364.9959,0.022972
2366.8595,0.023246
2368.7232,0.023452
2370.5869,0.023627
2372.4505,0.024257
2374.3142,0.024727
2376.1779,0.024645
2378.0415,0.024467
2379.9052,0.024536
2381.7689,0.024551
2383.6325,0.024630
2385.4962,0.024783
2387.3599,0.024700
2389.2236,0.024464
2391.0872,0.024454
2392.9509,0.024712
2394.8146,0.025207
2396.6782,0.025680
2398.5419,0.025896
2400.4056,0.026013
2402.2692,0.026022
2404.1329,0.026297
2405.9966,0.026696
2407.8602,0.026691
2409.7239,0.026958
2411.5876,0.027603
2413.4512,0.028086
2415.3149,0.028167
2417.1786,0.028277
2419.0423,0.028434
2420.9059,0.028395
2422.7696,0.028304
2424.6333,0.028614
2426.4969,0.028905
2428.3606,0.029198
2430.2243,0.029470
2432.0879,0.029798
2433.9516,0.030170
2435.8153,0.030352
2437.6789,0.030520
2439.5426,0.030874
2441.4063,0.030757
2443.2700,0.030928
2445.1336,0.031495
2446.9973,0.031727
2448.8610,0.031403
2450.7246,0.031119
2452.5883,0.031359
2454.4520,0.031993
2456.3156,0.032221
2458.1793,0.031838
2460.0430,0.031733
2461.9066,0.031947
2463.7703,0.032367
2465.6340,0.032860
2467.4976,0.033060
2469.3613,0.033148
2471.2250,0.033255
2473.0887,0.033339
2474.9523,0.033516
2476.8160,0.034044
2478.6797,0.034496
2480.5433,0.034540
2482.4070,0.034531
2484.2707,0.034787
2486.1343,0.035169
2487.9980,0.035324
2489.8617,0.035665
2491.7253,0.036214
2493.5890,0.036545
2495.4527,0.037008
2497.3164,0.037635
2499.1800,0.038361
2501.0437,0.038567
2502.9074,0.038956
2504.7710,0.039420
2506.6347,0.039308
2508.4984,0.039064
2510.3620,0.039744
2512.2257,0.040563
2514.0894,0.041171
2515.9530,0.041751
2517.8167,0.042202
2519.6804,0.042312
2521.5440,0.042595
2523.4077,0.043349
2525.2714,0.044032
2527.1351,0.043923
2528.9987,0.044141
2530.8624,0.044925
2532.7261,0.045613
2534.5897,0.045959
2536.4534,0.046142
2538.3171,0.046149
2540.1807,0.046281
2542.0444,0.046854
2543.9081,0.047328
2545.7717,0.047535
2547.6354,0.048050
2549.4991,0.048332
2551.3627,0.048439
2553.2264,0.048659
2555.0901,0.049065
2556.9538,0.049336
2558.8174,0.049865
2560.6811,0.050356
2562.5448,0.050803
2564.4084,0.051151
2566.2721,0.051670
2568.1358,0.052639
2569.9994,0.053270
2571.8631,0.053543
2573.7268,0.053707
2575.5904,0.053709
2577.4541,0.054186
2579.3178,0.054504
2581.1815,0.054557
2583.0451,0.054675
2584.9088,0.055082
2586.7725,0.055297
2588.6361,0.055391
2590.4998,0.055515
2592.3635,0.055665
2594.2271,0.055985
2596.0908,0.056261
2597.9545,0.056465
2599.8181,0.056818
2601.6818,0.056840
2603.5455,0.056976
2605.4091,0.057486
2607.2728,0.057942
2609.1365,0.058137
2611.0002,0.058575
2612.8638,0.058731
2614.7275,0.059063
2616.5912,0.059718
2618.4548,0.060005
2620.3185,0.060201
2622.1822,0.060454
2624.0458,0.060162
2625.9095,0.060170
2627.7732,0.060173
2629.6368,0.059806
2631.5005,0.059447
2633.3642,0.059252
2635.2279,0.058914
2637.0915,0.058520
2638.9552,0.058007
2640.8189,0.057814
2642.6825,0.057403
2644.5462,0.057043
2646.4099,0.056982
2648.2735,0.056984
2650.1372,0.056732
2652.0009,0.056563
2653.8645,0.056748
2655.7282,0.056912
2657.5919,0.056902
2659.4555,0.056986
2661.3192,0.057100
2663.1829,0.057433
2665.0466,0.057795
2666.9102,0.058134
2668.7739,0.058363
2670.6376,0.058806
2672.5012,0.059528
2674.3649,0.060168
2676.2286,0.060845
2678.0922,0.061648
2679.9559,0.062311
2681.8196,0.062963
2683.6832,0.063294
2685.5469,0.063557
2687.4106,0.063840
2689.2742,0.064258
2691.1379,0.064553
2693.0016,0.064355
2694.8653,0.064408
2696.7289,0.064952
2698.5926,0.065257
2700.4563,0.065452
2702.3199,0.065550
2704.1836,0.065862
2706.0473,0.066211
2707.9109,0.066333
2709.7746,0.066568
2711.6383,0.067111
2713.5019,0.067500
2715.3656,0.067762
2717.2293,0.068191
2719.0930,0.068568
2720.9566,0.068646
2722.8203,0.068789
2724.6840,0.068886
2726.5476,0.069186
2728.4113,0.069843
2730.2750,0.070410
2732.1386,0.070679
2734.0023,0.070918
2735.8660,0.071248
2737.7296,0.071687
2739.5933,0.072133
2741.4570,0.072550
2743.3206,0.072723
2745.1843,0.072759
2747.0480,0.072747
2748.9117,0.073349
2750.7753,0.073969
2752.6390,0.074179
2754.5027,0.074310
2756.3663,0.074590
2758.2300,0.075054
2760.0937,0.075743
2761.9573,0.076171
2763.8210,0.076381
2765.6847,0.076784
2767.5483,0.077421
2769.4120,0.077712
2771.2757,0.078006
2773.1394,0.078509
2775.0030,0.079328
2776.8667,0.080256
2778.7304,0.080923
2780.5940,0.081163
2782.4577,0.081539
2784.3214,0.081920
2786.1850,0.082306
2788.0487,0.082509
2789.9124,0.082786
2791.7760,0.083134
2793.6397,0.083211
2795.5034,0.082806
2797.3670,0.082638
2799.2307,0.082943
2801.0944,0.083283
2802.9581,0.083013
2804.8217,0.082927
2806.6854,0.083254
2808.5491,0.083647
2810.4127,0.084062
2812.2764,0.084294
2814.1401,0.084282
2816.0037,0.084540
2817.8674,0.085027
2819.7311,0.085525
2821.5947,0.085931
2823.4584,0.086487
2825.3221,0.086784
2827.1857,0.086882
2829.0494,0.086995
2830.9131,0.087274
2832.7768,0.087634
2834.6404,0.088204
2836.5041,0.088983
2838.3678,0.090147
2840.2314,0.091140
2842.0951,0.092346
2843.9588,0.093394
2845.8224,0.094233
2847.6861,0.095181
2849.5498,0.096771
2851.4134,0.098282
2853.2771,0.099542
2855.1408,0.100707
2857.0045,0.102155
2858.8681,0.103697
2860.7318,0.105246
2862.5955,0.106656
2864.4591,0.108272
2866.3228,0.110505
2868.1865,0.112626
2870.0501,0.113480
2871.9138,0.113827
2873.7775,0.113496
2875.6411,0.112822
2877.5048,0.112107
2879.3685,0.111662
2881.2321,0.111033
2883.0958,0.110612
2884.9595,0.110818
2886.8232,0.111521
2888.6868,0.112013
2890.5505,0.112458
2892.4142,0.113102
2894.2778,0.113857
2896.1415,0.114412
2898.0052,0.115125
2899.8688,0.115439
2901.7325,0.115717
2903.5962,0.116210
2905.4598,0.116993
2907.3235,0.117528
2909.1872,0.117934
2911.0509,0.118545
2912.9145,0.119548
2914.7782,0.120502
2916.6419,0.121526
2918.5055,0.122049
2920.3692,0.122479
2922.2329,0.123130
2924.0965,0.124026
2925.9602,0.124251
2927.8239,0.124363
2929.6875,0.124518
2931.5512,0.124765
2933.4149,0.124386
2935.2785,0.123967
2937.1422,0.123827
2939.0059,0.123767
2940.8696,0.123128
2942.7332,0.122820
2944.5969,0.122461
2946.4606,0.122356
2948.3242,0.122405
2950.1879,0.122485
2952.0516,0.122499
2953.9152,0.123331
2955.7789,0.124214
2957.6426,0.124039
2959.5062,0.123065
2961.3699,0.122127
2963.2336,0.120774
2965.0972,0.119791
2966.9609,0.119175
2968.8246,0.118204
2970.6883,0.115987
2972.5519,0.113783
2974.4156,0.111943
2976.2793,0.110863
2978.1429,0.109949
2980.0066,0.109083
2981.8703,0.108408
2983.7339,0.108333
2985.5976,0.107681
2987.4613,0.106621
2989.3249,0.105895
2991.1886,0.105348
2993.0523,0.105016
2994.9160,0.104931
2996.7796,0.104315
2998.6433,0.104040
3000.5070,0.104121
3002.3706,0.104135
3004.2343,0.103882
3006.0980,0.103883
3007.9616,0.103786
3009.8253,0.103336
3011.6890,0.103358
3013.5526,0.104289
3015.4163,0.105175
3017.2800,0.105679
3019.1436,0.105237
3021.0073,0.104988
3022.8710,0.104847
3024.7347,0.104783
3026.5983,0.105030
3028.4620,0.105295
3030.3257,0.105263
3032.1893,0.105610
3034.0530,0.105803
3035.9167,0.105768
3037.7803,0.105614
3039.6440,0.105556
3041.5077,0.105659
3043.3713,0.106033
3045.2350,0.105828
3047.0987,0.105834
3048.9624,0.106048
3050.8260,0.106050
3052.6897,0.106202
3054.5534,0.106572
3056.4170,0.106223
3058.2807,0.105624
3060.1444,0.105299
3062.0080,0.105194
3063.8717,0.104547
3065.7354,0.104199
3067.5990,0.103908
3069.4627,0.103981
3071.3264,0.103741
3073.1900,0.102837
3075.0537,0.101599
3076.9174,0.101256
3078.7811,0.100722
3080.6447,0.099809
3082.5084,0.099512
3084.3721,0.099412
3086.2357,0.098527
3088.0994,0.097763
3089.9631,0.096915
3091.8267,0.096273
3093.6904,0.095473
3095.5541,0.094539
3097.4177,0.093505
3099.2814,0.092724
3101.1451,0.091992
3103.0087,0.091979
3104.8724,0.090694
3106.7361,0.088945
3108.5998,0.088246
3110.4634,0.087807
3112.3271,0.086024
3114.1908,0.084726
3116.0544,0.084568
3117.9181,0.084560
3119.7818,0.084331
3121.6454,0.084369
3123.5091,0.083633
3125.3728,0.082559
3127.2364,0.081331
3129.1001,0.080832
3130.9638,0.080518
3132.8275,0.079698
3134.6911,0.078679
3136.5548,0.077988
3138.4185,0.077553
3140.2821,0.077743
3142.1458,0.077812
3144.0095,0.076449
3145.8731,0.074775
3147.7368,0.074396
3149.6005,0.073868
3151.4641,0.072881
3153.3278,0.072135
3155.1915,0.072378
3157.0551,0.071472
3158.9188,0.070078
3160.7825,0.069421
3162.6462,0.068558
3164.5098,0.067394
3166.3735,0.066315
3168.2372,0.065354
3170.1008,0.064522
3171.9645,0.063704
3173.8282,0.063147
3175.6918,0.062156
3177.5555,0.061297
3179.4192,0.060883
3181.2828,0.060481
3183.1465,0.060128
3185.0102,0.059607
3186.8739,0.059433
3188.7375,0.059075
3190.6012,0.058364
3192.4649,0.058066
3194.3285,0.057720
3196.1922,0.057682
3198.0559,0.057083
3199.9195,0.056943
3201.7832,0.056241
3203.6469,0.055786
3205.5105,0.055932
3207.3742,0.055846
3209.2379,0.055601
3211.1015,0.055593
3212.9652,0.054771
3214.8289,0.054098
3216.6926,0.054468
3218.5562,0.054930
3220.4199,0.054784
3222.2836,0.055062
3224.1472,0.055206
3226.0109,0.054633
3227.8746,0.053835
3229.7382,0.053890
3231.6019,0.054125
3233.4656,0.054218
3235.3292,0.054494
3237.1929,0.054495
3239.0566,0.054466
3240.9202,0.054819
3242.7839,0.054844
3244.6476,0.054740
3246.5113,0.054532
3248.3749,0.055183
3250.2386,0.055882
3252.1023,0.055791
3253.9659,0.055698
3255.8296,0.056391
3257.6933,0.056436
3259.5569,0.055878
3261.4206,0.055625
3263.2843,0.056325
3265.1479,0.056716
3267.0116,0.056389
3268.8753,0.055644
3270.7390,0.055354
3272.6026,0.055851
3274.4663,0.057252
3276.3300,0.057395
3278.1936,0.056724
3280.0573,0.056439
3281.9210,0.056308
3283.7846,0.055311
3285.6483,0.054792
3287.5120,0.054404
3289.3756,0.054290
3291.2393,0.054399
3293.1030,0.054700
3294.9666,0.054248
3296.8303,0.053610
3298.6940,0.053276
3300.5577,0.052618
3302.4213,0.051348
3304.2850,0.051062
3306.1487,0.050832
3308.0123,0.050484
3309.8760,0.049899
3311.7397,0.049948
3313.6033,0.049769
3315.4670,0.049457
3317.3307,0.049346
3319.1943,0.050281
3321.0580,0.050454
3322.9217,0.050568
3324.7854,0.050303
3326.6490,0.049901
3328.5127,0.049810
3330.3764,0.050151
3332.2400,0.049438
3334.1037,0.049445
3335.9674,0.049157
3337.8310,0.048840
3339.6947,0.048484
3341.5584,0.048539
3343.4220,0.047432
3345.2857,0.046392
3347.1494,0.045396
3349.0130,0.044887
3350.8767,0.045120
3352.7404,0.045032
3354.6041,0.043629
3356.4677,0.043021
3358.3314,0.041925
3360.1951,0.041450
3362.0587,0.041745
3363.9224,0.040400
3365.7861,0.039324
3367.6497,0.039886
3369.5134,0.040600
3371.3771,0.041352
3373.2407,0.040357
3375.1044,0.039528
3376.9681,0.038945
3378.8317,0.038470
3380.6954,0.038498
3382.5591,0.038970
3384.4228,0.039615
3386.2864,0.040472
3388.1501,0.040493
3390.0138,0.040474
3391.8774,0.039645
3393.7411,0.039625
3395.6048,0.040599
3397.4684,0.040973
3399.3321,0.040221
3401.1958,0.039195
3403.0594,0.038995
3404.9231,0.039427
3406.7868,0.038056
3408.6505,0.037039
3410.5141,0.036823
3412.3778,0.036515
3414.2415,0.034305
3416.1051,0.032742
3417.9688,0.031800
3419.8325,0.031143
3421.6961,0.030587
3423.5598,0.030896
3425.4235,0.030561
3427.2871,0.029237
3429.1508,0.027953
3431.0145,0.027215
3432.8781,0.026903
3434.7418,0.026998
3436.6055,0.025275
3438.4692,0.024932
3440.3328,0.024383
3442.1965,0.023334
3444.0602,0.023788
3445.9238,0.023873
3447.7875,0.024701
3449.6512,0.025367
3451.5148,0.022963
3453.3785,0.020980
3455.2422,0.020662
3457.1058,0.021034
3458.9695,0.021001
3460.8332,0.020389
3462.6969,0.019539
3464.5605,0.020003
3466.4242,0.019427
3468.2879,0.019156
3470.1515,0.019578
3472.0152,0.019274
3473.8789,0.017937
3475.7425,0.018600
3477.6062,0.018145
3479.4699,0.016889
3481.3335,0.016636
3483.1972,0.016978
3485.0609,0.016458
3486.9245,0.016227
3488.7882,0.016194
3490.6519,0.015885
3492.5156,0.015216
3494.3792,0.015430
3496.2429,0.014562
3498.1066,0.013595
3499.9702,0.013433
3501.8339,0.014562
3503.6976,0.015272
3505.5612,0.014773
3507.4249,0.013551
3509.2886,0.012422
3511.1522,0.011557
3513.0159,0.012176
3514.8796,0.013433
3516.7432,0.013043
3518.6069,0.011461
3520.4706,0.011551
3522.3343,0.012006
3524.1979,0.011618
3526.0616,0.010330
3527.9253,0.010256
3529.7889,0.010187
3531.6526,0.011040
3533.5163,0.011085
3535.3799,0.010371
3537.2436,0.009150
3539.1073,0.008619
3540.9709,0.008387
3542.8346,0.008540
3544.6983,0.008767
3546.5620,0.008903
3548.4256,0.008816
3550.2893,0.008907
3552.1530,0.008631
3554.0166,0.008128
3555.8803,0.006694
3557.7440,0.006226
3559.6076,0.006687
3561.4713,0.007456
3563.3350,0.007136
3565.1986,0.006972
3567.0623,0.006798
3568.9260,0.006637
3570.7896,0.006852
3572.6533,0.006851
3574.5170,0.006445
3576.3807,0.006951
3578.2443,0.006049
3580.1080,0.005213
3581.9717,0.005398
3583.8353,0.006246
3585.6990,0.006658
3587.5627,0.005988
3589.4263,0.005046
3591.2900,0.004773
3593.1537,0.004651
3595.0173,0.005211
3596.8810,0.004722
3598.7447,0.004836
3600.6084,0.005889
3602.4720,0.006389
3604.3357,0.005377
3606.1994,0.004777
3608.0630,0.004555
3609.9267,0.004741
3611.7904,0.004118
3613.6540,0.003648
3615.5177,0.004235
3617.3814,0.003812
3619.2450,0.003310
3621.1087,0.004276
3622.9724,0.004674
3624.8360,0.004633
3626.6997,0.004418
3628.5634,0.003747
3630.4271,0.001984
3632.2907,0.003648
3634.1544,0.004903
3636.0181,0.005007
3637.8817,0.005415
3639.7454,0.005748
3641.6091,0.005715
3643.4727,0.005734
3645.3364,0.004299
3647.2001,0.002617
3649.0637,0.000904
3650.9274,0.000303
3652.7911,0.003117
3654.6547,0.004617
3656.5184,0.004425
3658.3821,0.005071
3660.2458,0.005227
3662.1094,0.005472
3663.9731,0.005223
3665.8368,0.005333
3667.7004,0.005406
3669.5641,0.004635
3671.4278,0.002277
3673.2914,0.002302
3675.1551,0.002835
3677.0188,0.001462
3678.8824,0.002805
3680.7461,0.004799
3682.6098,0.005309
3684.4735,0.005439
3686.3371,0.004299
3688.2008,0.002959
3690.0645,0.002609
3691.9281,0.003285
3693.7918,0.004129
3695.6555,0.004856
3697.5191,0.004825
3699.3828,0.004391
3701.2465,0.004382
3703.1101,0.003698
3704.9738,0.003261
3706.8375,0.003575
3708.7011,0.003698
3710.5648,0.004081
3712.4285,0.003546
3714.2922,0.003141
3716.1558,0.003305
3718.0195,0.003821
3719.8832,0.003952
3721.7468,0.004388
3723.6105,0.003728
3725.4742,0.003278
3727.3378,0.003950
3729.2015,0.004301
3731.0652,0.004060
3732.9288,0.003084
3734.7925,0.001434
3736.6562,0.001705
3738.5199,0.002668
3740.3835,0.003686
3742.2472,0.003482
3744.1109,0.003239
3745.9745,0.001853
3747.8382,0.001869
3749.7019,0.002472
3751.5655,0.001864
3753.4292,0.002089
3755.2929,0.003648
3757.1565,0.003894
3759.0202,0.004063
3760.8839,0.004246
3762.7475,0.004729
3764.6112,0.004677
3766.4749,0.004565
3768.3386,0.004285
3770.2022,0.004245
3772.0659,0.005008
3773.9296,0.005398
3775.7932,0.004892
3777.6569,0.005153
3779.5206,0.004998
3781.3842,0.004308
3783.2479,0.004699
3785.1116,0.005335
3786.9752,0.005412
3788.8389,0.005608
3790.7026,0.005700
3792.5662,0.005359
3794.4299,0.004577
3796.2936,0.004717
3798.1573,0.004667
3800.0209,0.003934
3801.8846,0.003477
3803.7483,0.003651
3805.6119,0.004745
3807.4756,0.005173
3809.3393,0.005094
3811.2029,0.005417
3813.0666,0.005457
3814.9303,0.005712
3816.7939,0.005108
3818.6576,0.004492
3820.5213,0.004649
3822.3850,0.003894
3824.2486,0.004083
3826.1123,0.005270
3827.9760,0.005475
3829.8396,0.005629
3831.7033,0.005273
3833.5670,0.004786
3835.4306,0.003815
3837.2943,0.003034
3839.1580,0.002709
3841.0216,0.004032
3842.8853,0.004760
3844.7490,0.005046
3846.6126,0.005469
3848.4763,0.005520
3850.3400,0.004811
3852.2037,0.004237
3854.0673,0.002640
3855.9310,0.002445
3857.7947,0.004462
3859.6583,0.004787
3861.5220,0.004592
3863.3857,0.004787
3865.2493,0.004267
3867.1130,0.003819
3868.9767,0.003826
3870.8403,0.004070
3872.7040,0.004693
3874.5677,0.005622
3876.4314,0.005569
3878.2950,0.005516
3880.1587,0.004914
3882.0224,0.004729
3883.8860,0.005283
3885.7497,0.005913
3887.6134,0.005048
3889.4770,0.005072
3891.3407,0.005026
3893.2044,0.005192
3895.0680,0.005799
3896.9317,0.005566
3898.7954,0.004304
3900.6590,0.004121
3902.5227,0.005036
3904.3864,0.005492
3906.2501,0.005296
3908.1137,0.005774
3909.9774,0.006195
3911.8411,0.006217
3913.7047,0.005699
3915.5684,0.005746
3917.4321,0.005347
3919.2957,0.005585
3921.1594,0.006357
3923.0231,0.006609
3924.8867,0.006367
3926.7504,0.006334
3928.6141,0.006758
3930.4777,0.006233
3932.3414,0.005249
3934.2051,0.005698
3936.0688,0.006213
3937.9324,0.006297
3939.7961,0.006182
3941.6598,0.006064
3943.5234,0.005673
3945.3871,0.005997
3947.2508,0.006025
3949.1144,0.005954
3950.9781,0.005284
3952.8418,0.005856
3954.7054,0.006953
3956.5691,0.006635
3958.4328,0.006093
3960.2965,0.006105
3962.1601,0.005887
3964.0238,0.006327
3965.8875,0.006716
3967.7511,0.006956
3969.6148,0.006336
3971.4785,0.006273
3973.3421,0.006779
3975.2058,0.006928
3977.0695,0.006152
3978.9331,0.006280
3980.7968,0.006706
3982.6605,0.006597
3984.5241,0.006359
3986.3878,0.006382
3988.2515,0.006211
3990.1152,0.006583
3991.9788,0.006756
3993.8425,0.006296
3995.7062,0.005708
3997.5698,0.005834
3999.4335,0.006237
