Wavenumber,Intensity
650.4205,0.204900
652.2841,0.205784
654.1478,0.201996
656.0115,0.197219
657.8751,0.191085
659.7388,0.181625
661.6025,0.178296
663.4661,0.178122
665.3298,0.177287
667.1935,0.177111
669.0571,0.177996
670.9208,0.178807
672.7845,0.180023
674.6481,0.180282
676.5118,0.181601
678.3755,0.183721
680.2392,0.185461
682.1028,0.184737
683.9665,0.183357
685.8302,0.182403
687.6938,0.181580
689.5575,0.179509
691.4212,0.178865
693.2848,0.178397
695.1485,0.178036
697.0122,0.176267
698.8758,0.172123
700.7395,0.167781
702.6032,0.164936
704.4669,0.161437
706.3305,0.155620
708.1942,0.148315
710.0579,0.140553
711.9215,0.131969
713.7852,0.124189
715.6489,0.117565
717.5125,0.111365
719.3762,0.104853
721.2399,0.098968
723.1035,0.094072
724.9672,0.089860
726.8309,0.085919
728.6945,0.082221
730.5582,0.079409
732.4219,0.077445
734.2856,0.075138
736.1492,0.073096
738.0129,0.071942
739.8766,0.072357
741.7402,0.074556
743.6039,0.076707
745.4676,0.077677
747.3312,0.077952
749.1949,0.077820
751.0586,0.077691
752.9222,0.077514
754.7859,0.077428
756.6496,0.077488
758.5132,0.077377
760.3769,0.077394
762.2406,0.077731
764.1043,0.078135
765.9679,0.078724
767.8316,0.079521
769.6953,0.080780
771.5589,0.081827
773.4226,0.082765
775.2863,0.083993
777.1499,0.085456
779.0136,0.086894
780.8773,0.088692
782.7409,0.091007
784.6046,0.093164
786.4683,0.095140
788.3320,0.097602
790.1956,0.100305
792.0593,0.103015
793.9230,0.105857
795.7866,0.108767
797.6503,0.111327
799.5140,0.113825
801.3776,0.115934
803.2413,0.117476
805.1050,0.118518
806.9686,0.119093
808.8323,0.119282
810.6960,0.118977
812.5596,0.117147
814.4233,0.114627
816.2870,0.112977
818.1507,0.112352
820.0143,0.112089
821.8780,0.112226
823.7417,0.113073
825.6053,0.114918
827.4690,0.117613
829.3327,0.118927
831.1963,0.113990
833.0600,0.102289
834.9237,0.090450
836.7873,0.082863
838.6510,0.077997
840.5147,0.074500
842.3784,0.071940
844.2420,0.070252
846.1057,0.069432
847.9694,0.068782
849.8330,0.067331
851.6967,0.064626
853.5604,0.061811
855.4240,0.060202
857.2877,0.059629
859.1514,0.059377
861.0150,0.059195
862.8787,0.059238
864.7424,0.059331
866.6060,0.059560
868.4697,0.059973
870.3334,0.060191
872.1971,0.060500
874.0607,0.060867
875.9244,0.061068
877.7881,0.061512
879.6517,0.062186
881.5154,0.062677
883.3791,0.063162
885.2427,0.063744
887.1064,0.064321
888.9701,0.064877
890.8337,0.065449
892.6974,0.066213
894.5611,0.067088
896.4247,0.068126
898.2884,0.069311
900.1521,0.070655
902.0158,0.072364
903.8794,0.074719
905.7431,0.077879
907.6068,0.081447
909.4704,0.085410
911.3341,0.090364
913.1978,0.096153
915.0614,0.099063
916.9251,0.093242
918.7888,0.081437
920.6524,0.072332
922.5161,0.068561
924.3798,0.067734
926.2435,0.067864
928.1071,0.068338
929.9708,0.069106
931.8345,0.070047
933.6981,0.070829
935.5618,0.071501
937.4255,0.072333
939.2891,0.073223
941.1528,0.074095
943.0165,0.074917
944.8801,0.075787
946.7438,0.076812
948.6075,0.077890
950.4711,0.079126
952.3348,0.080405
954.1985,0.081596
956.0622,0.082883
957.9258,0.084391
959.7895,0.085929
961.6532,0.087486
963.5168,0.089366
965.3805,0.091455
967.2442,0.093694
969.1078,0.096397
970.9715,0.099301
972.8352,0.102449
974.6988,0.107298
976.5625,0.115370
978.4262,0.128428
980.2899,0.145872
982.1535,0.152202
984.0172,0.131713
985.8809,0.104663
987.7445,0.092386
989.6082,0.090321
991.4719,0.090182
993.3355,0.090182
995.1992,0.090083
997.0629,0.089843
998.9265,0.089558
1000.7902,0.089125
1002.6539,0.088679
1004.5175,0.088313
1006.3812,0.087919
1008.2449,0.087479
1010.1086,0.087028
1011.9722,0.086692
1013.8359,0.086622
1015.6996,0.086794
1017.5632,0.087080
1019.4269,0.087570
1021.2906,0.088383
1023.1542,0.089503
1025.0179,0.090986
1026.8816,0.092985
1028.7452,0.095392
1030.6089,0.097036
1032.4726,0.095907
1034.3362,0.092331
1036.1999,0.089771
1038.0636,0.090265
1039.9273,0.093149
1041.7909,0.097332
1043.6546,0.101894
1045.5183,0.105513
1047.3819,0.106249
1049.2456,0.103380
1051.1093,0.097907
1052.9729,0.091326
1054.8366,0.085674
1056.7003,0.082450
1058.5639,0.081406
1060.4276,0.081523
1062.2913,0.082009
1064.1550,0.082670
1066.0186,0.083641
1067.8823,0.084926
1069.7460,0.086350
1071.6096,0.087905
1073.4733,0.089559
1075.3370,0.091185
1077.2006,0.092961
1079.0643,0.094848
1080.9280,0.096805
1082.7916,0.098950
1084.6553,0.101380
1086.5190,0.104112
1088.3826,0.107096
1090.2463,0.110372
1092.1100,0.114042
1093.9737,0.118223
1095.8373,0.122903
1097.7010,0.128044
1099.5647,0.133589
1101.4283,0.139245
1103.2920,0.144351
1105.1557,0.147967
1107.0193,0.148784
1108.8830,0.145694
1110.7467,0.138876
1112.6103,0.129505
1114.4740,0.119450
1116.3377,0.110416
1118.2014,0.103111
1120.0650,0.097768
1121.9287,0.094162
1123.7924,0.091843
1125.6560,0.090145
1127.5197,0.088498
1129.3834,0.086945
1131.2470,0.085514
1133.1107,0.084112
1134.9744,0.082939
1136.8380,0.082165
1138.7017,0.081726
1140.5654,0.081567
1142.4290,0.081675
1144.2927,0.081914
1146.1564,0.082130
1148.0201,0.082375
1149.8837,0.082732
1151.7474,0.083115
1153.6111,0.083596
1155.4747,0.084358
1157.3384,0.085333
1159.2021,0.086497
1161.0657,0.087890
1162.9294,0.089562
1164.7931,0.091621
1166.6567,0.094232
1168.5204,0.097426
1170.3841,0.100640
1172.2477,0.102853
1174.1114,0.102760
1175.9751,0.099800
1177.8388,0.095574
1179.7024,0.092156
1181.5661,0.090159
1183.4298,0.089362
1185.2934,0.089340
1187.1571,0.089476
1189.0208,0.089464
1190.8844,0.089340
1192.7481,0.089147
1194.6118,0.089028
1196.4754,0.089074
1198.3391,0.089249
1200.2028,0.089548
1202.0665,0.089846
1203.9301,0.090068
1205.7938,0.090366
1207.6575,0.090759
1209.5211,0.091066
1211.3848,0.091398
1213.2485,0.091792
1215.1121,0.092099
1216.9758,0.092415
1218.8395,0.092747
1220.7031,0.093007
1222.5668,0.093289
1224.4305,0.093670
1226.2941,0.093978
1228.1578,0.094207
1230.0215,0.094593
1231.8852,0.094945
1233.7488,0.095254
1235.6125,0.095654
1237.4762,0.096045
1239.3398,0.096520
1241.2035,0.097056
1243.0672,0.097534
1244.9308,0.098009
1246.7945,0.098513
1248.6582,0.099094
1250.5218,0.099701
1252.3855,0.100302
1254.2492,0.100882
1256.1129,0.101408
1257.9765,0.102048
1259.8402,0.102905
1261.7039,0.103798
1263.5675,0.104674
1265.4312,0.105429
1267.2949,0.105761
1269.1585,0.105697
1271.0222,0.105441
1272.8859,0.105219
1274.7495,0.105215
1276.6132,0.105485
1278.4769,0.106031
1280.3405,0.106765
1282.2042,0.107712
1284.0679,0.108802
1285.9316,0.110155
1287.7952,0.111931
1289.6589,0.113887
1291.5226,0.116153
1293.3862,0.119044
1295.2499,0.122528
1297.1136,0.126734
1298.9772,0.131636
1300.8409,0.137399
1302.7046,0.143401
1304.5682,0.147222
1306.4319,0.145630
1308.2956,0.135691
1310.1592,0.118375
1312.0229,0.101084
1313.8866,0.090299
1315.7503,0.086590
1317.6139,0.086788
1319.4776,0.088482
1321.3413,0.090447
1323.2049,0.092408
1325.0686,0.094403
1326.9323,0.096393
1328.7959,0.098310
1330.6596,0.100022
1332.5233,0.101332
1334.3869,0.102105
1336.2506,0.102547
1338.1143,0.103492
1339.9780,0.105055
1341.8416,0.105666
1343.7053,0.105600
1345.5690,0.106048
1347.4326,0.106787
1349.2963,0.107738
1351.1600,0.108868
1353.0236,0.110232
1354.8873,0.111983
1356.7510,0.113669
1358.6146,0.115005
1360.4783,0.116997
1362.3420,0.120588
1364.2056,0.123918
1366.0693,0.125718
1367.9330,0.128329
1369.7967,0.131369
1371.6603,0.133713
1373.5240,0.137038
1375.3877,0.141185
1377.2513,0.144029
1379.1150,0.147478
1380.9787,0.151937
1382.8423,0.156477
1384.7060,0.161184
1386.5697,0.167257
1388.4333,0.174163
1390.2970,0.177681
1392.1607,0.178275
1394.0244,0.176476
1395.8880,0.170640
1397.7517,0.162408
1399.6154,0.152789
1401.4790,0.143946
1403.3427,0.135697
1405.2064,0.123516
1407.0700,0.108640
1408.9337,0.094490
1410.7974,0.081414
1412.6610,0.072350
1414.5247,0.068285
1416.3884,0.067908
1418.2520,0.071144
1420.1157,0.077385
1421.9794,0.080550
1423.8431,0.078690
1425.7067,0.071690
1427.5704,0.064473
1429.4341,0.060104
1431.2977,0.058721
1433.1614,0.059197
1435.0251,0.060781
1436.8887,0.064326
1438.7524,0.067250
1440.6161,0.068921
1442.4797,0.071450
1444.3434,0.073939
1446.2071,0.075943
1448.0707,0.076983
1449.9344,0.075643
1451.7981,0.072488
1453.6618,0.068755
1455.5254,0.066126
1457.3891,0.066037
1459.2528,0.066200
1461.1164,0.065335
1462.9801,0.064936
1464.8438,0.064926
1466.7074,0.064003
1468.5711,0.062404
1470.4348,0.061535
1472.2984,0.061873
1474.1621,0.062447
1476.0258,0.062173
1477.8895,0.061984
1479.7531,0.061790
1481.6168,0.062007
1483.4805,0.061956
1485.3441,0.061768
1487.2078,0.062211
1489.0715,0.063744
1490.9351,0.065079
1492.7988,0.064740
1494.6625,0.064588
1496.5261,0.066237
1498.3898,0.068056
1500.2535,0.068501
1502.1171,0.068035
1503.9808,0.067585
1505.8445,0.069162
1507.7082,0.074696
1509.5718,0.074955
1511.4355,0.074744
1513.2992,0.075312
1515.1628,0.076099
1517.0265,0.077632
1518.8902,0.078677
1520.7538,0.080037
1522.6175,0.082846
1524.4812,0.083071
1526.3448,0.084146
1528.2085,0.085390
1530.0722,0.085819
1531.9359,0.086883
1533.7995,0.089464
1535.6632,0.090022
1537.5269,0.089604
1539.3905,0.092316
1541.2542,0.098304
1543.1179,0.099834
1544.9815,0.101445
1546.8452,0.102742
1548.7089,0.104054
1550.5725,0.106443
1552.4362,0.108420
1554.2999,0.109870
1556.1635,0.111566
1558.0272,0.115279
1559.8909,0.126022
1561.7546,0.125379
1563.6182,0.124754
1565.4819,0.126730
1567.3456,0.129321
1569.2092,0.133175
1571.0729,0.137568
1572.9366,0.138804
1574.8002,0.141575
1576.6639,0.147864
1578.5276,0.152010
1580.3912,0.153431
1582.2549,0.156192
1584.1186,0.158773
1585.9822,0.160870
1587.8459,0.162345
1589.7096,0.163660
1591.5733,0.164136
1593.4369,0.164151
1595.3006,0.163802
1597.1643,0.163136
1599.0279,0.161949
1600.8916,0.160845
1602.7553,0.159456
1604.6189,0.158206
1606.4826,0.157198
1608.3463,0.156142
1610.2099,0.154420
1612.0736,0.151645
1613.9373,0.147680
1615.8010,0.142874
1617.6646,0.135799
1619.5283,0.129969
1621.3920,0.124930
1623.2556,0.117804
1625.1193,0.110041
1626.9830,0.103317
1628.8466,0.095223
1630.7103,0.087740
1632.5740,0.081490
1634.4376,0.074622
1636.3013,0.066534
1638.1650,0.063114
1640.0286,0.062964
1641.8923,0.062513
1643.7560,0.062861
1645.6197,0.064157
1647.4833,0.066219
1649.3470,0.067459
1651.2107,0.068835
1653.0743,0.071876
1654.9380,0.075303
1656.8017,0.075448
1658.6653,0.075855
1660.5290,0.075729
1662.3927,0.075094
1664.2563,0.073744
1666.1200,0.072455
1667.9837,0.071036
1669.8474,0.069247
1671.7110,0.068280
1673.5747,0.068754
1675.4384,0.070283
1677.3020,0.072428
1679.1657,0.074218
1681.0294,0.076553
1682.8930,0.078847
1684.7567,0.082122
1686.6204,0.083445
1688.4840,0.083144
1690.3477,0.082238
1692.2114,0.080609
1694.0750,0.078133
1695.9387,0.074532
1697.8024,0.070410
1699.6661,0.067237
1701.5297,0.060198
1703.3934,0.055364
1705.2571,0.049201
1707.1207,0.041471
1708.9844,0.036516
1710.8481,0.032927
1712.7117,0.030036
1714.5754,0.028040
1716.4391,0.025974
1718.3027,0.024899
1720.1664,0.024173
1722.0301,0.023824
1723.8937,0.022664
1725.7574,0.021272
1727.6211,0.020006
1729.4848,0.018852
1731.3484,0.017516
1733.2121,0.016898
1735.0758,0.015694
1736.9394,0.014936
1738.8031,0.014668
1740.6668,0.014403
1742.5304,0.014019
1744.3941,0.013755
1746.2578,0.013227
1748.1214,0.012839
1749.9851,0.012360
1751.8488,0.012184
1753.7125,0.011975
1755.5761,0.011985
1757.4398,0.011805
1759.3035,0.011785
1761.1671,0.011733
1763.0308,0.011682
1764.8945,0.011627
1766.7581,0.011716
1768.6218,0.011516
1770.4855,0.011379
1772.3491,0.011243
1774.2128,0.011162
1776.0765,0.011117
1777.9401,0.011423
1779.8038,0.011470
1781.6675,0.011414
1783.5312,0.011512
1785.3948,0.011841
1787.2585,0.011806
1789.1222,0.011773
1790.9858,0.011770
1792.8495,0.011970
1794.7132,0.011757
1796.5768,0.011882
1798.4405,0.012093
1800.3042,0.012221
1802.1678,0.012207
1804.0315,0.012371
1805.8952,0.012457
1807.7589,0.012634
1809.6225,0.012715
1811.4862,0.012828
1813.3499,0.012836
1815.2135,0.012881
1817.0772,0.012905
1818.9409,0.013203
1820.8045,0.013174
1822.6682,0.013224
1824.5319,0.013305
1826.3955,0.013404
1828.2592,0.013268
1830.1229,0.013376
1831.9865,0.013196
1833.8502,0.013285
1835.7139,0.013389
1837.5776,0.013352
1839.4412,0.013148
1841.3049,0.013219
1843.1686,0.013368
1845.0322,0.013499
1846.8959,0.013263
1848.7596,0.013373
1850.6232,0.013288
1852.4869,0.013291
1854.3506,0.013215
1856.2142,0.013243
1858.0779,0.013293
1859.9416,0.013365
1861.8052,0.013192
1863.6689,0.013244
1865.5326,0.013073
1867.3963,0.013237
1869.2599,0.013201
1871.1236,0.013419
1872.9873,0.013847
1874.8509,0.013979
1876.7146,0.013953
1878.5783,0.014185
1880.4419,0.014380
1882.3056,0.014875
1884.1693,0.014956
1886.0329,0.015268
1887.8966,0.015673
1889.7603,0.015630
1891.6240,0.015277
1893.4876,0.015513
1895.3513,0.015760
1897.2150,0.016287
1899.0786,0.016706
1900.9423,0.017158
1902.8060,0.017168
1904.6696,0.017409
1906.5333,0.017330
1908.3970,0.017657
1910.2606,0.017860
1912.1243,0.017790
1913.9880,0.017487
1915.8516,0.017202
1917.7153,0.016637
1919.5790,0.016477
1921.4427,0.016216
1923.3063,0.016380
1925.1700,0.016259
1927.0337,0.015910
1928.8973,0.015442
1930.7610,0.015116
1932.6247,0.014747
1934.4883,0.014605
1936.3520,0.014103
1938.2157,0.013902
1940.0793,0.013438
1941.9430,0.013131
1943.8067,0.012481
1945.6704,0.011621
1947.5340,0.011044
1949.3977,0.011270
1951.2614,0.010854
1953.1250,0.010295
1954.9887,0.010411
1956.8524,0.010135
1958.7160,0.007902
1960.5797,0.007445
1962.4434,0.008157
1964.3070,0.007465
1966.1707,0.006194
1968.0344,0.006252
1969.8980,0.005550
1971.7617,0.005182
1973.6254,0.004913
1975.4891,0.004486
1977.3527,0.004962
1979.2164,0.006946
1981.0801,0.007079
1982.9437,0.007066
1984.8074,0.007545
1986.6711,0.008589
1988.5347,0.008752
1990.3984,0.009468
1992.2621,0.008949
1994.1257,0.008387
1995.9894,0.007741
1997.8531,0.008955
1999.7167,0.009271
2001.5804,0.008976
2003.4441,0.008441
2005.3078,0.007580
2007.1714,0.007272
2009.0351,0.006956
2010.8988,0.005502
2012.7624,0.007018
2014.6261,0.008552
2016.4898,0.007042
2018.3534,0.005349
2020.2171,0.005337
2022.0808,0.005204
2023.9444,0.006727
2025.8081,0.007368
2027.6718,0.007523
2029.5355,0.006039
2031.3991,0.006472
2033.2628,0.007793
2035.1265,0.008240
2036.9901,0.008143
2038.8538,0.008790
2040.7175,0.008818
2042.5811,0.008608
2044.4448,0.007965
2046.3085,0.008743
2048.1721,0.010290
2050.0358,0.011712
2051.8995,0.011372
2053.7631,0.011479
2055.6268,0.011612
2057.4905,0.012327
2059.3542,0.012734
2061.2178,0.012428
2063.0815,0.012342
2064.9452,0.012447
2066.8088,0.012236
2068.6725,0.012436
2070.5362,0.012439
2072.3998,0.013022
2074.2635,0.013114
2076.1272,0.013189
2077.9908,0.013664
2079.8545,0.013672
2081.7182,0.013444
2083.5819,0.014353
2085.4455,0.014424
2087.3092,0.014013
2089.1729,0.013917
2091.0365,0.013962
2092.9002,0.013340
2094.7639,0.013287
2096.6275,0.013421
2098.4912,0.013535
2100.3549,0.013361
2102.2185,0.013639
2104.0822,0.013863
2105.9459,0.013631
2107.8095,0.013569
2109.6732,0.014045
2111.5369,0.013800
2113.4006,0.013854
2115.2642,0.014468
2117.1279,0.014183
2118.9916,0.013148
2120.8552,0.012950
2122.7189,0.013621
2124.5826,0.013933
2126.4462,0.013047
2128.3099,0.012933
2130.1736,0.012829
2132.0372,0.012291
2133.9009,0.011175
2135.7646,0.011817
2137.6282,0.011630
2139.4919,0.010148
2141.3556,0.009743
2143.2193,0.010463
2145.0829,0.010030
2146.9466,0.010285
2148.8103,0.010806
2150.6739,0.010275
2152.5376,0.007888
2154.4013,0.006371
2156.2649,0.005439
2158.1286,0.004947
2159.9923,0.005434
2161.8559,0.006185
2163.7196,0.005652
2165.5833,0.007019
2167.4470,0.007810
2169.3106,0.007849
2171.1743,0.007459
2173.0380,0.008573
2174.9016,0.009486
2176.7653,0.009913
2178.6290,0.010516
2180.4926,0.010502
2182.3563,0.009321
2184.2200,0.009485
2186.0836,0.009607
2187.9473,0.010375
2189.8110,0.011134
2191.6746,0.011804
2193.5383,0.011785
2195.4020,0.011239
2197.2657,0.010920
2199.1293,0.012300
2200.9930,0.012601
2202.8567,0.012146
2204.7203,0.012991
2206.5840,0.013497
2208.4477,0.012793
2210.3113,0.012604
2212.1750,0.012452
2214.0387,0.013030
2215.9023,0.013554
2217.7660,0.014542
2219.6297,0.014906
2221.4934,0.014795
2223.3570,0.014220
2225.2207,0.014580
2227.0844,0.015116
2228.9480,0.015687
2230.8117,0.015688
2232.6754,0.015508
2234.5390,0.015841
2236.4027,0.016279
2238.2664,0.016862
2240.1300,0.017145
2241.9937,0.016750
2243.8574,0.017014
2245.7210,0.017361
2247.5847,0.017592
2249.4484,0.017185
2251.3121,0.017213
2253.1757,0.017901
2255.0394,0.018345
2256.9031,0.018989
2258.7667,0.019431
2260.6304,0.018732
2262.4941,0.018702
2264.3577,0.018999
2266.2214,0.019461
2268.0851,0.019548
2269.9487,0.019598
2271.8124,0.019512
2273.6761,0.019688
2275.5397,0.020537
2277.4034,0.021002
2279.2671,0.021298
2281.1308,0.021802
2282.9944,0.022035
2284.8581,0.022267
2286.7218,0.022064
2288.5854,0.021859
2290.4491,0.022140
2292.3128,0.022223
2294.1764,0.022136
2296.0401,0.022270
2297.9038,0.022541
2299.7674,0.022317
2301.6311,0.022103
2303.4948,0.022316
2305.3585,0.022698
2307.2221,0.022956
2309.0858,0.022815
2310.9495,0.022935
2312.8131,0.023012
2314.6768,0.022911
2316.5405,0.023053
2318.4041,0.023200
2320.2678,0.023303
2322.1315,0.023536
2323.9951,0.023425
2325.8588,0.023284
2327.7225,0.022959
2329.5861,0.022653
2331.4498,0.022351
2333.3135,0.022131
2335.1772,0.022209
2337.0408,0.022169
2338.9045,0.022391
2340.7682,0.022920
2342.6318,0.023014
2344.4955,0.022787
2346.3592,0.022875
2348.2228,0.023045
2350.0865,0.022706
2351.9502,0.022566
2353.8138,0.022446
2355.6775,0.022273
2357.5412,0.022238
2359.4049,0.022264
2361.2685,0.022431
2363.1322,0.022776
2364.9959,0.022336
2366.8595,0.022110
2368.7232,0.022280
2370.5869,0.022704
2372.4505,0.023212
2374.3142,0.023603
2376.1779,0.023840
2378.0415,0.024106
2379.9052,0.023982
2381.7689,0.023992
2383.6325,0.024206
2385.4962,0.024036
2387.3599,0.024064
2389.2236,0.024167
2391.0872,0.023938
2392.9509,0.024092
2394.8146,0.024443
2396.6782,0.024403
2398.5419,0.024696
2400.4056,0.024920
2402.2692,0.024788
2404.1329,0.024743
2405.9966,0.024592
2407.8602,0.024703
2409.7239,0.024780
2411.5876,0.024779
2413.4512,0.025090
2415.3149,0.025107
2417.1786,0.025147
2419.0423,0.025429
2420.9059,0.025422
2422.7696,0.025385
2424.6333,0.025556
2426.4969,0.025781
2428.3606,0.025764
2430.2243,0.025756
2432.0879,0.025910
2433.9516,0.026046
2435.8153,0.025649
2437.6789,0.025621
2439.5426,0.025978
2441.4063,0.026054
2443.2700,0.025577
2445.1336,0.025395
2446.9973,0.025742
2448.8610,0.025778
2450.7246,0.025815
2452.5883,0.025843
2454.4520,0.025762
2456.3156,0.025722
2458.1793,0.025504
2460.0430,0.025287
2461.9066,0.025258
2463.7703,0.025227
2465.6340,0.025325
2467.4976,0.025382
2469.3613,0.025174
2471.2250,0.025045
2473.0887,0.025294
2474.9523,0.025214
2476.8160,0.025062
2478.6797,0.025098
2480.5433,0.025053
2482.4070,0.025357
2484.2707,0.025756
2486.1343,0.025810
2487.9980,0.025720
2489.8617,0.025718
2491.7253,0.025828
2493.5890,0.025917
2495.4527,0.026242
2497.3164,0.026678
2499.1800,0.026755
2501.0437,0.026781
2502.9074,0.026586
2504.7710,0.026335
2506.6347,0.026119
2508.4984,0.025847
2510.3620,0.025642
2512.2257,0.025850
2514.0894,0.026091
2515.9530,0.026266
2517.8167,0.025873
2519.6804,0.025852
2521.5440,0.026423
2523.4077,0.026721
2525.2714,0.026588
2527.1351,0.026424
2528.9987,0.026492
2530.8624,0.026592
2532.7261,0.026485
2534.5897,0.026589
2536.4534,0.026423
2538.3171,0.026435
2540.1807,0.026442
2542.0444,0.026299
2543.9081,0.026440
2545.7717,0.026123
2547.6354,0.025794
2549.4991,0.025877
2551.3627,0.025913
2553.2264,0.025970
2555.0901,0.026125
2556.9538,0.026172
2558.8174,0.026134
2560.6811,0.026245
2562.5448,0.025967
2564.4084,0.026033
2566.2721,0.026365
2568.1358,0.026522
2569.9994,0.026293
2571.8631,0.025952
2573.7268,0.025900
2575.5904,0.026198
2577.4541,0.026316
2579.3178,0.026167
2581.1815,0.026284
2583.0451,0.026304
2584.9088,0.026541
2586.7725,0.026920
2588.6361,0.026817
2590.4998,0.026701
2592.3635,0.026449
2594.2271,0.026486
2596.0908,0.026746
2597.9545,0.027011
2599.8181,0.027184
2601.6818,0.027106
2603.5455,0.027006
2605.4091,0.027060
2607.2728,0.026981
2609.1365,0.027119
2611.0002,0.027352
2612.8638,0.027389
2614.7275,0.027264
2616.5912,0.027334
2618.4548,0.027699
2620.3185,0.027942
2622.1822,0.027903
2624.0458,0.027796
2625.9095,0.028130
2627.7732,0.028674
2629.6368,0.028873
2631.5005,0.028904
2633.3642,0.029042
2635.2279,0.029094
2637.0915,0.029160
2638.9552,0.029287
2640.8189,0.029375
2642.6825,0.029457
2644.5462,0.029573
2646.4099,0.029617
2648.2735,0.029571
2650.1372,0.029568
2652.0009,0.029504
2653.8645,0.029478
2655.7282,0.029635
2657.5919,0.029747
2659.4555,0.029824
2661.3192,0.029925
2663.1829,0.029845
2665.0466,0.029756
2666.9102,0.029808
2668.7739,0.029739
2670.6376,0.029723
2672.5012,0.029885
2674.3649,0.029948
2676.2286,0.029893
2678.0922,0.030010
2679.9559,0.030263
2681.8196,0.030535
2683.6832,0.030450
2685.5469,0.030303
2687.4106,0.030425
2689.2742,0.030591
2691.1379,0.030729
2693.0016,0.030804
2694.8653,0.030922
2696.7289,0.031194
2698.5926,0.031251
2700.4563,0.031362
2702.3199,0.031593
2704.1836,0.031653
2706.0473,0.031745
2707.9109,0.031906
2709.7746,0.032216
2711.6383,0.032557
2713.5019,0.032710
2715.3656,0.032800
2717.2293,0.032927
2719.0930,0.033145
2720.9566,0.033395
2722.8203,0.033811
2724.6840,0.034045
2726.5476,0.034380
2728.4113,0.034995
2730.2750,0.035287
2732.1386,0.035367
2734.0023,0.035669
2735.8660,0.036090
2737.7296,0.036452
2739.5933,0.036819
2741.4570,0.037017
2743.3206,0.037186
2745.1843,0.037587
2747.0480,0.038126
2748.9117,0.038790
2750.7753,0.039335
2752.6390,0.039668
2754.5027,0.039830
2756.3663,0.040125
2758.2300,0.040487
2760.0937,0.040861
2761.9573,0.041462
2763.8210,0.041993
2765.6847,0.042105
2767.5483,0.042328
2769.4120,0.042800
2771.2757,0.043390
2773.1394,0.043980
2775.0030,0.044570
2776.8667,0.045016
2778.7304,0.045311
2780.5940,0.045465
2782.4577,0.045542
2784.3214,0.045515
2786.1850,0.045342
2788.0487,0.044973
2789.9124,0.044776
2791.7760,0.044655
2793.6397,0.044204
2795.5034,0.043529
2797.3670,0.043040
2799.2307,0.042809
2801.0944,0.042707
2802.9581,0.042282
2804.8217,0.041848
2806.6854,0.041551
2808.5491,0.041358
2810.4127,0.041199
2812.2764,0.040899
2814.1401,0.040638
2816.0037,0.040815
2817.8674,0.041077
2819.7311,0.041336
2821.5947,0.041492
2823.4584,0.041372
2825.3221,0.041318
2827.1857,0.041147
2829.0494,0.040741
2830.9131,0.040426
2832.7768,0.040274
2834.6404,0.040201
2836.5041,0.040289
2838.3678,0.040716
2840.2314,0.041329
2842.0951,0.041640
2843.9588,0.041626
2845.8224,0.041917
2847.6861,0.042583
2849.5498,0.043203
2851.4134,0.043546
2853.2771,0.043911
2855.1408,0.044544
2857.0045,0.045176
2858.8681,0.045590
2860.7318,0.045941
2862.5955,0.046290
2864.4591,0.046510
2866.3228,0.046637
2868.1865,0.046682
2870.0501,0.046782
2871.9138,0.047049
2873.7775,0.047387
2875.6411,0.047839
2877.5048,0.048234
2879.3685,0.048891
2881.2321,0.049375
2883.0958,0.049864
2884.9595,0.050206
2886.8232,0.050299
2888.6868,0.050725
2890.5505,0.051071
2892.4142,0.051098
2894.2778,0.051429
2896.1415,0.051960
2898.0052,0.052239
2899.8688,0.052393
2901.7325,0.052418
2903.5962,0.052084
2905.4598,0.051998
2907.3235,0.052457
2909.1872,0.052708
2911.0509,0.053069
2912.9145,0.053686
2914.7782,0.054282
2916.6419,0.054859
2918.5055,0.055305
2920.3692,0.055737
2922.2329,0.056108
2924.0965,0.056332
2925.9602,0.056572
2927.8239,0.057164
2929.6875,0.057780
2931.5512,0.058408
2933.4149,0.058735
2935.2785,0.058573
2937.1422,0.058806
2939.0059,0.059340
2940.8696,0.059635
2942.7332,0.059914
2944.5969,0.059895
2946.4606,0.059994
2948.3242,0.060499
2950.1879,0.060696
2952.0516,0.060691
2953.9152,0.061054
2955.7789,0.061458
2957.6426,0.061743
2959.5062,0.062141
2961.3699,0.062561
2963.2336,0.062749
2965.0972,0.063344
2966.9609,0.064458
2968.8246,0.064930
2970.6883,0.064897
2972.5519,0.065553
2974.4156,0.066443
2976.2793,0.067126
2978.1429,0.067551
2980.0066,0.067692
2981.8703,0.067707
2983.7339,0.067790
2985.5976,0.067957
2987.4613,0.068463
2989.3249,0.069110
2991.1886,0.069684
2993.0523,0.070125
2994.9160,0.070675
2996.7796,0.071274
2998.6433,0.071823
3000.5070,0.072650
3002.3706,0.073543
3004.2343,0.073929
3006.0980,0.074385
3007.9616,0.074893
3009.8253,0.075515
3011.6890,0.075998
3013.5526,0.076547
3015.4163,0.076935
3017.2800,0.077281
3019.1436,0.077621
3021.0073,0.077762
3022.8710,0.078236
3024.7347,0.078404
3026.5983,0.077993
3028.4620,0.078052
3030.3257,0.078849
3032.1893,0.079834
3034.0530,0.080018
3035.9167,0.079928
3037.7803,0.080036
3039.6440,0.080177
3041.5077,0.080447
3043.3713,0.081054
3045.2350,0.081354
3047.0987,0.081312
3048.9624,0.081100
3050.8260,0.081006
3052.6897,0.081224
3054.5534,0.081451
3056.4170,0.081878
3058.2807,0.082119
3060.1444,0.081850
3062.0080,0.081736
3063.8717,0.081762
3065.7354,0.081912
3067.5990,0.081985
3069.4627,0.081904
3071.3264,0.081778
3073.1900,0.081701
3075.0537,0.081237
3076.9174,0.080795
3078.7811,0.080913
3080.6447,0.081101
3082.5084,0.080975
3084.3721,0.080660
3086.2357,0.080107
3088.0994,0.079216
3089.9631,0.078541
3091.8267,0.077863
3093.6904,0.077442
3095.5541,0.077253
3097.4177,0.076387
3099.2814,0.075453
3101.1451,0.074719
3103.0087,0.074164
3104.8724,0.073434
3106.7361,0.072557
3108.5998,0.071958
3110.4634,0.071142
3112.3271,0.069959
3114.1908,0.069384
3116.0544,0.068941
3117.9181,0.068400
3119.7818,0.067980
3121.6454,0.067583
3123.5091,0.066962
3125.3728,0.066057
3127.2364,0.065054
3129.1001,0.064263
3130.9638,0.063672
3132.8275,0.062999
3134.6911,0.062128
3136.5548,0.061796
3138.4185,0.061978
3140.2821,0.061798
3142.1458,0.061681
3144.0095,0.061450
3145.8731,0.060743
3147.7368,0.060190
3149.6005,0.059531
3151.4641,0.059129
3153.3278,0.059230
3155.1915,0.059491
3157.0551,0.058671
3158.9188,0.057316
3160.7825,0.056855
3162.6462,0.056794
3164.5098,0.056311
3166.3735,0.056287
3168.2372,0.056595
3170.1008,0.056043
3171.9645,0.055194
3173.8282,0.054722
3175.6918,0.054403
3177.5555,0.053857
3179.4192,0.053590
3181.2828,0.054298
3183.1465,0.054454
3185.0102,0.053716
3186.8739,0.053436
3188.7375,0.053570
3190.6012,0.053589
3192.4649,0.053640
3194.3285,0.053420
3196.1922,0.052973
3198.0559,0.053102
3199.9195,0.053128
3201.7832,0.052996
3203.6469,0.052921
3205.5105,0.052912
3207.3742,0.053226
3209.2379,0.053095
3211.1015,0.053066
3212.9652,0.053276
3214.8289,0.053420
3216.6926,0.054341
3218.5562,0.055037
3220.4199,0.054046
3222.2836,0.053163
3224.1472,0.053703
3226.0109,0.054475
3227.8746,0.054376
3229.7382,0.053929
3231.6019,0.054064
3233.4656,0.054613
3235.3292,0.055366
3237.1929,0.055664
3239.0566,0.055417
3240.9202,0.055431
3242.7839,0.055499
3244.6476,0.055595
3246.5113,0.055903
3248.3749,0.056475
3250.2386,0.056829
3252.1023,0.056706
3253.9659,0.056761
3255.8296,0.057507
3257.6933,0.058595
3259.5569,0.058946
3261.4206,0.058699
3263.2843,0.058663
3265.1479,0.058306
3267.0116,0.058007
3268.8753,0.058531
3270.7390,0.058865
3272.6026,0.058428
3274.4663,0.058550
3276.3300,0.058854
3278.1936,0.058750
3280.0573,0.058363
3281.9210,0.057671
3283.7846,0.057318
3285.6483,0.056900
3287.5120,0.056101
3289.3756,0.055743
3291.2393,0.055411
3293.1030,0.055152
3294.9666,0.054774
3296.8303,0.054111
3298.6940,0.053262
3300.5577,0.052151
3302.4213,0.051644
3304.2850,0.050999
3306.1487,0.050457
3308.0123,0.051117
3309.8760,0.051210
3311.7397,0.050572
3313.6033,0.050164
3315.4670,0.050268
3317.3307,0.050265
3319.1943,0.049842
3321.0580,0.050274
3322.9217,0.051046
3324.7854,0.051139
3326.6490,0.051313
3328.5127,0.051314
3330.3764,0.050794
3332.2400,0.050634
3334.1037,0.050522
3335.9674,0.050304
3337.8310,0.049939
3339.6947,0.049214
3341.5584,0.048497
3343.4220,0.047462
3345.2857,0.046381
3347.1494,0.045717
3349.0130,0.045467
3350.8767,0.044777
3352.7404,0.043334
3354.6041,0.042056
3356.4677,0.041215
3358.3314,0.040252
3360.1951,0.039725
3362.0587,0.040000
3363.9224,0.040188
3365.7861,0.039430
3367.6497,0.038146
3369.5134,0.038275
3371.3771,0.038929
3373.2407,0.038743
3375.1044,0.038620
3376.9681,0.038565
3378.8317,0.038646
3380.6954,0.039122
3382.5591,0.039823
3384.4228,0.040104
3386.2864,0.039727
3388.1501,0.040036
3390.0138,0.040536
3391.8774,0.040771
3393.7411,0.041706
3395.6048,0.041980
3397.4684,0.041169
3399.3321,0.040846
3401.1958,0.040925
3403.0594,0.041006
3404.9231,0.040527
3406.7868,0.039058
3408.6505,0.037753
3410.5141,0.036562
3412.3778,0.035404
3414.2415,0.034797
3416.1051,0.034100
3417.9688,0.032997
3419.8325,0.031191
3421.6961,0.029878
3423.5598,0.029506
3425.4235,0.028507
3427.2871,0.027913
3429.1508,0.027715
3431.0145,0.026350
3432.8781,0.025265
3434.7418,0.025120
3436.6055,0.024765
3438.4692,0.024272
3440.3328,0.023696
3442.1965,0.023057
3444.0602,0.022972
3445.9238,0.022891
3447.7875,0.022442
3449.6512,0.022430
3451.5148,0.022546
3453.3785,0.021743
3455.2422,0.021359
3457.1058,0.021126
3458.9695,0.020073
3460.8332,0.020038
3462.6969,0.020224
3464.5605,0.019949
3466.4242,0.020387
3468.2879,0.019456
3470.1515,0.018201
3472.0152,0.019266
3473.8789,0.019065
3475.7425,0.017461
3477.6062,0.016609
3479.4699,0.016063
3481.3335,0.016219
3483.1972,0.015405
3485.0609,0.013793
3486.9245,0.013635
3488.7882,0.014557
3490.6519,0.015667
3492.5156,0.015778
3494.3792,0.015218
3496.2429,0.015086
3498.1066,0.014594
3499.9702,0.012991
3501.8339,0.012246
3503.6976,0.012540
3505.5612,0.012125
3507.4249,0.011965
3509.2886,0.012157
3511.1522,0.011174
3513.0159,0.010395
3514.8796,0.010789
3516.7432,0.009824
3518.6069,0.009223
3520.4706,0.010024
3522.3343,0.009669
3524.1979,0.009202
3526.0616,0.008348
3527.9253,0.007306
3529.7889,0.007846
3531.6526,0.008369
3533.5163,0.007675
3535.3799,0.006986
3537.2436,0.006828
3539.1073,0.006694
3540.9709,0.007036
3542.8346,0.007506
3544.6983,0.006705
3546.5620,0.006643
3548.4256,0.007088
3550.2893,0.006350
3552.1530,0.005991
3554.0166,0.005942
3555.8803,0.006026
3557.7440,0.006634
3559.6076,0.006109
3561.4713,0.005153
3563.3350,0.005221
3565.1986,0.004943
3567.0623,0.004678
3568.9260,0.005098
3570.7896,0.005026
3572.6533,0.004948
3574.5170,0.005422
3576.3807,0.005760
3578.2443,0.005630
3580.1080,0.005384
3581.9717,0.005137
3583.8353,0.004969
3585.6990,0.004384
3587.5627,0.003324
3589.4263,0.003077
3591.2900,0.004004
3593.1537,0.005071
3595.0173,0.005552
3596.8810,0.004477
3598.7447,0.003732
3600.6084,0.004012
3602.4720,0.004120
3604.3357,0.004845
3606.1994,0.005769
3608.0630,0.005121
3609.9267,0.004508
3611.7904,0.004781
3613.6540,0.004320
3615.5177,0.003815
3617.3814,0.004185
3619.2450,0.004474
3621.1087,0.004125
3622.9724,0.004736
3624.8360,0.005263
3626.6997,0.004763
3628.5634,0.004034
3630.4271,0.003562
3632.2907,0.003727
3634.1544,0.004463
3636.0181,0.005083
3637.8817,0.005210
3639.7454,0.005571
3641.6091,0.005744
3643.4727,0.005460
3645.3364,0.005039
3647.2001,0.004261
3649.0637,0.003027
3650.9274,0.002204
3652.7911,0.003456
3654.6547,0.004886
3656.5184,0.004829
3658.3821,0.004503
3660.2458,0.004870
3662.1094,0.005026
3663.9731,0.004962
3665.8368,0.005055
3667.7004,0.004814
3669.5641,0.004503
3671.4278,0.004517
3673.2914,0.004407
3675.1551,0.004501
3677.0188,0.004307
3678.8824,0.004645
3680.7461,0.004829
3682.6098,0.004735
3684.4735,0.005161
3686.3371,0.005143
3688.2008,0.004689
3690.0645,0.004236
3691.9281,0.004403
3693.7918,0.004994
3695.6555,0.005601
3697.5191,0.006444
3699.3828,0.006550
3701.2465,0.006052
3703.1101,0.005436
3704.9738,0.005169
3706.8375,0.005152
3708.7011,0.004878
3710.5648,0.005067
3712.4285,0.004501
3714.2922,0.004343
3716.1558,0.005433
3718.0195,0.006141
3719.8832,0.006118
3721.7468,0.005814
3723.6105,0.005233
3725.4742,0.004506
3727.3378,0.005062
3729.2015,0.006280
3731.0652,0.006228
3732.9288,0.004993
3734.7925,0.003759
3736.6562,0.003843
3738.5199,0.004561
3740.3835,0.005184
3742.2472,0.005214
3744.1109,0.005170
3745.9745,0.004316
3747.8382,0.003519
3749.7019,0.003748
3751.5655,0.003603
3753.4292,0.004529
3755.2929,0.005777
3757.1565,0.006194
3759.0202,0.006210
3760.8839,0.006128
3762.7475,0.006232
3764.6112,0.006426
3766.4749,0.007058
3768.3386,0.006801
3770.2022,0.005933
3772.0659,0.006351
3773.9296,0.007114
3775.7932,0.007110
3777.6569,0.006801
3779.5206,0.006694
3781.3842,0.006286
3783.2479,0.006036
3785.1116,0.006326
3786.9752,0.006891
3788.8389,0.007429
3790.7026,0.007286
3792.5662,0.006943
3794.4299,0.007061
3796.2936,0.006844
3798.1573,0.006269
3800.0209,0.006030
3801.8846,0.006122
3803.7483,0.005980
3805.6119,0.006213
3807.4756,0.006558
3809.3393,0.006305
3811.2029,0.006453
3813.0666,0.006898
3814.9303,0.006943
3816.7939,0.007015
3818.6576,0.007133
3820.5213,0.006165
3822.3850,0.005575
3824.2486,0.006544
3826.1123,0.007193
3827.9760,0.006872
3829.8396,0.006250
3831.7033,0.006089
3833.5670,0.006373
3835.4306,0.006221
3837.2943,0.005633
3839.1580,0.005534
3841.0216,0.005505
3842.8853,0.006014
3844.7490,0.006812
3846.6126,0.006955
3848.4763,0.006924
3850.3400,0.006941
3852.2037,0.006139
3854.0673,0.004402
3855.9310,0.004544
3857.7947,0.006811
3859.6583,0.007449
3861.5220,0.007035
3863.3857,0.006535
3865.2493,0.006180
3867.1130,0.006031
3868.9767,0.006048
3870.8403,0.006525
3872.7040,0.006970
3874.5677,0.007020
3876.4314,0.006946
3878.2950,0.007214
3880.1587,0.007352
3882.0224,0.007166
3883.8860,0.007095
3885.7497,0.007249
3887.6134,0.007092
3889.4770,0.006782
3891.3407,0.006990
3893.2044,0.007245
3895.0680,0.007503
3896.9317,0.007922
3898.7954,0.007702
3900.6590,0.006583
3902.5227,0.005848
3904.3864,0.005908
3906.2501,0.006361
3908.1137,0.007372
3909.9774,0.008236
3911.8411,0.008317
3913.7047,0.007955
3915.5684,0.007848
3917.4321,0.007793
3919.2957,0.008032
3921.1594,0.007858
3923.0231,0.007481
3924.8867,0.007832
3926.7504,0.007998
3928.6141,0.007466
3930.4777,0.007346
3932.3414,0.007641
3934.2051,0.007846
3936.0688,0.007856
3937.9324,0.007709
3939.7961,0.007394
3941.6598,0.007928
3943.5234,0.008399
3945.3871,0.007929
3947.2508,0.007776
3949.1144,0.008234
3950.9781,0.008281
3952.8418,0.008369
3954.7054,0.008520
3956.5691,0.008040
3958.4328,0.008042
3960.2965,0.008539
3962.1601,0.008447
3964.0238,0.008528
3965.8875,0.008420
3967.7511,0.008194
3969.6148,0.008325
3971.4785,0.008080
3973.3421,0.007977
3975.2058,0.008300
3977.0695,0.008631
3978.9331,0.008652
3980.7968,0.008591
3982.6605,0.008384
3984.5241,0.008252
3986.3878,0.008208
3988.2515,0.008239
3990.1152,0.008604
3991.9788,0.008526
3993.8425,0.008728
3995.7062,0.008441
3997.5698,0.008272
3999.4335,0.008300
