Wavenumber,Intensity
650.4205,0.208015
652.2841,0.205966
654.1478,0.203541
656.0115,0.203947
657.8751,0.207807
659.7388,0.206304
661.6025,0.206101
663.4661,0.206781
665.3298,0.209552
667.1935,0.211628
669.0571,0.211697
670.9208,0.207651
672.7845,0.201446
674.6481,0.195011
676.5118,0.193391
678.3755,0.190908
680.2392,0.188264
682.1028,0.186054
683.9665,0.183562
685.8302,0.180347
687.6938,0.177267
689.5575,0.176019
691.4212,0.175902
693.2848,0.173383
695.1485,0.172717
697.0122,0.172918
698.8758,0.172778
700.7395,0.173613
702.6032,0.173620
704.4669,0.169394
706.3305,0.164161
708.1942,0.159290
710.0579,0.152946
711.9215,0.146548
713.7852,0.142369
715.6489,0.137244
717.5125,0.132479
719.3762,0.127927
721.2399,0.123197
723.1035,0.119285
724.9672,0.116293
726.8309,0.112831
728.6945,0.109281
730.5582,0.106001
732.4219,0.103880
734.2856,0.101118
736.1492,0.098491
738.0129,0.097375
739.8766,0.098070
741.7402,0.099737
743.6039,0.100865
745.4676,0.100895
747.3312,0.101105
749.1949,0.100507
751.0586,0.099054
752.9222,0.097696
754.7859,0.097258
756.6496,0.096966
758.5132,0.096235
760.3769,0.094878
762.2406,0.093987
764.1043,0.093769
765.9679,0.093782
767.8316,0.093668
769.6953,0.094188
771.5589,0.094725
773.4226,0.095103
775.2863,0.095611
777.1499,0.096445
779.0136,0.097346
780.8773,0.097615
782.7409,0.097987
784.6046,0.099059
786.4683,0.100276
788.3320,0.101531
790.1956,0.102829
792.0593,0.104145
793.9230,0.105439
795.7866,0.106712
797.6503,0.107560
799.5140,0.108431
801.3776,0.108956
803.2413,0.108956
805.1050,0.108626
806.9686,0.107961
808.8323,0.106685
810.6960,0.104907
812.5596,0.101826
814.4233,0.098789
816.2870,0.096504
818.1507,0.094193
820.0143,0.092168
821.8780,0.090767
823.7417,0.090054
825.6053,0.090226
827.4690,0.091259
829.3327,0.091975
831.1963,0.088382
833.0600,0.080396
834.9237,0.073319
836.7873,0.069882
838.6510,0.068626
840.5147,0.068194
842.3784,0.068141
844.2420,0.068144
846.1057,0.068374
847.9694,0.068547
849.8330,0.068230
851.6967,0.067630
853.5604,0.067355
855.4240,0.067337
857.2877,0.067181
859.1514,0.066855
861.0150,0.066709
862.8787,0.066904
864.7424,0.067292
866.6060,0.067547
868.4697,0.067723
870.3334,0.067873
872.1971,0.067901
874.0607,0.068046
875.9244,0.068565
877.7881,0.069159
879.6517,0.069400
881.5154,0.069525
883.3791,0.069733
885.2427,0.070164
887.1064,0.070542
888.9701,0.070991
890.8337,0.071797
892.6974,0.072643
894.5611,0.073592
896.4247,0.074953
898.2884,0.076184
900.1521,0.077690
902.0158,0.079772
903.8794,0.082295
905.7431,0.085317
907.6068,0.088973
909.4704,0.093402
911.3341,0.098664
913.1978,0.104247
915.0614,0.107169
916.9251,0.102434
918.7888,0.091923
920.6524,0.083538
922.5161,0.080027
924.3798,0.079259
926.2435,0.079410
928.1071,0.079882
929.9708,0.080359
931.8345,0.080956
933.6981,0.081741
935.5618,0.082741
937.4255,0.083876
939.2891,0.084973
941.1528,0.086199
943.0165,0.087179
944.8801,0.088072
946.7438,0.089192
948.6075,0.090409
950.4711,0.091629
952.3348,0.092922
954.1985,0.094273
956.0622,0.095831
957.9258,0.097417
959.7895,0.098974
961.6532,0.100794
963.5168,0.102743
965.3805,0.104833
967.2442,0.107357
969.1078,0.110239
970.9715,0.113236
972.8352,0.116681
974.6988,0.121597
976.5625,0.129338
978.4262,0.141958
980.2899,0.159213
982.1535,0.166301
984.0172,0.147292
985.8809,0.122657
987.7445,0.112279
989.6082,0.111821
991.4719,0.113647
993.3355,0.115870
995.1992,0.118456
997.0629,0.121158
998.9265,0.123979
1000.7902,0.126706
1002.6539,0.129304
1004.5175,0.132080
1006.3812,0.135110
1008.2449,0.138059
1010.1086,0.140694
1011.9722,0.142772
1013.8359,0.144045
1015.6996,0.144818
1017.5632,0.144971
1019.4269,0.144460
1021.2906,0.143436
1023.1542,0.142292
1025.0179,0.141226
1026.8816,0.140276
1028.7452,0.139629
1030.6089,0.139242
1032.4726,0.139170
1034.3362,0.139545
1036.1999,0.140110
1038.0636,0.140945
1039.9273,0.142276
1041.7909,0.144116
1043.6546,0.146019
1045.5183,0.147471
1047.3819,0.148143
1049.2456,0.146884
1051.1093,0.142036
1052.9729,0.134500
1054.8366,0.127360
1056.7003,0.122636
1058.5639,0.120348
1060.4276,0.119829
1062.2913,0.120077
1064.1550,0.120566
1066.0186,0.121335
1067.8823,0.122379
1069.7460,0.123666
1071.6096,0.125277
1073.4733,0.126997
1075.3370,0.128753
1077.2006,0.130619
1079.0643,0.132589
1080.9280,0.134392
1082.7916,0.135978
1084.6553,0.137599
1086.5190,0.139262
1088.3826,0.140816
1090.2463,0.142651
1092.1100,0.145127
1093.9737,0.148282
1095.8373,0.151877
1097.7010,0.155808
1099.5647,0.159831
1101.4283,0.163683
1103.2920,0.166788
1105.1557,0.168040
1107.0193,0.166515
1108.8830,0.161432
1110.7467,0.153020
1112.6103,0.142831
1114.4740,0.132639
1116.3377,0.123576
1118.2014,0.115946
1120.0650,0.110139
1121.9287,0.106124
1123.7924,0.103317
1125.6560,0.101242
1127.5197,0.099356
1129.3834,0.097285
1131.2470,0.095156
1133.1107,0.093143
1134.9744,0.091416
1136.8380,0.090061
1138.7017,0.089081
1140.5654,0.088479
1142.4290,0.088210
1144.2927,0.088171
1146.1564,0.088083
1148.0201,0.088000
1149.8837,0.088188
1151.7474,0.088644
1153.6111,0.089209
1155.4747,0.089828
1157.3384,0.090606
1159.2021,0.091619
1161.0657,0.092618
1162.9294,0.093680
1164.7931,0.094984
1166.6567,0.096537
1168.5204,0.098307
1170.3841,0.100009
1172.2477,0.100969
1174.1114,0.100052
1175.9751,0.096986
1177.8388,0.093097
1179.7024,0.089929
1181.5661,0.088091
1183.4298,0.087299
1185.2934,0.087136
1187.1571,0.087322
1189.0208,0.087630
1190.8844,0.087923
1192.7481,0.088135
1194.6118,0.088283
1196.4754,0.088547
1198.3391,0.088960
1200.2028,0.089328
1202.0665,0.089497
1203.9301,0.089294
1205.7938,0.088839
1207.6575,0.088356
1209.5211,0.088042
1211.3848,0.088138
1213.2485,0.088689
1215.1121,0.089393
1216.9758,0.090121
1218.8395,0.090768
1220.7031,0.091363
1222.5668,0.091971
1224.4305,0.092625
1226.2941,0.093295
1228.1578,0.093896
1230.0215,0.094383
1231.8852,0.094687
1233.7488,0.094790
1235.6125,0.094812
1237.4762,0.094825
1239.3398,0.094916
1241.2035,0.094920
1243.0672,0.094878
1244.9308,0.094900
1246.7945,0.094816
1248.6582,0.094632
1250.5218,0.094532
1252.3855,0.094541
1254.2492,0.094563
1256.1129,0.094456
1257.9765,0.094414
1259.8402,0.094568
1261.7039,0.094778
1263.5675,0.095034
1265.4312,0.095371
1267.2949,0.095414
1269.1585,0.095119
1271.0222,0.094954
1272.8859,0.095000
1274.7495,0.095221
1276.6132,0.095779
1278.4769,0.096554
1280.3405,0.097526
1282.2042,0.098541
1284.0679,0.099451
1285.9316,0.100405
1287.7952,0.101814
1289.6589,0.103621
1291.5226,0.105946
1293.3862,0.108917
1295.2499,0.112517
1297.1136,0.116843
1298.9772,0.121916
1300.8409,0.127884
1302.7046,0.134168
1304.5682,0.138560
1306.4319,0.137608
1308.2956,0.128594
1310.1592,0.113346
1312.0229,0.098579
1313.8866,0.089211
1315.7503,0.085810
1317.6139,0.086179
1319.4776,0.088038
1321.3413,0.089794
1323.2049,0.091503
1325.0686,0.093705
1326.9323,0.096087
1328.7959,0.098320
1330.6596,0.100198
1332.5233,0.101364
1334.3869,0.101547
1336.2506,0.101469
1338.1143,0.102263
1339.9780,0.103760
1341.8416,0.103216
1343.7053,0.101987
1345.5690,0.101920
1347.4326,0.102572
1349.2963,0.103543
1351.1600,0.104753
1353.0236,0.106293
1354.8873,0.108656
1356.7510,0.110857
1358.6146,0.112151
1360.4783,0.113969
1362.3420,0.118433
1364.2056,0.122357
1366.0693,0.123585
1367.9330,0.126389
1369.7967,0.130221
1371.6603,0.132923
1373.5240,0.138099
1375.3877,0.144539
1377.2513,0.147860
1379.1150,0.151952
1380.9787,0.157270
1382.8423,0.162215
1384.7060,0.167417
1386.5697,0.175086
1388.4333,0.183767
1390.2970,0.186471
1392.1607,0.186629
1394.0244,0.186853
1395.8880,0.183437
1397.7517,0.176083
1399.6154,0.168070
1401.4790,0.159692
1403.3427,0.152414
1405.2064,0.142597
1407.0700,0.128681
1408.9337,0.114788
1410.7974,0.102507
1412.6610,0.093660
1414.5247,0.088934
1416.3884,0.088160
1418.2520,0.092478
1420.1157,0.100035
1421.9794,0.101741
1423.8431,0.100260
1425.7067,0.094505
1427.5704,0.087729
1429.4341,0.084152
1431.2977,0.083365
1433.1614,0.083193
1435.0251,0.084706
1436.8887,0.090185
1438.7524,0.092511
1440.6161,0.091995
1442.4797,0.093040
1444.3434,0.094015
1446.2071,0.094861
1448.0707,0.096078
1449.9344,0.094897
1451.7981,0.091464
1453.6618,0.087502
1455.5254,0.086227
1457.3891,0.092053
1459.2528,0.093015
1461.1164,0.089154
1462.9801,0.087735
1464.8438,0.088839
1466.7074,0.087991
1468.5711,0.084787
1470.4348,0.082810
1472.2984,0.084689
1474.1621,0.086891
1476.0258,0.086447
1477.8895,0.085602
1479.7531,0.085073
1481.6168,0.085958
1483.4805,0.086431
1485.3441,0.086437
1487.2078,0.088218
1489.0715,0.092785
1490.9351,0.097173
1492.7988,0.095770
1494.6625,0.094907
1496.5261,0.098993
1498.3898,0.103966
1500.2535,0.104571
1502.1171,0.103263
1503.9808,0.101846
1505.8445,0.105556
1507.7082,0.120506
1509.5718,0.119556
1511.4355,0.116628
1513.2992,0.116043
1515.1628,0.116387
1517.0265,0.118977
1518.8902,0.119846
1520.7538,0.121955
1522.6175,0.126182
1524.4812,0.125364
1526.3448,0.126146
1528.2085,0.127108
1530.0722,0.125645
1531.9359,0.125964
1533.7995,0.129700
1535.6632,0.128649
1537.5269,0.126000
1539.3905,0.130183
1541.2542,0.140608
1543.1179,0.140181
1544.9815,0.139922
1546.8452,0.138838
1548.7089,0.138674
1550.5725,0.140789
1552.4362,0.141231
1554.2999,0.141394
1556.1635,0.142040
1558.0272,0.147801
1559.8909,0.163559
1561.7546,0.155916
1563.6182,0.151984
1565.4819,0.152774
1567.3456,0.153896
1569.2092,0.157620
1571.0729,0.161086
1572.9366,0.159505
1574.8002,0.161043
1576.6639,0.168342
1578.5276,0.170115
1580.3912,0.168947
1582.2549,0.169956
1584.1186,0.171217
1585.9822,0.171892
1587.8459,0.172121
1589.7096,0.172066
1591.5733,0.171596
1593.4369,0.170927
1595.3006,0.169939
1597.1643,0.168395
1599.0279,0.166612
1600.8916,0.165302
1602.7553,0.164071
1604.6189,0.162728
1606.4826,0.161666
1608.3463,0.161339
1610.2099,0.160483
1612.0736,0.158313
1613.9373,0.155382
1615.8010,0.153448
1617.6646,0.150285
1619.5283,0.145104
1621.3920,0.140967
1623.2556,0.136911
1625.1193,0.131109
1626.9830,0.125604
1628.8466,0.119032
1630.7103,0.111966
1632.5740,0.105719
1634.4376,0.100746
1636.3013,0.096158
1638.1650,0.092067
1640.0286,0.089495
1641.8923,0.087589
1643.7560,0.086455
1645.6197,0.087408
1647.4833,0.090081
1649.3470,0.089481
1651.2107,0.089028
1653.0743,0.093868
1654.9380,0.096789
1656.8017,0.093362
1658.6653,0.091572
1660.5290,0.090374
1662.3927,0.089508
1664.2563,0.087542
1666.1200,0.084535
1667.9837,0.082483
1669.8474,0.081151
1671.7110,0.079397
1673.5747,0.078589
1675.4384,0.079583
1677.3020,0.079843
1679.1657,0.079431
1681.0294,0.080221
1682.8930,0.081903
1684.7567,0.084742
1686.6204,0.083544
1688.4840,0.080743
1690.3477,0.077646
1692.2114,0.073597
1694.0750,0.069862
1695.9387,0.065910
1697.8024,0.061367
1699.6661,0.058285
1701.5297,0.052687
1703.3934,0.047773
1705.2571,0.042898
1707.1207,0.036362
1708.9844,0.031842
1710.8481,0.028531
1712.7117,0.025840
1714.5754,0.023905
1716.4391,0.022535
1718.3027,0.021966
1720.1664,0.021002
1722.0301,0.019890
1723.8937,0.018864
1725.7574,0.017558
1727.6211,0.016202
1729.4848,0.014951
1731.3484,0.013867
1733.2121,0.013263
1735.0758,0.013085
1736.9394,0.012557
1738.8031,0.012077
1740.6668,0.011818
1742.5304,0.011638
1744.3941,0.011432
1746.2578,0.011063
1748.1214,0.010722
1749.9851,0.010690
1751.8488,0.010752
1753.7125,0.010556
1755.5761,0.010213
1757.4398,0.010148
1759.3035,0.010095
1761.1671,0.010017
1763.0308,0.010108
1764.8945,0.009845
1766.7581,0.009492
1768.6218,0.009559
1770.4855,0.009680
1772.3491,0.009798
1774.2128,0.009842
1776.0765,0.009648
1777.9401,0.009638
1779.8038,0.009709
1781.6675,0.009583
1783.5312,0.009489
1785.3948,0.009733
1787.2585,0.009835
1789.1222,0.009559
1790.9858,0.009566
1792.8495,0.009961
1794.7132,0.010083
1796.5768,0.009871
1798.4405,0.009541
1800.3042,0.009543
1802.1678,0.009905
1804.0315,0.009930
1805.8952,0.009711
1807.7589,0.009739
1809.6225,0.009829
1811.4862,0.009756
1813.3499,0.009755
1815.2135,0.009726
1817.0772,0.009767
1818.9409,0.010064
1820.8045,0.010185
1822.6682,0.010048
1824.5319,0.009997
1826.3955,0.009850
1828.2592,0.009569
1830.1229,0.009588
1831.9865,0.009700
1833.8502,0.009605
1835.7139,0.009606
1837.5776,0.009669
1839.4412,0.009622
1841.3049,0.009504
1843.1686,0.009472
1845.0322,0.009529
1846.8959,0.009528
1848.7596,0.009607
1850.6232,0.009723
1852.4869,0.009802
1854.3506,0.009884
1856.2142,0.009778
1858.0779,0.009642
1859.9416,0.009682
1861.8052,0.009855
1863.6689,0.009959
1865.5326,0.009748
1867.3963,0.009613
1869.2599,0.009738
1871.1236,0.009933
1872.9873,0.010086
1874.8509,0.010142
1876.7146,0.010060
1878.5783,0.010086
1880.4419,0.010327
1882.3056,0.010134
1884.1693,0.009660
1886.0329,0.009571
1887.8966,0.009757
1889.7603,0.009682
1891.6240,0.009534
1893.4876,0.009709
1895.3513,0.009747
1897.2150,0.009648
1899.0786,0.009754
1900.9423,0.009947
1902.8060,0.009916
1904.6696,0.009853
1906.5333,0.010021
1908.3970,0.010079
1910.2606,0.009989
1912.1243,0.009921
1913.9880,0.009931
1915.8516,0.009913
1917.7153,0.009809
1919.5790,0.009562
1921.4427,0.009545
1923.3063,0.009577
1925.1700,0.009058
1927.0337,0.008875
1928.8973,0.009120
1930.7610,0.008920
1932.6247,0.008910
1934.4883,0.009268
1936.3520,0.009184
1938.2157,0.008751
1940.0793,0.008541
1941.9430,0.008949
1943.8067,0.008606
1945.6704,0.007386
1947.5340,0.007158
1949.3977,0.007646
1951.2614,0.007818
1953.1250,0.008065
1954.9887,0.008109
1956.8524,0.007793
1958.7160,0.007296
1960.5797,0.006529
1962.4434,0.006267
1964.3070,0.005933
1966.1707,0.005089
1968.0344,0.005009
1969.8980,0.004210
1971.7617,0.002992
1973.6254,0.003464
1975.4891,0.003826
1977.3527,0.004415
1979.2164,0.005511
1981.0801,0.005460
1982.9437,0.005177
1984.8074,0.006395
1986.6711,0.007989
1988.5347,0.007761
1990.3984,0.006523
1992.2621,0.006144
1994.1257,0.006776
1995.9894,0.007031
1997.8531,0.007059
1999.7167,0.007318
2001.5804,0.007580
2003.4441,0.007207
2005.3078,0.005875
2007.1714,0.005481
2009.0351,0.005767
2010.8988,0.005232
2012.7624,0.004980
2014.6261,0.005175
2016.4898,0.005154
2018.3534,0.004226
2020.2171,0.004342
2022.0808,0.004962
2023.9444,0.004598
2025.8081,0.004192
2027.6718,0.004828
2029.5355,0.005244
2031.3991,0.003682
2033.2628,0.003384
2035.1265,0.004930
2036.9901,0.005500
2038.8538,0.006057
2040.7175,0.006427
2042.5811,0.006632
2044.4448,0.007101
2046.3085,0.007643
2048.1721,0.008255
2050.0358,0.008704
2051.8995,0.008760
2053.7631,0.008805
2055.6268,0.009397
2057.4905,0.010176
2059.3542,0.010530
2061.2178,0.010558
2063.0815,0.010358
2064.9452,0.010440
2066.8088,0.010626
2068.6725,0.010737
2070.5362,0.011165
2072.3998,0.011174
2074.2635,0.010592
2076.1272,0.010847
2077.9908,0.011619
2079.8545,0.012110
2081.7182,0.012104
2083.5819,0.011999
2085.4455,0.011999
2087.3092,0.011997
2089.1729,0.012504
2091.0365,0.012691
2092.9002,0.012170
2094.7639,0.012056
2096.6275,0.012335
2098.4912,0.012646
2100.3549,0.012920
2102.2185,0.012894
2104.0822,0.012345
2105.9459,0.012088
2107.8095,0.012425
2109.6732,0.012869
2111.5369,0.013059
2113.4006,0.013141
2115.2642,0.013302
2117.1279,0.013131
2118.9916,0.012372
2120.8552,0.012026
2122.7189,0.011917
2124.5826,0.011375
2126.4462,0.011430
2128.3099,0.011902
2130.1736,0.011485
2132.0372,0.010841
2133.9009,0.010699
2135.7646,0.010925
2137.6282,0.011021
2139.4919,0.010335
2141.3556,0.010113
2143.2193,0.009934
2145.0829,0.008155
2146.9466,0.007155
2148.8103,0.007323
2150.6739,0.007059
2152.5376,0.006056
2154.4013,0.004369
2156.2649,0.003409
2158.1286,0.004054
2159.9923,0.004513
2161.8559,0.005398
2163.7196,0.007457
2165.5833,0.009465
2167.4470,0.009635
2169.3106,0.007568
2171.1743,0.006138
2173.0380,0.006635
2174.9016,0.006971
2176.7653,0.007126
2178.6290,0.007597
2180.4926,0.007854
2182.3563,0.007112
2184.2200,0.008078
2186.0836,0.010055
2187.9473,0.009811
2189.8110,0.008941
2191.6746,0.008546
2193.5383,0.008942
2195.4020,0.010205
2197.2657,0.011134
2199.1293,0.011282
2200.9930,0.011252
2202.8567,0.011972
2204.7203,0.011664
2206.5840,0.010848
2208.4477,0.011297
2210.3113,0.011619
2212.1750,0.011107
2214.0387,0.011002
2215.9023,0.011641
2217.7660,0.012264
2219.6297,0.012339
2221.4934,0.012498
2223.3570,0.013116
2225.2207,0.013292
2227.0844,0.013058
2228.9480,0.013376
2230.8117,0.014052
2232.6754,0.013562
2234.5390,0.012853
2236.4027,0.013370
2238.2664,0.013815
2240.1300,0.014089
2241.9937,0.014589
2243.8574,0.015009
2245.7210,0.014523
2247.5847,0.013833
2249.4484,0.013963
2251.3121,0.014711
2253.1757,0.015190
2255.0394,0.015490
2256.9031,0.015615
2258.7667,0.015662
2260.6304,0.015741
2262.4941,0.015327
2264.3577,0.015211
2266.2214,0.015923
2268.0851,0.016698
2269.9487,0.016937
2271.8124,0.016995
2273.6761,0.017555
2275.5397,0.017985
2277.4034,0.018028
2279.2671,0.017721
2281.1308,0.017672
2282.9944,0.018407
2284.8581,0.019198
2286.7218,0.019267
2288.5854,0.018875
2290.4491,0.018754
2292.3128,0.018742
2294.1764,0.018940
2296.0401,0.019321
2297.9038,0.019506
2299.7674,0.019379
2301.6311,0.019253
2303.4948,0.019267
2305.3585,0.019354
2307.2221,0.019187
2309.0858,0.019075
2310.9495,0.019438
2312.8131,0.019741
2314.6768,0.019784
2316.5405,0.019844
2318.4041,0.019774
2320.2678,0.019823
2322.1315,0.020094
2323.9951,0.020172
2325.8588,0.019887
2327.7225,0.019284
2329.5861,0.019133
2331.4498,0.019469
2333.3135,0.019366
2335.1772,0.019067
2337.0408,0.018900
2338.9045,0.018880
2340.7682,0.019172
2342.6318,0.019516
2344.4955,0.019722
2346.3592,0.019510
2348.2228,0.018924
2350.0865,0.018591
2351.9502,0.018602
2353.8138,0.018673
2355.6775,0.018653
2357.5412,0.018761
2359.4049,0.018765
2361.2685,0.018679
2363.1322,0.018641
2364.9959,0.018545
2366.8595,0.018409
2368.7232,0.018605
2370.5869,0.019047
2372.4505,0.019365
2374.3142,0.019660
2376.1779,0.019954
2378.0415,0.019974
2379.9052,0.019647
2381.7689,0.019328
2383.6325,0.019193
2385.4962,0.019284
2387.3599,0.019460
2389.2236,0.019439
2391.0872,0.019374
2392.9509,0.019509
2394.8146,0.019704
2396.6782,0.019538
2398.5419,0.019582
2400.4056,0.019848
2402.2692,0.019794
2404.1329,0.019650
2405.9966,0.019831
2407.8602,0.019997
2409.7239,0.020132
2411.5876,0.019971
2413.4512,0.019619
2415.3149,0.019970
2417.1786,0.020681
2419.0423,0.020877
2420.9059,0.020652
2422.7696,0.020322
2424.6333,0.020339
2426.4969,0.020560
2428.3606,0.020467
2430.2243,0.020509
2432.0879,0.020938
2433.9516,0.021080
2435.8153,0.021319
2437.6789,0.021679
2439.5426,0.021396
2441.4063,0.020740
2443.2700,0.020743
2445.1336,0.021195
2446.9973,0.021041
2448.8610,0.020846
2450.7246,0.020971
2452.5883,0.021199
2454.4520,0.021418
2456.3156,0.021357
2458.1793,0.021203
2460.0430,0.021073
2461.9066,0.021109
2463.7703,0.021051
2465.6340,0.020982
2467.4976,0.020849
2469.3613,0.021050
2471.2250,0.021521
2473.0887,0.021666
2474.9523,0.021365
2476.8160,0.021235
2478.6797,0.021284
2480.5433,0.021411
2482.4070,0.021783
2484.2707,0.021902
2486.1343,0.021611
2487.9980,0.021676
2489.8617,0.022042
2491.7253,0.022246
2493.5890,0.022372
2495.4527,0.022280
2497.3164,0.022374
2499.1800,0.022760
2501.0437,0.022785
2502.9074,0.022933
2504.7710,0.022909
2506.6347,0.023006
2508.4984,0.023006
2510.3620,0.022818
2512.2257,0.022591
2514.0894,0.022724
2515.9530,0.023118
2517.8167,0.023375
2519.6804,0.023355
2521.5440,0.023267
2523.4077,0.023659
2525.2714,0.024008
2527.1351,0.023669
2528.9987,0.023551
2530.8624,0.023701
2532.7261,0.023734
2534.5897,0.023940
2536.4534,0.024081
2538.3171,0.024155
2540.1807,0.024235
2542.0444,0.023949
2543.9081,0.023841
2545.7717,0.024161
2547.6354,0.024214
2549.4991,0.024050
2551.3627,0.024145
2553.2264,0.024272
2555.0901,0.024381
2556.9538,0.024487
2558.8174,0.024838
2560.6811,0.024959
2562.5448,0.024719
2564.4084,0.024803
2566.2721,0.025313
2568.1358,0.025184
2569.9994,0.025216
2571.8631,0.025494
2573.7268,0.025270
2575.5904,0.025338
2577.4541,0.025828
2579.3178,0.025935
2581.1815,0.026014
2583.0451,0.026561
2584.9088,0.026811
2586.7725,0.026717
2588.6361,0.027045
2590.4998,0.026979
2592.3635,0.026681
2594.2271,0.026769
2596.0908,0.026999
2597.9545,0.027184
2599.8181,0.027398
2601.6818,0.027495
2603.5455,0.027827
2605.4091,0.027890
2607.2728,0.028042
2609.1365,0.028343
2611.0002,0.028494
2612.8638,0.028682
2614.7275,0.028878
2616.5912,0.028977
2618.4548,0.029096
2620.3185,0.028932
2622.1822,0.028885
2624.0458,0.029292
2625.9095,0.029752
2627.7732,0.029990
2629.6368,0.030267
2631.5005,0.030655
2633.3642,0.030744
2635.2279,0.030542
2637.0915,0.030877
2638.9552,0.031309
2640.8189,0.031525
2642.6825,0.031603
2644.5462,0.031514
2646.4099,0.031600
2648.2735,0.031856
2650.1372,0.031892
2652.0009,0.031829
2653.8645,0.031906
2655.7282,0.032105
2657.5919,0.032331
2659.4555,0.032453
2661.3192,0.032309
2663.1829,0.032217
2665.0466,0.032187
2666.9102,0.032175
2668.7739,0.032285
2670.6376,0.032487
2672.5012,0.032533
2674.3649,0.032530
2676.2286,0.032694
2678.0922,0.033036
2679.9559,0.033399
2681.8196,0.033585
2683.6832,0.033487
2685.5469,0.033586
2687.4106,0.033840
2689.2742,0.033988
2691.1379,0.034041
2693.0016,0.034274
2694.8653,0.034615
2696.7289,0.034787
2698.5926,0.034895
2700.4563,0.035028
2702.3199,0.035507
2704.1836,0.035889
2706.0473,0.036085
2707.9109,0.036387
2709.7746,0.036519
2711.6383,0.036759
2713.5019,0.037169
2715.3656,0.037635
2717.2293,0.037903
2719.0930,0.038028
2720.9566,0.038262
2722.8203,0.038535
2724.6840,0.038704
2726.5476,0.039103
2728.4113,0.039556
2730.2750,0.039896
2732.1386,0.040079
2734.0023,0.040197
2735.8660,0.040514
2737.7296,0.040837
2739.5933,0.041156
2741.4570,0.041465
2743.3206,0.041870
2745.1843,0.042398
2747.0480,0.042805
2748.9117,0.043316
2750.7753,0.043915
2752.6390,0.044251
2754.5027,0.044331
2756.3663,0.044655
2758.2300,0.044993
2760.0937,0.045375
2761.9573,0.045774
2763.8210,0.046127
2765.6847,0.046598
2767.5483,0.047263
2769.4120,0.047732
2771.2757,0.048089
2773.1394,0.048462
2775.0030,0.049038
2776.8667,0.049714
2778.7304,0.050300
2780.5940,0.050452
2782.4577,0.050460
2784.3214,0.050644
2786.1850,0.050672
2788.0487,0.050222
2789.9124,0.050001
2791.7760,0.050052
2793.6397,0.049625
2795.5034,0.049152
2797.3670,0.048929
2799.2307,0.048600
2801.0944,0.048339
2802.9581,0.048148
2804.8217,0.048327
2806.6854,0.048326
2808.5491,0.047968
2810.4127,0.047945
2812.2764,0.048000
2814.1401,0.047499
2816.0037,0.047380
2817.8674,0.047848
2819.7311,0.047990
2821.5947,0.048089
2823.4584,0.048505
2825.3221,0.048737
2827.1857,0.048665
2829.0494,0.048189
2830.9131,0.047753
2832.7768,0.047628
2834.6404,0.047669
2836.5041,0.047912
2838.3678,0.048265
2840.2314,0.048837
2842.0951,0.049329
2843.9588,0.049450
2845.8224,0.049678
2847.6861,0.049912
2849.5498,0.050518
2851.4134,0.051144
2853.2771,0.051498
2855.1408,0.051923
2857.0045,0.052678
2858.8681,0.053305
2860.7318,0.053640
2862.5955,0.054069
2864.4591,0.054591
2866.3228,0.054700
2868.1865,0.054860
2870.0501,0.055265
2871.9138,0.055743
2873.7775,0.056146
2875.6411,0.056460
2877.5048,0.056658
2879.3685,0.056973
2881.2321,0.057260
2883.0958,0.057498
2884.9595,0.057701
2886.8232,0.057991
2888.6868,0.058114
2890.5505,0.058371
2892.4142,0.058941
2894.2778,0.059406
2896.1415,0.059642
2898.0052,0.059985
2899.8688,0.060225
2901.7325,0.060307
2903.5962,0.060415
2905.4598,0.060620
2907.3235,0.061071
2909.1872,0.061413
2911.0509,0.061577
2912.9145,0.061796
2914.7782,0.062491
2916.6419,0.063533
2918.5055,0.064128
2920.3692,0.064495
2922.2329,0.064809
2924.0965,0.065469
2925.9602,0.066041
2927.8239,0.066466
2929.6875,0.067162
2931.5512,0.068412
2933.4149,0.068820
2935.2785,0.068712
2937.1422,0.068740
2939.0059,0.069098
2940.8696,0.069157
2942.7332,0.068782
2944.5969,0.069054
2946.4606,0.069583
2948.3242,0.069911
2950.1879,0.070007
2952.0516,0.070101
2953.9152,0.070712
2955.7789,0.070974
2957.6426,0.070999
2959.5062,0.071219
2961.3699,0.071455
2963.2336,0.071556
2965.0972,0.072055
2966.9609,0.072708
2968.8246,0.073529
2970.6883,0.073928
2972.5519,0.074212
2974.4156,0.074561
2976.2793,0.075216
2978.1429,0.075811
2980.0066,0.075925
2981.8703,0.075958
2983.7339,0.076284
2985.5976,0.076405
2987.4613,0.076408
2989.3249,0.076655
2991.1886,0.076990
2993.0523,0.077222
2994.9160,0.077852
2996.7796,0.078650
2998.6433,0.079459
3000.5070,0.079832
3002.3706,0.080077
3004.2343,0.080011
3006.0980,0.080293
3007.9616,0.081261
3009.8253,0.082041
3011.6890,0.082622
3013.5526,0.083193
3015.4163,0.083689
3017.2800,0.083819
3019.1436,0.084049
3021.0073,0.084647
3022.8710,0.084922
3024.7347,0.084930
3026.5983,0.085047
3028.4620,0.085556
3030.3257,0.086018
3032.1893,0.086712
3034.0530,0.086747
3035.9167,0.086514
3037.7803,0.086857
3039.6440,0.087320
3041.5077,0.087767
3043.3713,0.088398
3045.2350,0.088826
3047.0987,0.088986
3048.9624,0.088754
3050.8260,0.088803
3052.6897,0.089345
3054.5534,0.089816
3056.4170,0.089687
3058.2807,0.089667
3060.1444,0.089767
3062.0080,0.089713
3063.8717,0.089624
3065.7354,0.090165
3067.5990,0.090264
3069.4627,0.090240
3071.3264,0.090313
3073.1900,0.090063
3075.0537,0.089141
3076.9174,0.088770
3078.7811,0.088835
3080.6447,0.089020
3082.5084,0.088642
3084.3721,0.088293
3086.2357,0.087994
3088.0994,0.087924
3089.9631,0.087166
3091.8267,0.086598
3093.6904,0.086394
3095.5541,0.085867
3097.4177,0.084712
3099.2814,0.084059
3101.1451,0.083870
3103.0087,0.083866
3104.8724,0.082635
3106.7361,0.081296
3108.5998,0.081355
3110.4634,0.081370
3112.3271,0.080813
3114.1908,0.080314
3116.0544,0.079435
3117.9181,0.078993
3119.7818,0.078908
3121.6454,0.078565
3123.5091,0.077280
3125.3728,0.076403
3127.2364,0.076386
3129.1001,0.076385
3130.9638,0.075568
3132.8275,0.074846
3134.6911,0.074686
3136.5548,0.074584
3138.4185,0.074592
3140.2821,0.074827
3142.1458,0.074452
3144.0095,0.073901
3145.8731,0.073172
3147.7368,0.072916
3149.6005,0.072767
3151.4641,0.072641
3153.3278,0.072490
3155.1915,0.072433
3157.0551,0.072621
3158.9188,0.072347
3160.7825,0.071808
3162.6462,0.071951
3164.5098,0.071099
3166.3735,0.070263
3168.2372,0.069877
3170.1008,0.069627
3171.9645,0.069843
3173.8282,0.070066
3175.6918,0.069366
3177.5555,0.069157
3179.4192,0.069092
3181.2828,0.068678
3183.1465,0.068442
3185.0102,0.068897
3186.8739,0.069302
3188.7375,0.069379
3190.6012,0.069521
3192.4649,0.069586
3194.3285,0.069408
3196.1922,0.069269
3198.0559,0.068481
3199.9195,0.068661
3201.7832,0.068795
3203.6469,0.068705
3205.5105,0.069336
3207.3742,0.069840
3209.2379,0.069584
3211.1015,0.069743
3212.9652,0.069899
3214.8289,0.070120
3216.6926,0.069780
3218.5562,0.069714
3220.4199,0.069876
3222.2836,0.069832
3224.1472,0.069579
3226.0109,0.069488
3227.8746,0.069372
3229.7382,0.069413
3231.6019,0.069074
3233.4656,0.069665
3235.3292,0.071152
3237.1929,0.071721
3239.0566,0.070871
3240.9202,0.070380
3242.7839,0.070671
3244.6476,0.071061
3246.5113,0.071568
3248.3749,0.072629
3250.2386,0.072705
3252.1023,0.072728
3253.9659,0.072280
3255.8296,0.072808
3257.6933,0.073157
3259.5569,0.072934
3261.4206,0.073165
3263.2843,0.072965
3265.1479,0.073105
3267.0116,0.073706
3268.8753,0.073942
3270.7390,0.073934
3272.6026,0.073682
3274.4663,0.073870
3276.3300,0.073323
3278.1936,0.072698
3280.0573,0.073119
3281.9210,0.073303
3283.7846,0.072973
3285.6483,0.071851
3287.5120,0.070732
3289.3756,0.070901
3291.2393,0.070241
3293.1030,0.069548
3294.9666,0.068888
3296.8303,0.068260
3298.6940,0.067599
3300.5577,0.066990
3302.4213,0.065960
3304.2850,0.065270
3306.1487,0.064630
3308.0123,0.064671
3309.8760,0.064351
3311.7397,0.064375
3313.6033,0.064104
3315.4670,0.064268
3317.3307,0.063444
3319.1943,0.063221
3321.0580,0.063890
3322.9217,0.063841
3324.7854,0.063296
3326.6490,0.063771
3328.5127,0.064399
3330.3764,0.064108
3332.2400,0.063784
3334.1037,0.063131
3335.9674,0.062268
3337.8310,0.061529
3339.6947,0.060648
3341.5584,0.060285
3343.4220,0.059994
3345.2857,0.058983
3347.1494,0.057226
3349.0130,0.055873
3350.8767,0.054620
3352.7404,0.055246
3354.6041,0.055766
3356.4677,0.054534
3358.3314,0.052251
3360.1951,0.051728
3362.0587,0.050630
3363.9224,0.050102
3365.7861,0.049628
3367.6497,0.049179
3369.5134,0.049828
3371.3771,0.050250
3373.2407,0.049624
3375.1044,0.049136
3376.9681,0.048619
3378.8317,0.048612
3380.6954,0.048950
3382.5591,0.049098
3384.4228,0.049022
3386.2864,0.049402
3388.1501,0.049664
3390.0138,0.049782
3391.8774,0.049649
3393.7411,0.050471
3395.6048,0.050882
3397.4684,0.050714
3399.3321,0.050089
3401.1958,0.049895
3403.0594,0.049756
3404.9231,0.048506
3406.7868,0.045522
3408.6505,0.044526
3410.5141,0.044311
3412.3778,0.043671
3414.2415,0.042614
3416.1051,0.041319
3417.9688,0.040473
3419.8325,0.040480
3421.6961,0.038320
3423.5598,0.036298
3425.4235,0.035489
3427.2871,0.034875
3429.1508,0.034588
3431.0145,0.033683
3432.8781,0.032649
3434.7418,0.032948
3436.6055,0.032782
3438.4692,0.031366
3440.3328,0.030457
3442.1965,0.031471
3444.0602,0.030608
3445.9238,0.027947
3447.7875,0.027269
3449.6512,0.027929
3451.5148,0.028089
3453.3785,0.028567
3455.2422,0.027955
3457.1058,0.026985
3458.9695,0.026229
3460.8332,0.025845
3462.6969,0.025968
3464.5605,0.025793
3466.4242,0.024861
3468.2879,0.023992
3470.1515,0.023315
3472.0152,0.023703
3473.8789,0.024649
3475.7425,0.024221
3477.6062,0.022152
3479.4699,0.022357
3481.3335,0.022355
3483.1972,0.020955
3485.0609,0.020399
3486.9245,0.021237
3488.7882,0.021155
3490.6519,0.020621
3492.5156,0.021599
3494.3792,0.021932
3496.2429,0.020337
3498.1066,0.019857
3499.9702,0.018350
3501.8339,0.016865
3503.6976,0.017449
3505.5612,0.018520
3507.4249,0.017415
3509.2886,0.017610
3511.1522,0.017095
3513.0159,0.016478
3514.8796,0.016813
3516.7432,0.017696
3518.6069,0.017252
3520.4706,0.016866
3522.3343,0.016498
3524.1979,0.014941
3526.0616,0.014608
3527.9253,0.015464
3529.7889,0.014620
3531.6526,0.013167
3533.5163,0.013734
3535.3799,0.014822
3537.2436,0.014880
3539.1073,0.013919
3540.9709,0.013253
3542.8346,0.013761
3544.6983,0.013616
3546.5620,0.013001
3548.4256,0.012502
3550.2893,0.012373
3552.1530,0.011742
3554.0166,0.011605
3555.8803,0.011548
3557.7440,0.011758
3559.6076,0.011621
3561.4713,0.012141
3563.3350,0.011896
3565.1986,0.009921
3567.0623,0.008605
3568.9260,0.008842
3570.7896,0.009619
3572.6533,0.010404
3574.5170,0.010312
3576.3807,0.010090
3578.2443,0.009512
3580.1080,0.009599
3581.9717,0.010293
3583.8353,0.010734
3585.6990,0.009633
3587.5627,0.008851
3589.4263,0.009677
3591.2900,0.010556
3593.1537,0.009772
3595.0173,0.009114
3596.8810,0.009082
3598.7447,0.009043
3600.6084,0.008793
3602.4720,0.009387
3604.3357,0.009347
3606.1994,0.008547
3608.0630,0.008283
3609.9267,0.008998
3611.7904,0.009075
3613.6540,0.008336
3615.5177,0.007908
3617.3814,0.008314
3619.2450,0.007627
3621.1087,0.007696
3622.9724,0.009174
3624.8360,0.008848
3626.6997,0.007269
3628.5634,0.005756
3630.4271,0.006496
3632.2907,0.008716
3634.1544,0.008719
3636.0181,0.009016
3637.8817,0.008758
3639.7454,0.008760
3641.6091,0.008942
3643.4727,0.008051
3645.3364,0.006476
3647.2001,0.005183
3649.0637,0.004419
3650.9274,0.005932
3652.7911,0.007542
3654.6547,0.008184
3656.5184,0.008042
3658.3821,0.008471
3660.2458,0.008875
3662.1094,0.008614
3663.9731,0.008811
3665.8368,0.009043
3667.7004,0.008949
3669.5641,0.008477
3671.4278,0.007856
3673.2914,0.009619
3675.1551,0.010874
3677.0188,0.010978
3678.8824,0.009859
3680.7461,0.008153
3682.6098,0.007323
3684.4735,0.007283
3686.3371,0.007500
3688.2008,0.007307
3690.0645,0.006720
3691.9281,0.007931
3693.7918,0.009381
3695.6555,0.010151
3697.5191,0.009671
3699.3828,0.009381
3701.2465,0.008421
3703.1101,0.007878
3704.9738,0.008154
3706.8375,0.007775
3708.7011,0.006341
3710.5648,0.005306
3712.4285,0.005934
3714.2922,0.007044
3716.1558,0.007256
3718.0195,0.007112
3719.8832,0.007010
3721.7468,0.007393
3723.6105,0.006668
3725.4742,0.006369
3727.3378,0.006522
3729.2015,0.006229
3731.0652,0.006246
3732.9288,0.005773
3734.7925,0.005165
3736.6562,0.005542
3738.5199,0.006533
3740.3835,0.007475
3742.2472,0.005985
3744.1109,0.004081
3745.9745,0.004008
3747.8382,0.005607
3749.7019,0.005140
3751.5655,0.004365
3753.4292,0.005923
3755.2929,0.007165
3757.1565,0.006996
3759.0202,0.007325
3760.8839,0.007737
3762.7475,0.008159
3764.6112,0.007927
3766.4749,0.007541
3768.3386,0.007197
3770.2022,0.006992
3772.0659,0.007435
3773.9296,0.008095
3775.7932,0.008202
3777.6569,0.007756
3779.5206,0.007359
3781.3842,0.007853
3783.2479,0.007715
3785.1116,0.007903
3786.9752,0.008810
3788.8389,0.009082
3790.7026,0.008516
3792.5662,0.008034
3794.4299,0.007962
3796.2936,0.007588
3798.1573,0.006983
3800.0209,0.006289
3801.8846,0.005526
3803.7483,0.006967
3805.6119,0.008337
3807.4756,0.007968
3809.3393,0.008353
3811.2029,0.009090
3813.0666,0.008680
3814.9303,0.007527
3816.7939,0.006309
3818.6576,0.006739
3820.5213,0.007144
3822.3850,0.006928
3824.2486,0.007965
3826.1123,0.008821
3827.9760,0.008481
3829.8396,0.008271
3831.7033,0.007918
3833.5670,0.007796
3835.4306,0.007666
3837.2943,0.006765
3839.1580,0.006262
3841.0216,0.007687
3842.8853,0.008723
3844.7490,0.008542
3846.6126,0.008707
3848.4763,0.009105
3850.3400,0.008585
3852.2037,0.006903
3854.0673,0.004961
3855.9310,0.006580
3857.7947,0.008448
3859.6583,0.008200
3861.5220,0.007919
3863.3857,0.007762
3865.2493,0.007228
3867.1130,0.006996
3868.9767,0.007638
3870.8403,0.007762
3872.7040,0.008298
3874.5677,0.008535
3876.4314,0.008896
3878.2950,0.008915
3880.1587,0.008151
3882.0224,0.008047
3883.8860,0.008689
3885.7497,0.008485
3887.6134,0.007898
3889.4770,0.008512
3891.3407,0.008061
3893.2044,0.008012
3895.0680,0.008963
3896.9317,0.008804
3898.7954,0.007339
3900.6590,0.006751
3902.5227,0.008091
3904.3864,0.009016
3906.2501,0.009725
3908.1137,0.010144
3909.9774,0.009228
3911.8411,0.009279
3913.7047,0.009680
3915.5684,0.009116
3917.4321,0.007808
3919.2957,0.008378
3921.1594,0.009597
3923.0231,0.009454
3924.8867,0.008764
3926.7504,0.008627
3928.6141,0.008649
3930.4777,0.008332
3932.3414,0.008530
3934.2051,0.009021
3936.0688,0.009337
3937.9324,0.009875
3939.7961,0.009399
3941.6598,0.008940
3943.5234,0.009146
3945.3871,0.009071
3947.2508,0.008696
3949.1144,0.008967
3950.9781,0.009690
3952.8418,0.009596
3954.7054,0.009381
3956.5691,0.009844
3958.4328,0.009975
3960.2965,0.009727
3962.1601,0.010167
3964.0238,0.010086
3965.8875,0.009696
3967.7511,0.009714
3969.6148,0.009642
3971.4785,0.009994
3973.3421,0.009918
3975.2058,0.009555
3977.0695,0.009711
3978.9331,0.009880
3980.7968,0.009467
3982.6605,0.009190
3984.5241,0.009715
3986.3878,0.009442
3988.2515,0.009199
3990.1152,0.009635
3991.9788,0.009606
3993.8425,0.009725
3995.7062,0.009489
3997.5698,0.009393
3999.4335,0.009153
