Wavenumber,Intensity
650.4205,0.211001
652.2841,0.208770
654.1478,0.209842
656.0115,0.211601
657.8751,0.215402
659.7388,0.219191
661.6025,0.224025
663.4661,0.229292
665.3298,0.232418
667.1935,0.237075
669.0571,0.240291
670.9208,0.230621
672.7845,0.220703
674.6481,0.212783
676.5118,0.206304
678.3755,0.200980
680.2392,0.199059
682.1028,0.194697
683.9665,0.190106
685.8302,0.187948
687.6938,0.185987
689.5575,0.183802
691.4212,0.181572
693.2848,0.178843
695.1485,0.178590
697.0122,0.179276
698.8758,0.179223
700.7395,0.180168
702.6032,0.182010
704.4669,0.179708
706.3305,0.172758
708.1942,0.164257
710.0579,0.156022
711.9215,0.148451
713.7852,0.142158
715.6489,0.136404
717.5125,0.130866
719.3762,0.125659
721.2399,0.121675
723.1035,0.118171
724.9672,0.114675
726.8309,0.111262
728.6945,0.108574
730.5582,0.106997
732.4219,0.105673
734.2856,0.101976
736.1492,0.096576
738.0129,0.093782
739.8766,0.095118
741.7402,0.097852
743.6039,0.099607
745.4676,0.099018
747.3312,0.097140
749.1949,0.095875
751.0586,0.095003
752.9222,0.094295
754.7859,0.094326
756.6496,0.094101
758.5132,0.093631
760.3769,0.093599
762.2406,0.093896
764.1043,0.093750
765.9679,0.092808
767.8316,0.092183
769.6953,0.092422
771.5589,0.092454
773.4226,0.092872
775.2863,0.094015
777.1499,0.095480
779.0136,0.097256
780.8773,0.098752
782.7409,0.100398
784.6046,0.102624
786.4683,0.104744
788.3320,0.106204
790.1956,0.107117
792.0593,0.108722
793.9230,0.110773
795.7866,0.112824
797.6503,0.114910
799.5140,0.117105
801.3776,0.118997
803.2413,0.119719
805.1050,0.118727
806.9686,0.116915
808.8323,0.114899
810.6960,0.112958
812.5596,0.111033
814.4233,0.108881
816.2870,0.106574
818.1507,0.104209
820.0143,0.101994
821.8780,0.100307
823.7417,0.099510
825.6053,0.100417
827.4690,0.102833
829.3327,0.104305
831.1963,0.099959
833.0600,0.090041
834.9237,0.081554
836.7873,0.077901
838.6510,0.076871
840.5147,0.076563
842.3784,0.076784
844.2420,0.077540
846.1057,0.078502
847.9694,0.079660
849.8330,0.081198
851.6967,0.083193
853.5604,0.085823
855.4240,0.088215
857.2877,0.088879
859.1514,0.087071
861.0150,0.084522
862.8787,0.082972
864.7424,0.082045
866.6060,0.081234
868.4697,0.080679
870.3334,0.080539
872.1971,0.080911
874.0607,0.081713
875.9244,0.082654
877.7881,0.083762
879.6517,0.084733
881.5154,0.085409
883.3791,0.086168
885.2427,0.087018
887.1064,0.087924
888.9701,0.089259
890.8337,0.090909
892.6974,0.092658
894.5611,0.094510
896.4247,0.096618
898.2884,0.099366
900.1521,0.102750
902.0158,0.106357
903.8794,0.109856
905.7431,0.113189
907.6068,0.116972
909.4704,0.121589
911.3341,0.127222
913.1978,0.133501
915.0614,0.136332
916.9251,0.129586
918.7888,0.116467
920.6524,0.106528
922.5161,0.102878
924.3798,0.102951
926.2435,0.104356
928.1071,0.106218
929.9708,0.108433
931.8345,0.111170
933.6981,0.114235
935.5618,0.116402
937.4255,0.116847
939.2891,0.116348
941.1528,0.116394
943.0165,0.117403
944.8801,0.118852
946.7438,0.120536
948.6075,0.122537
950.4711,0.124824
952.3348,0.127476
954.1985,0.130443
956.0622,0.133279
957.9258,0.135457
959.7895,0.137109
961.6532,0.138958
963.5168,0.141501
965.3805,0.144639
967.2442,0.148348
969.1078,0.152677
970.9715,0.157311
972.8352,0.162291
974.6988,0.169109
976.5625,0.179787
978.4262,0.196925
980.2899,0.219806
982.1535,0.229791
984.0172,0.208103
985.8809,0.178415
987.7445,0.165656
989.6082,0.165340
991.4719,0.168351
993.3355,0.172236
995.1992,0.176643
997.0629,0.181458
998.9265,0.186122
1000.7902,0.189834
1002.6539,0.192988
1004.5175,0.196808
1006.3812,0.201214
1008.2449,0.204968
1010.1086,0.206626
1011.9722,0.205919
1013.8359,0.203517
1015.6996,0.199738
1017.5632,0.194956
1019.4269,0.190115
1021.2906,0.185723
1023.1542,0.181766
1025.0179,0.178125
1026.8816,0.175037
1028.7452,0.172261
1030.6089,0.169005
1032.4726,0.165495
1034.3362,0.162716
1036.1999,0.160873
1038.0636,0.159627
1039.9273,0.159022
1041.7909,0.159284
1043.6546,0.160155
1045.5183,0.161163
1047.3819,0.161177
1049.2456,0.158407
1051.1093,0.152100
1052.9729,0.143830
1054.8366,0.136127
1056.7003,0.130785
1058.5639,0.128033
1060.4276,0.126915
1062.2913,0.126579
1064.1550,0.126730
1066.0186,0.127344
1067.8823,0.128353
1069.7460,0.129516
1071.6096,0.130629
1073.4733,0.131576
1075.3370,0.132531
1077.2006,0.133500
1079.0643,0.134539
1080.9280,0.135956
1082.7916,0.137569
1084.6553,0.139281
1086.5190,0.141351
1088.3826,0.143883
1090.2463,0.146951
1092.1100,0.150638
1093.9737,0.154856
1095.8373,0.159546
1097.7010,0.164674
1099.5647,0.169870
1101.4283,0.174656
1103.2920,0.178605
1105.1557,0.180914
1107.0193,0.180228
1108.8830,0.175234
1110.7467,0.166098
1112.6103,0.154635
1114.4740,0.142764
1116.3377,0.132080
1118.2014,0.123515
1120.0650,0.117159
1121.9287,0.112729
1123.7924,0.109548
1125.6560,0.106658
1127.5197,0.103494
1129.3834,0.100204
1131.2470,0.097114
1133.1107,0.094468
1134.9744,0.092398
1136.8380,0.090819
1138.7017,0.089714
1140.5654,0.088979
1142.4290,0.088366
1144.2927,0.087543
1146.1564,0.086413
1148.0201,0.085438
1149.8837,0.085014
1151.7474,0.085151
1153.6111,0.085701
1155.4747,0.086401
1157.3384,0.086750
1159.2021,0.086423
1161.0657,0.085805
1162.9294,0.085793
1164.7931,0.086882
1166.6567,0.088844
1168.5204,0.091439
1170.3841,0.094286
1172.2477,0.096158
1174.1114,0.095550
1175.9751,0.092194
1177.8388,0.087740
1179.7024,0.084169
1181.5661,0.082246
1183.4298,0.081718
1185.2934,0.082010
1187.1571,0.082678
1189.0208,0.083114
1190.8844,0.082610
1192.7481,0.081233
1194.6118,0.079879
1196.4754,0.079247
1198.3391,0.079228
1200.2028,0.079492
1202.0665,0.079782
1203.9301,0.079865
1205.7938,0.079872
1207.6575,0.079937
1209.5211,0.079898
1211.3848,0.079714
1213.2485,0.079461
1215.1121,0.079131
1216.9758,0.078872
1218.8395,0.078775
1220.7031,0.078669
1222.5668,0.078572
1224.4305,0.078433
1226.2941,0.078159
1228.1578,0.077895
1230.0215,0.077785
1231.8852,0.077829
1233.7488,0.077938
1235.6125,0.078166
1237.4762,0.078522
1239.3398,0.078927
1241.2035,0.079124
1243.0672,0.078933
1244.9308,0.078723
1246.7945,0.078762
1248.6582,0.078925
1250.5218,0.079189
1252.3855,0.079610
1254.2492,0.080243
1256.1129,0.080869
1257.9765,0.081298
1259.8402,0.081918
1261.7039,0.082904
1263.5675,0.083817
1265.4312,0.084307
1267.2949,0.084265
1269.1585,0.083974
1271.0222,0.083795
1272.8859,0.083865
1274.7495,0.084214
1276.6132,0.085072
1278.4769,0.086662
1280.3405,0.088813
1282.2042,0.091172
1284.0679,0.093577
1285.9316,0.095680
1287.7952,0.097274
1289.6589,0.098822
1291.5226,0.100819
1293.3862,0.103460
1295.2499,0.107144
1297.1136,0.112217
1298.9772,0.118706
1300.8409,0.126744
1302.7046,0.135254
1304.5682,0.141197
1306.4319,0.140760
1308.2956,0.131154
1310.1592,0.113942
1312.0229,0.096432
1313.8866,0.085069
1315.7503,0.080777
1317.6139,0.080886
1319.4776,0.082860
1321.3413,0.084687
1323.2049,0.086189
1325.0686,0.088143
1326.9323,0.090327
1328.7959,0.092423
1330.6596,0.094451
1332.5233,0.095932
1334.3869,0.096554
1336.2506,0.097322
1338.1143,0.099512
1339.9780,0.101732
1341.8416,0.100833
1343.7053,0.098695
1345.5690,0.098302
1347.4326,0.099558
1349.2963,0.101569
1351.1600,0.103256
1353.0236,0.104482
1354.8873,0.106375
1356.7510,0.108761
1358.6146,0.110822
1360.4783,0.113064
1362.3420,0.116331
1364.2056,0.118653
1366.0693,0.119499
1367.9330,0.122265
1369.7967,0.125904
1371.6603,0.128757
1373.5240,0.133823
1375.3877,0.139867
1377.2513,0.143083
1379.1150,0.146985
1380.9787,0.152097
1382.8423,0.157255
1384.7060,0.163244
1386.5697,0.172198
1388.4333,0.182452
1390.2970,0.187023
1392.1607,0.189261
1394.0244,0.191358
1395.8880,0.188914
1397.7517,0.181754
1399.6154,0.173589
1401.4790,0.164928
1403.3427,0.157031
1405.2064,0.146273
1407.0700,0.130330
1408.9337,0.114254
1410.7974,0.100288
1412.6610,0.090582
1414.5247,0.085981
1416.3884,0.085879
1418.2520,0.091175
1420.1157,0.099499
1421.9794,0.101750
1423.8431,0.099055
1425.7067,0.090314
1427.5704,0.080010
1429.4341,0.073378
1431.2977,0.070444
1433.1614,0.069910
1435.0251,0.071854
1436.8887,0.077319
1438.7524,0.079793
1440.6161,0.079412
1442.4797,0.080779
1444.3434,0.082463
1446.2071,0.084344
1448.0707,0.086491
1449.9344,0.085881
1451.7981,0.082856
1453.6618,0.079945
1455.5254,0.080266
1457.3891,0.088024
1459.2528,0.090942
1461.1164,0.088428
1462.9801,0.088176
1464.8438,0.089303
1466.7074,0.087467
1468.5711,0.083757
1470.4348,0.082148
1472.2984,0.084001
1474.1621,0.085461
1476.0258,0.083968
1477.8895,0.083090
1479.7531,0.082839
1481.6168,0.084178
1483.4805,0.085135
1485.3441,0.085381
1487.2078,0.087064
1489.0715,0.090339
1490.9351,0.092461
1492.7988,0.090850
1494.6625,0.090071
1496.5261,0.093351
1498.3898,0.096254
1500.2535,0.095229
1502.1171,0.092589
1503.9808,0.090404
1505.8445,0.092739
1507.7082,0.100928
1509.5718,0.098184
1511.4355,0.095378
1513.2992,0.094658
1515.1628,0.094958
1517.0265,0.097124
1518.8902,0.098506
1520.7538,0.100967
1522.6175,0.106010
1524.4812,0.105676
1526.3448,0.106629
1528.2085,0.107224
1530.0722,0.105536
1531.9359,0.105602
1533.7995,0.108482
1535.6632,0.107540
1537.5269,0.105702
1539.3905,0.110992
1541.2542,0.120891
1543.1179,0.120574
1544.9815,0.120549
1546.8452,0.120015
1548.7089,0.119956
1550.5725,0.121990
1552.4362,0.122804
1554.2999,0.123653
1556.1635,0.125825
1558.0272,0.132767
1559.8909,0.149512
1561.7546,0.143496
1563.6182,0.140646
1565.4819,0.143315
1567.3456,0.146494
1569.2092,0.151978
1571.0729,0.157936
1572.9366,0.157630
1574.8002,0.160913
1576.6639,0.170510
1578.5276,0.173406
1580.3912,0.172292
1582.2549,0.174256
1584.1186,0.176260
1585.9822,0.177725
1587.8459,0.178710
1589.7096,0.179654
1591.5733,0.179883
1593.4369,0.179674
1595.3006,0.178575
1597.1643,0.176353
1599.0279,0.173382
1600.8916,0.170267
1602.7553,0.167029
1604.6189,0.163817
1606.4826,0.161087
1608.3463,0.159331
1610.2099,0.157416
1612.0736,0.154626
1613.9373,0.151863
1615.8010,0.150325
1617.6646,0.147057
1619.5283,0.139766
1621.3920,0.134152
1623.2556,0.129026
1625.1193,0.121639
1626.9830,0.113720
1628.8466,0.104665
1630.7103,0.094906
1632.5740,0.086878
1634.4376,0.080256
1636.3013,0.073899
1638.1650,0.068585
1640.0286,0.065993
1641.8923,0.063994
1643.7560,0.062942
1645.6197,0.063456
1647.4833,0.065585
1649.3470,0.065304
1651.2107,0.065747
1653.0743,0.071342
1654.9380,0.075526
1656.8017,0.072952
1658.6653,0.072682
1660.5290,0.073063
1662.3927,0.073621
1664.2563,0.072990
1666.1200,0.070905
1667.9837,0.069547
1669.8474,0.069328
1671.7110,0.068346
1673.5747,0.067947
1675.4384,0.069776
1677.3020,0.071869
1679.1657,0.072932
1681.0294,0.075942
1682.8930,0.080120
1684.7567,0.087198
1686.6204,0.088144
1688.4840,0.086207
1690.3477,0.084848
1692.2114,0.082387
1694.0750,0.079850
1695.9387,0.077824
1697.8024,0.074489
1699.6661,0.071936
1701.5297,0.066654
1703.3934,0.060343
1705.2571,0.053835
1707.1207,0.045914
1708.9844,0.039829
1710.8481,0.035629
1712.7117,0.032096
1714.5754,0.029854
1716.4391,0.028488
1718.3027,0.027426
1720.1664,0.025752
1722.0301,0.024541
1723.8937,0.023116
1725.7574,0.021325
1727.6211,0.019420
1729.4848,0.018152
1731.3484,0.017308
1733.2121,0.016876
1735.0758,0.016076
1736.9394,0.015091
1738.8031,0.014571
1740.6668,0.014717
1742.5304,0.014445
1744.3941,0.014036
1746.2578,0.013672
1748.1214,0.013950
1749.9851,0.014108
1751.8488,0.013998
1753.7125,0.013457
1755.5761,0.013489
1757.4398,0.013787
1759.3035,0.013612
1761.1671,0.013282
1763.0308,0.013117
1764.8945,0.012486
1766.7581,0.012342
1768.6218,0.012223
1770.4855,0.012011
1772.3491,0.011966
1774.2128,0.011703
1776.0765,0.011056
1777.9401,0.011054
1779.8038,0.011140
1781.6675,0.011203
1783.5312,0.010932
1785.3948,0.011044
1787.2585,0.010990
1789.1222,0.011015
1790.9858,0.011304
1792.8495,0.011626
1794.7132,0.011148
1796.5768,0.011019
1798.4405,0.011134
1800.3042,0.011339
1802.1678,0.011285
1804.0315,0.011234
1805.8952,0.011181
1807.7589,0.011264
1809.6225,0.011204
1811.4862,0.011144
1813.3499,0.010911
1815.2135,0.010795
1817.0772,0.010675
1818.9409,0.010856
1820.8045,0.011010
1822.6682,0.011075
1824.5319,0.011011
1826.3955,0.011119
1828.2592,0.010806
1830.1229,0.010881
1831.9865,0.010816
1833.8502,0.010643
1835.7139,0.010474
1837.5776,0.010511
1839.4412,0.010373
1841.3049,0.010535
1843.1686,0.010779
1845.0322,0.010904
1846.8959,0.010582
1848.7596,0.010672
1850.6232,0.010509
1852.4869,0.010475
1854.3506,0.010668
1856.2142,0.010753
1858.0779,0.010480
1859.9416,0.010495
1861.8052,0.010551
1863.6689,0.010652
1865.5326,0.010574
1867.3963,0.010677
1869.2599,0.010852
1871.1236,0.010970
1872.9873,0.010417
1874.8509,0.010258
1876.7146,0.010329
1878.5783,0.010584
1880.4419,0.010482
1882.3056,0.010627
1884.1693,0.010331
1886.0329,0.010090
1887.8966,0.010205
1889.7603,0.010844
1891.6240,0.010732
1893.4876,0.010331
1895.3513,0.010196
1897.2150,0.010214
1899.0786,0.010189
1900.9423,0.010527
1902.8060,0.010642
1904.6696,0.010658
1906.5333,0.010707
1908.3970,0.011054
1910.2606,0.010772
1912.1243,0.010131
1913.9880,0.009842
1915.8516,0.009841
1917.7153,0.009579
1919.5790,0.009723
1921.4427,0.009707
1923.3063,0.010006
1925.1700,0.009789
1927.0337,0.009193
1928.8973,0.009212
1930.7610,0.010132
1932.6247,0.010219
1934.4883,0.009881
1936.3520,0.009373
1938.2157,0.009543
1940.0793,0.009742
1941.9430,0.009615
1943.8067,0.008916
1945.6704,0.008520
1947.5340,0.008087
1949.3977,0.007812
1951.2614,0.007037
1953.1250,0.006465
1954.9887,0.006780
1956.8524,0.007970
1958.7160,0.007133
1960.5797,0.006335
1962.4434,0.004607
1964.3070,0.003884
1966.1707,0.003841
1968.0344,0.003307
1969.8980,0.002662
1971.7617,0.003420
1973.6254,0.003708
1975.4891,0.004283
1977.3527,0.003218
1979.2164,0.003986
1981.0801,0.004989
1982.9437,0.005164
1984.8074,0.005020
1986.6711,0.005427
1988.5347,0.005240
1990.3984,0.006059
1992.2621,0.005200
1994.1257,0.005082
1995.9894,0.005989
1997.8531,0.006869
1999.7167,0.006230
2001.5804,0.005918
2003.4441,0.006223
2005.3078,0.006423
2007.1714,0.004798
2009.0351,0.004302
2010.8988,0.004339
2012.7624,0.003672
2014.6261,0.002383
2016.4898,0.002929
2018.3534,0.003187
2020.2171,0.003463
2022.0808,0.002451
2023.9444,0.002353
2025.8081,0.001877
2027.6718,0.003089
2029.5355,0.003153
2031.3991,0.003233
2033.2628,0.003237
2035.1265,0.005016
2036.9901,0.005052
2038.8538,0.004831
2040.7175,0.004186
2042.5811,0.004685
2044.4448,0.004849
2046.3085,0.006005
2048.1721,0.007259
2050.0358,0.008777
2051.8995,0.009240
2053.7631,0.008867
2055.6268,0.009295
2057.4905,0.010065
2059.3542,0.009463
2061.2178,0.010080
2063.0815,0.010141
2064.9452,0.009804
2066.8088,0.010260
2068.6725,0.011166
2070.5362,0.011188
2072.3998,0.011103
2074.2635,0.011324
2076.1272,0.011857
2077.9908,0.011957
2079.8545,0.012419
2081.7182,0.012787
2083.5819,0.012753
2085.4455,0.012413
2087.3092,0.012822
2089.1729,0.012770
2091.0365,0.012690
2092.9002,0.012227
2094.7639,0.011694
2096.6275,0.012123
2098.4912,0.013036
2100.3549,0.013647
2102.2185,0.013623
2104.0822,0.012816
2105.9459,0.012690
2107.8095,0.013333
2109.6732,0.013313
2111.5369,0.013154
2113.4006,0.013391
2115.2642,0.013371
2117.1279,0.013725
2118.9916,0.013276
2120.8552,0.013086
2122.7189,0.012743
2124.5826,0.012646
2126.4462,0.012669
2128.3099,0.012345
2130.1736,0.011924
2132.0372,0.011793
2133.9009,0.010631
2135.7646,0.010061
2137.6282,0.010149
2139.4919,0.010143
2141.3556,0.009942
2143.2193,0.009173
2145.0829,0.007540
2146.9466,0.008192
2148.8103,0.008243
2150.6739,0.006593
2152.5376,0.006154
2154.4013,0.006069
2156.2649,0.004277
2158.1286,0.002824
2159.9923,0.003088
2161.8559,0.004638
2163.7196,0.006014
2165.5833,0.006443
2167.4470,0.005582
2169.3106,0.005952
2171.1743,0.007017
2173.0380,0.006433
2174.9016,0.003707
2176.7653,0.005261
2178.6290,0.007946
2180.4926,0.008447
2182.3563,0.007754
2184.2200,0.008128
2186.0836,0.007541
2187.9473,0.007552
2189.8110,0.008392
2191.6746,0.008309
2193.5383,0.008335
2195.4020,0.009133
2197.2657,0.009692
2199.1293,0.009960
2200.9930,0.009318
2202.8567,0.009566
2204.7203,0.010366
2206.5840,0.011406
2208.4477,0.011237
2210.3113,0.011503
2212.1750,0.011659
2214.0387,0.012149
2215.9023,0.012344
2217.7660,0.011673
2219.6297,0.010804
2221.4934,0.010379
2223.3570,0.010665
2225.2207,0.011938
2227.0844,0.013511
2228.9480,0.013733
2230.8117,0.013080
2232.6754,0.012928
2234.5390,0.012840
2236.4027,0.012907
2238.2664,0.013251
2240.1300,0.013770
2241.9937,0.013788
2243.8574,0.014235
2245.7210,0.014600
2247.5847,0.014611
2249.4484,0.014186
2251.3121,0.014428
2253.1757,0.015181
2255.0394,0.015369
2256.9031,0.015312
2258.7667,0.015777
2260.6304,0.015638
2262.4941,0.015785
2264.3577,0.016272
2266.2214,0.016233
2268.0851,0.016163
2269.9487,0.016824
2271.8124,0.017196
2273.6761,0.017722
2275.5397,0.018500
2277.4034,0.018708
2279.2671,0.018705
2281.1308,0.019073
2282.9944,0.019217
2284.8581,0.019239
2286.7218,0.019223
2288.5854,0.019493
2290.4491,0.019694
2292.3128,0.019687
2294.1764,0.019810
2296.0401,0.020092
2297.9038,0.019979
2299.7674,0.019617
2301.6311,0.019450
2303.4948,0.019496
2305.3585,0.019685
2307.2221,0.019944
2309.0858,0.019893
2310.9495,0.019748
2312.8131,0.019827
2314.6768,0.020029
2316.5405,0.019960
2318.4041,0.020085
2320.2678,0.019886
2322.1315,0.019795
2323.9951,0.020102
2325.8588,0.019824
2327.7225,0.019088
2329.5861,0.019094
2331.4498,0.019213
2333.3135,0.019212
2335.1772,0.019044
2337.0408,0.018748
2338.9045,0.018795
2340.7682,0.018859
2342.6318,0.018722
2344.4955,0.018859
2346.3592,0.018792
2348.2228,0.018923
2350.0865,0.018894
2351.9502,0.018535
2353.8138,0.018200
2355.6775,0.018238
2357.5412,0.018054
2359.4049,0.017750
2361.2685,0.017823
2363.1322,0.018101
2364.9959,0.018161
2366.8595,0.018564
2368.7232,0.019034
2370.5869,0.019189
2372.4505,0.019369
2374.3142,0.019678
2376.1779,0.019983
2378.0415,0.020330
2379.9052,0.020299
2381.7689,0.020200
2383.6325,0.020684
2385.4962,0.020967
2387.3599,0.020771
2389.2236,0.020776
2391.0872,0.020751
2392.9509,0.020652
2394.8146,0.020650
2396.6782,0.020898
2398.5419,0.021158
2400.4056,0.021174
2402.2692,0.021253
2404.1329,0.021215
2405.9966,0.021052
2407.8602,0.021087
2409.7239,0.021455
2411.5876,0.021564
2413.4512,0.021440
2415.3149,0.021647
2417.1786,0.021837
2419.0423,0.021544
2420.9059,0.021582
2422.7696,0.022167
2424.6333,0.022212
2426.4969,0.022207
2428.3606,0.022350
2430.2243,0.022473
2432.0879,0.022702
2433.9516,0.022750
2435.8153,0.022279
2437.6789,0.022399
2439.5426,0.022330
2441.4063,0.022285
2443.2700,0.022398
2445.1336,0.022566
2446.9973,0.022653
2448.8610,0.022365
2450.7246,0.022493
2452.5883,0.022996
2454.4520,0.023117
2456.3156,0.023052
2458.1793,0.023022
2460.0430,0.022666
2461.9066,0.022364
2463.7703,0.022762
2465.6340,0.022903
2467.4976,0.022737
2469.3613,0.022838
2471.2250,0.023360
2473.0887,0.023640
2474.9523,0.023307
2476.8160,0.023133
2478.6797,0.023570
2480.5433,0.024011
2482.4070,0.024013
2484.2707,0.023921
2486.1343,0.024326
2487.9980,0.024519
2489.8617,0.024536
2491.7253,0.024269
2493.5890,0.024314
2495.4527,0.024414
2497.3164,0.024645
2499.1800,0.024572
2501.0437,0.024509
2502.9074,0.024751
2504.7710,0.024944
2506.6347,0.025201
2508.4984,0.025284
2510.3620,0.025225
2512.2257,0.025284
2514.0894,0.025207
2515.9530,0.025174
2517.8167,0.025114
2519.6804,0.025495
2521.5440,0.026016
2523.4077,0.026425
2525.2714,0.026578
2527.1351,0.026505
2528.9987,0.026373
2530.8624,0.026588
2532.7261,0.026974
2534.5897,0.026914
2536.4534,0.026756
2538.3171,0.026871
2540.1807,0.026916
2542.0444,0.026528
2543.9081,0.026315
2545.7717,0.026588
2547.6354,0.026798
2549.4991,0.026730
2551.3627,0.026875
2553.2264,0.026994
2555.0901,0.026930
2556.9538,0.027158
2558.8174,0.027321
2560.6811,0.027281
2562.5448,0.027182
2564.4084,0.027547
2566.2721,0.028062
2568.1358,0.028107
2569.9994,0.027935
2571.8631,0.028224
2573.7268,0.028713
2575.5904,0.028864
2577.4541,0.028830
2579.3178,0.029264
2581.1815,0.029663
2583.0451,0.029779
2584.9088,0.029925
2586.7725,0.030345
2588.6361,0.030474
2590.4998,0.030338
2592.3635,0.030252
2594.2271,0.030370
2596.0908,0.030530
2597.9545,0.030611
2599.8181,0.030989
2601.6818,0.031275
2603.5455,0.031200
2605.4091,0.031186
2607.2728,0.031421
2609.1365,0.031780
2611.0002,0.031690
2612.8638,0.031365
2614.7275,0.031585
2616.5912,0.031899
2618.4548,0.032013
2620.3185,0.032143
2622.1822,0.032468
2624.0458,0.032859
2625.9095,0.033263
2627.7732,0.033558
2629.6368,0.033819
2631.5005,0.033985
2633.3642,0.033945
2635.2279,0.034103
2637.0915,0.034510
2638.9552,0.034932
2640.8189,0.035141
2642.6825,0.034999
2644.5462,0.035151
2646.4099,0.035492
2648.2735,0.035478
2650.1372,0.035453
2652.0009,0.035551
2653.8645,0.035640
2655.7282,0.035731
2657.5919,0.035764
2659.4555,0.035795
2661.3192,0.035817
2663.1829,0.035948
2665.0466,0.035916
2666.9102,0.035993
2668.7739,0.036331
2670.6376,0.036749
2672.5012,0.036906
2674.3649,0.036866
2676.2286,0.036926
2678.0922,0.037323
2679.9559,0.037772
2681.8196,0.037968
2683.6832,0.038284
2685.5469,0.038499
2687.4106,0.038616
2689.2742,0.038747
2691.1379,0.039044
2693.0016,0.039390
2694.8653,0.039582
2696.7289,0.039667
2698.5926,0.039937
2700.4563,0.040202
2702.3199,0.040412
2704.1836,0.040790
2706.0473,0.041023
2707.9109,0.041137
2709.7746,0.041651
2711.6383,0.042203
2713.5019,0.042448
2715.3656,0.042550
2717.2293,0.042750
2719.0930,0.043086
2720.9566,0.043334
2722.8203,0.043756
2724.6840,0.044116
2726.5476,0.044530
2728.4113,0.045093
2730.2750,0.045663
2732.1386,0.046019
2734.0023,0.046189
2735.8660,0.046464
2737.7296,0.047054
2739.5933,0.047596
2741.4570,0.047945
2743.3206,0.048474
2745.1843,0.048946
2747.0480,0.049425
2748.9117,0.049933
2750.7753,0.050527
2752.6390,0.051039
2754.5027,0.051431
2756.3663,0.052106
2758.2300,0.052571
2760.0937,0.052847
2761.9573,0.053418
2763.8210,0.054106
2765.6847,0.054643
2767.5483,0.055303
2769.4120,0.055834
2771.2757,0.056372
2773.1394,0.057108
2775.0030,0.057768
2776.8667,0.058323
2778.7304,0.058992
2780.5940,0.059261
2782.4577,0.059315
2784.3214,0.059304
2786.1850,0.059343
2788.0487,0.059364
2789.9124,0.059306
2791.7760,0.059034
2793.6397,0.058619
2795.5034,0.058195
2797.3670,0.057581
2799.2307,0.057208
2801.0944,0.056932
2802.9581,0.056477
2804.8217,0.056236
2806.6854,0.055800
2808.5491,0.055563
2810.4127,0.055566
2812.2764,0.055467
2814.1401,0.055344
2816.0037,0.055342
2817.8674,0.055502
2819.7311,0.055706
2821.5947,0.055972
2823.4584,0.056213
2825.3221,0.056170
2827.1857,0.056163
2829.0494,0.055920
2830.9131,0.055761
2832.7768,0.055761
2834.6404,0.055844
2836.5041,0.056024
2838.3678,0.056560
2840.2314,0.057421
2842.0951,0.058067
2843.9588,0.058419
2845.8224,0.058929
2847.6861,0.059721
2849.5498,0.060775
2851.4134,0.061424
2853.2771,0.061673
2855.1408,0.062190
2857.0045,0.062931
2858.8681,0.063554
2860.7318,0.064027
2862.5955,0.064373
2864.4591,0.064528
2866.3228,0.064755
2868.1865,0.064988
2870.0501,0.065117
2871.9138,0.065310
2873.7775,0.065455
2875.6411,0.065817
2877.5048,0.066244
2879.3685,0.066537
2881.2321,0.066986
2883.0958,0.067553
2884.9595,0.067878
2886.8232,0.068315
2888.6868,0.068833
2890.5505,0.069313
2892.4142,0.069564
2894.2778,0.069954
2896.1415,0.070648
2898.0052,0.071208
2899.8688,0.071268
2901.7325,0.071335
2903.5962,0.071407
2905.4598,0.071815
2907.3235,0.072258
2909.1872,0.072555
2911.0509,0.072977
2912.9145,0.073643
2914.7782,0.074433
2916.6419,0.075018
2918.5055,0.075595
2920.3692,0.076554
2922.2329,0.077129
2924.0965,0.077518
2925.9602,0.077969
2927.8239,0.078228
2929.6875,0.078509
2931.5512,0.079090
2933.4149,0.079430
2935.2785,0.079434
2937.1422,0.079735
2939.0059,0.080377
2940.8696,0.080435
2942.7332,0.080346
2944.5969,0.080583
2946.4606,0.080644
2948.3242,0.080465
2950.1879,0.080547
2952.0516,0.080888
2953.9152,0.081092
2955.7789,0.081112
2957.6426,0.081459
2959.5062,0.081708
2961.3699,0.081730
2963.2336,0.082169
2965.0972,0.082905
2966.9609,0.083277
2968.8246,0.083675
2970.6883,0.084067
2972.5519,0.084483
2974.4156,0.084941
2976.2793,0.085468
2978.1429,0.085978
2980.0066,0.086376
2981.8703,0.086418
2983.7339,0.086306
2985.5976,0.086311
2987.4613,0.086462
2989.3249,0.086750
2991.1886,0.087224
2993.0523,0.087579
2994.9160,0.088188
2996.7796,0.089088
2998.6433,0.090020
3000.5070,0.090735
3002.3706,0.091226
3004.2343,0.091758
3006.0980,0.092568
3007.9616,0.093334
3009.8253,0.093849
3011.6890,0.094267
3013.5526,0.094936
3015.4163,0.095486
3017.2800,0.095688
3019.1436,0.096081
3021.0073,0.096726
3022.8710,0.096691
3024.7347,0.096709
3026.5983,0.096913
3028.4620,0.096837
3030.3257,0.096746
3032.1893,0.097224
3034.0530,0.097812
3035.9167,0.098284
3037.7803,0.098295
3039.6440,0.098298
3041.5077,0.098635
3043.3713,0.098916
3045.2350,0.099191
3047.0987,0.099680
3048.9624,0.099627
3050.8260,0.099451
3052.6897,0.099583
3054.5534,0.099893
3056.4170,0.100208
3058.2807,0.100166
3060.1444,0.099564
3062.0080,0.099269
3063.8717,0.099632
3065.7354,0.100242
3067.5990,0.100194
3069.4627,0.099959
3071.3264,0.099819
3073.1900,0.099434
3075.0537,0.099068
3076.9174,0.099160
3078.7811,0.098807
3080.6447,0.098405
3082.5084,0.098194
3084.3721,0.097906
3086.2357,0.097306
3088.0994,0.096443
3089.9631,0.095883
3091.8267,0.095869
3093.6904,0.095223
3095.5541,0.094080
3097.4177,0.093634
3099.2814,0.093247
3101.1451,0.092290
3103.0087,0.091909
3104.8724,0.091087
3106.7361,0.089629
3108.5998,0.088675
3110.4634,0.088298
3112.3271,0.087445
3114.1908,0.086443
3116.0544,0.085762
3117.9181,0.085455
3119.7818,0.084919
3121.6454,0.084499
3123.5091,0.084157
3125.3728,0.083127
3127.2364,0.081688
3129.1001,0.080569
3130.9638,0.080149
3132.8275,0.080010
3134.6911,0.079332
3136.5548,0.078556
3138.4185,0.077858
3140.2821,0.077788
3142.1458,0.077681
3144.0095,0.077012
3145.8731,0.076571
3147.7368,0.076012
3149.6005,0.074990
3151.4641,0.074344
3153.3278,0.074386
3155.1915,0.074488
3157.0551,0.073937
3158.9188,0.073103
3160.7825,0.072295
3162.6462,0.071490
3164.5098,0.070997
3166.3735,0.070702
3168.2372,0.070470
3170.1008,0.070159
3171.9645,0.069334
3173.8282,0.068758
3175.6918,0.068342
3177.5555,0.067786
3179.4192,0.067313
3181.2828,0.067023
3183.1465,0.067039
3185.0102,0.067221
3186.8739,0.066991
3188.7375,0.066662
3190.6012,0.066354
3192.4649,0.065859
3194.3285,0.065307
3196.1922,0.065080
3198.0559,0.065423
3199.9195,0.066101
3201.7832,0.066042
3203.6469,0.065659
3205.5105,0.065615
3207.3742,0.066065
3209.2379,0.066194
3211.1015,0.065718
3212.9652,0.065701
3214.8289,0.066112
3216.6926,0.066347
3218.5562,0.066188
3220.4199,0.065917
3222.2836,0.065966
3224.1472,0.066419
3226.0109,0.067042
3227.8746,0.066840
3229.7382,0.066428
3231.6019,0.067008
3233.4656,0.067884
3235.3292,0.068093
3237.1929,0.067877
3239.0566,0.067828
3240.9202,0.067901
3242.7839,0.067739
3244.6476,0.068023
3246.5113,0.068855
3248.3749,0.069811
3250.2386,0.070457
3252.1023,0.070163
3253.9659,0.069810
3255.8296,0.070256
3257.6933,0.070213
3259.5569,0.070176
3261.4206,0.070834
3263.2843,0.070818
3265.1479,0.070490
3267.0116,0.070732
3268.8753,0.071031
3270.7390,0.071098
3272.6026,0.071233
3274.4663,0.071320
3276.3300,0.070993
3278.1936,0.070726
3280.0573,0.070550
3281.9210,0.069912
3283.7846,0.069446
3285.6483,0.069326
3287.5120,0.068746
3289.3756,0.068497
3291.2393,0.068226
3293.1030,0.067240
3294.9666,0.066664
3296.8303,0.066122
3298.6940,0.064754
3300.5577,0.063435
3302.4213,0.062763
3304.2850,0.062766
3306.1487,0.062574
3308.0123,0.061983
3309.8760,0.061946
3311.7397,0.061393
3313.6033,0.060745
3315.4670,0.060899
3317.3307,0.060828
3319.1943,0.060874
3321.0580,0.061046
3322.9217,0.060755
3324.7854,0.060350
3326.6490,0.060713
3328.5127,0.061597
3330.3764,0.061767
3332.2400,0.061372
3334.1037,0.060807
3335.9674,0.059988
3337.8310,0.059851
3339.6947,0.060117
3341.5584,0.059766
3343.4220,0.058739
3345.2857,0.057464
3347.1494,0.056210
3349.0130,0.054981
3350.8767,0.053933
3352.7404,0.053864
3354.6041,0.053333
3356.4677,0.051416
3358.3314,0.049952
3360.1951,0.049626
3362.0587,0.049686
3363.9224,0.049192
3365.7861,0.048252
3367.6497,0.048100
3369.5134,0.048080
3371.3771,0.047364
3373.2407,0.046488
3375.1044,0.045820
3376.9681,0.046155
3378.8317,0.047288
3380.6954,0.047438
3382.5591,0.046713
3384.4228,0.046879
3386.2864,0.048064
3388.1501,0.047991
3390.0138,0.046957
3391.8774,0.047555
3393.7411,0.048721
3395.6048,0.049118
3397.4684,0.049168
3399.3321,0.048909
3401.1958,0.048872
3403.0594,0.049192
3404.9231,0.048937
3406.7868,0.047612
3408.6505,0.046034
3410.5141,0.044966
3412.3778,0.043645
3414.2415,0.042244
3416.1051,0.041220
3417.9688,0.040105
3419.8325,0.038678
3421.6961,0.037195
3423.5598,0.036159
3425.4235,0.035189
3427.2871,0.033721
3429.1508,0.031840
3431.0145,0.031683
3432.8781,0.031746
3434.7418,0.029667
3436.6055,0.028448
3438.4692,0.028144
3440.3328,0.027257
3442.1965,0.026788
3444.0602,0.026926
3445.9238,0.026989
3447.7875,0.026345
3449.6512,0.025195
3451.5148,0.024730
3453.3785,0.024372
3455.2422,0.023772
3457.1058,0.023493
3458.9695,0.022680
3460.8332,0.021566
3462.6969,0.021549
3464.5605,0.022302
3466.4242,0.021594
3468.2879,0.020173
3470.1515,0.020050
3472.0152,0.020240
3473.8789,0.020116
3475.7425,0.019623
3477.6062,0.019207
3479.4699,0.019612
3481.3335,0.019830
3483.1972,0.019319
3485.0609,0.018648
3486.9245,0.017807
3488.7882,0.017446
3490.6519,0.017194
3492.5156,0.016587
3494.3792,0.016546
3496.2429,0.016410
3498.1066,0.015987
3499.9702,0.016332
3501.8339,0.016617
3503.6976,0.016151
3505.5612,0.015572
3507.4249,0.015098
3509.2886,0.014708
3511.1522,0.014195
3513.0159,0.013265
3514.8796,0.013157
3516.7432,0.014171
3518.6069,0.014105
3520.4706,0.013671
3522.3343,0.013463
3524.1979,0.012472
3526.0616,0.012078
3527.9253,0.012035
3529.7889,0.010965
3531.6526,0.010619
3533.5163,0.011790
3535.3799,0.012320
3537.2436,0.011412
3539.1073,0.010582
3540.9709,0.010778
3542.8346,0.011146
3544.6983,0.010988
3546.5620,0.010341
3548.4256,0.009478
3550.2893,0.008734
3552.1530,0.008004
3554.0166,0.008772
3555.8803,0.010250
3557.7440,0.009429
3559.6076,0.008291
3561.4713,0.009164
3563.3350,0.009431
3565.1986,0.008156
3567.0623,0.007636
3568.9260,0.008424
3570.7896,0.009658
3572.6533,0.010178
3574.5170,0.009757
3576.3807,0.009105
3578.2443,0.008714
3580.1080,0.008277
3581.9717,0.007857
3583.8353,0.007655
3585.6990,0.007934
3587.5627,0.007965
3589.4263,0.007968
3591.2900,0.007937
3593.1537,0.007773
3595.0173,0.008302
3596.8810,0.008760
3598.7447,0.008940
3600.6084,0.008752
3602.4720,0.008721
3604.3357,0.008770
3606.1994,0.008210
3608.0630,0.008140
3609.9267,0.008675
3611.7904,0.008677
3613.6540,0.008354
3615.5177,0.008296
3617.3814,0.008318
3619.2450,0.008082
3621.1087,0.007904
3622.9724,0.007627
3624.8360,0.007859
3626.6997,0.008848
3628.5634,0.008833
3630.4271,0.008615
3632.2907,0.009198
3634.1544,0.008960
3636.0181,0.008753
3637.8817,0.008842
3639.7454,0.008917
3641.6091,0.008963
3643.4727,0.008797
3645.3364,0.008582
3647.2001,0.008988
3649.0637,0.009837
3650.9274,0.009914
3652.7911,0.009873
3654.6547,0.009093
3656.5184,0.008841
3658.3821,0.009876
3660.2458,0.010178
3662.1094,0.010095
3663.9731,0.010500
3665.8368,0.010706
3667.7004,0.011352
3669.5641,0.012870
3671.4278,0.014785
3673.2914,0.016446
3675.1551,0.017768
3677.0188,0.017562
3678.8824,0.013098
3680.7461,0.009042
3682.6098,0.007170
3684.4735,0.007303
3686.3371,0.007748
3688.2008,0.007383
3690.0645,0.007009
3691.9281,0.007308
3693.7918,0.007749
3695.6555,0.008106
3697.5191,0.007909
3699.3828,0.008018
3701.2465,0.008159
3703.1101,0.008068
3704.9738,0.008514
3706.8375,0.008385
3708.7011,0.007519
3710.5648,0.006888
3712.4285,0.006874
3714.2922,0.007414
3716.1558,0.007953
3718.0195,0.007925
3719.8832,0.008166
3721.7468,0.008786
3723.6105,0.008519
3725.4742,0.008180
3727.3378,0.008524
3729.2015,0.008327
3731.0652,0.007463
3732.9288,0.007142
3734.7925,0.007765
3736.6562,0.008156
3738.5199,0.007459
3740.3835,0.007706
3742.2472,0.008237
3744.1109,0.007730
3745.9745,0.006852
3747.8382,0.007767
3749.7019,0.008383
3751.5655,0.008327
3753.4292,0.008606
3755.2929,0.008804
3757.1565,0.008667
3759.0202,0.008768
3760.8839,0.009248
3762.7475,0.009175
3764.6112,0.009070
3766.4749,0.009126
3768.3386,0.009124
3770.2022,0.009363
3772.0659,0.009538
3773.9296,0.009796
3775.7932,0.009687
3777.6569,0.009548
3779.5206,0.009460
3781.3842,0.009453
3783.2479,0.009790
3785.1116,0.010110
3786.9752,0.010098
3788.8389,0.009594
3790.7026,0.009796
3792.5662,0.009996
3794.4299,0.009450
3796.2936,0.009023
3798.1573,0.009147
3800.0209,0.009821
3801.8846,0.009609
3803.7483,0.009198
3805.6119,0.009184
3807.4756,0.009470
3809.3393,0.009753
3811.2029,0.009469
3813.0666,0.009397
3814.9303,0.009277
3816.7939,0.008778
3818.6576,0.009255
3820.5213,0.009871
3822.3850,0.010000
3824.2486,0.010536
3826.1123,0.010563
3827.9760,0.010054
3829.8396,0.009391
3831.7033,0.009071
3833.5670,0.009458
3835.4306,0.009880
3837.2943,0.009769
3839.1580,0.009478
3841.0216,0.009521
3842.8853,0.009778
3844.7490,0.009905
3846.6126,0.010056
3848.4763,0.009806
3850.3400,0.009564
3852.2037,0.009564
3854.0673,0.009446
3855.9310,0.009813
3857.7947,0.010150
3859.6583,0.009855
3861.5220,0.009247
3863.3857,0.009289
3865.2493,0.010132
3867.1130,0.010473
3868.9767,0.010005
3870.8403,0.009656
3872.7040,0.010071
3874.5677,0.010012
3876.4314,0.009819
3878.2950,0.010672
3880.1587,0.010826
3882.0224,0.010396
3883.8860,0.009741
3885.7497,0.009584
3887.6134,0.010389
3889.4770,0.010623
3891.3407,0.010075
3893.2044,0.010522
3895.0680,0.010712
3896.9317,0.010083
3898.7954,0.009648
3900.6590,0.009666
3902.5227,0.010934
3904.3864,0.011842
3906.2501,0.011480
3908.1137,0.011215
3909.9774,0.010914
3911.8411,0.010456
3913.7047,0.010527
3915.5684,0.010642
3917.4321,0.010737
3919.2957,0.010984
3921.1594,0.011110
3923.0231,0.011206
3924.8867,0.010979
3926.7504,0.011019
3928.6141,0.011003
3930.4777,0.010848
3932.3414,0.011155
3934.2051,0.011354
3936.0688,0.011478
3937.9324,0.011297
3939.7961,0.011217
3941.6598,0.011245
3943.5234,0.011384
3945.3871,0.011183
3947.2508,0.010967
3949.1144,0.011421
3950.9781,0.011703
3952.8418,0.011108
3954.7054,0.010895
3956.5691,0.011133
3958.4328,0.011052
3960.2965,0.010721
3962.1601,0.010770
3964.0238,0.011028
3965.8875,0.011186
3967.7511,0.011415
3969.6148,0.011446
3971.4785,0.011219
3973.3421,0.011226
3975.2058,0.011306
3977.0695,0.011227
3978.9331,0.011039
3980.7968,0.011092
3982.6605,0.011320
3984.5241,0.011573
3986.3878,0.011263
3988.2515,0.010913
3990.1152,0.011304
3991.9788,0.011616
3993.8425,0.011530
3995.7062,0.011472
3997.5698,0.011176
3999.4335,0.010932
