Wavenumber,Intensity
650.4205,0.199378
652.2841,0.197144
654.1478,0.193872
656.0115,0.192191
657.8751,0.192167
659.7388,0.189039
661.6025,0.185490
663.4661,0.181157
665.3298,0.178936
667.1935,0.178611
669.0571,0.179596
670.9208,0.177543
672.7845,0.176268
674.6481,0.176300
676.5118,0.178051
678.3755,0.177431
680.2392,0.177924
682.1028,0.177839
683.9665,0.177437
685.8302,0.177194
687.6938,0.177782
689.5575,0.177353
691.4212,0.177898
693.2848,0.178677
695.1485,0.180471
697.0122,0.181513
698.8758,0.182677
700.7395,0.183582
702.6032,0.182902
704.4669,0.180923
706.3305,0.178264
708.1942,0.172856
710.0579,0.166254
711.9215,0.159762
713.7852,0.154098
715.6489,0.147892
717.5125,0.142229
719.3762,0.136819
721.2399,0.132301
723.1035,0.127714
724.9672,0.124034
726.8309,0.120910
728.6945,0.118035
730.5582,0.114518
732.4219,0.111020
734.2856,0.108941
736.1492,0.107612
738.0129,0.106290
739.8766,0.106625
741.7402,0.108636
743.6039,0.111152
745.4676,0.112377
747.3312,0.113830
749.1949,0.114978
751.0586,0.115368
752.9222,0.115100
754.7859,0.115324
756.6496,0.115372
758.5132,0.115249
760.3769,0.114653
762.2406,0.113608
764.1043,0.111879
765.9679,0.109910
767.8316,0.108380
769.6953,0.107372
771.5589,0.106009
773.4226,0.104846
775.2863,0.103976
777.1499,0.103752
779.0136,0.103755
780.8773,0.103957
782.7409,0.104235
784.6046,0.104570
786.4683,0.104936
788.3320,0.105575
790.1956,0.106359
792.0593,0.107451
793.9230,0.108335
795.7866,0.108865
797.6503,0.109314
799.5140,0.109781
801.3776,0.109618
803.2413,0.109529
805.1050,0.109528
806.9686,0.109244
808.8323,0.108184
810.6960,0.106465
812.5596,0.104107
814.4233,0.102145
816.2870,0.100689
818.1507,0.099544
820.0143,0.098356
821.8780,0.097494
823.7417,0.097431
825.6053,0.098465
827.4690,0.100568
829.3327,0.102162
831.1963,0.099365
833.0600,0.092637
834.9237,0.086948
836.7873,0.084481
838.6510,0.083945
840.5147,0.084316
842.3784,0.084478
844.2420,0.084439
846.1057,0.084451
847.9694,0.084269
849.8330,0.083733
851.6967,0.083231
853.5604,0.083078
855.4240,0.082864
857.2877,0.082249
859.1514,0.081626
861.0150,0.080853
862.8787,0.079865
864.7424,0.078991
866.6060,0.078181
868.4697,0.077417
870.3334,0.076853
872.1971,0.076401
874.0607,0.076277
875.9244,0.076464
877.7881,0.077061
879.6517,0.077919
881.5154,0.079030
883.3791,0.080281
885.2427,0.081656
887.1064,0.083262
888.9701,0.085014
890.8337,0.086478
892.6974,0.087792
894.5611,0.089294
896.4247,0.090851
898.2884,0.092524
900.1521,0.094363
902.0158,0.096477
903.8794,0.099239
905.7431,0.102714
907.6068,0.106856
909.4704,0.111527
911.3341,0.116976
913.1978,0.122562
915.0614,0.125064
916.9251,0.120019
918.7888,0.110219
920.6524,0.103046
922.5161,0.100420
924.3798,0.099775
926.2435,0.099766
928.1071,0.099938
929.9708,0.100042
931.8345,0.100066
933.6981,0.100157
935.5618,0.100079
937.4255,0.099738
939.2891,0.099283
941.1528,0.098857
943.0165,0.098707
944.8801,0.099068
946.7438,0.099931
948.6075,0.101624
950.4711,0.104028
952.3348,0.106813
954.1985,0.109842
956.0622,0.113279
957.9258,0.117024
959.7895,0.120848
961.6532,0.124969
963.5168,0.129553
965.3805,0.134459
967.2442,0.139942
969.1078,0.146097
970.9715,0.152711
972.8352,0.159967
974.6988,0.169096
976.5625,0.181086
978.4262,0.197480
980.2899,0.217151
982.1535,0.225697
984.0172,0.208831
985.8809,0.185968
987.7445,0.176206
989.6082,0.175358
991.4719,0.176009
993.3355,0.176517
995.1992,0.176625
997.0629,0.176394
998.9265,0.176074
1000.7902,0.175844
1002.6539,0.175577
1004.5175,0.175664
1006.3812,0.176082
1008.2449,0.176867
1010.1086,0.177909
1011.9722,0.178757
1013.8359,0.179056
1015.6996,0.178926
1017.5632,0.178292
1019.4269,0.177130
1021.2906,0.175354
1023.1542,0.173326
1025.0179,0.171012
1026.8816,0.168533
1028.7452,0.166326
1030.6089,0.164439
1032.4726,0.162544
1034.3362,0.160866
1036.1999,0.159475
1038.0636,0.158408
1039.9273,0.157596
1041.7909,0.157090
1043.6546,0.156632
1045.5183,0.156226
1047.3819,0.154952
1049.2456,0.151584
1051.1093,0.145488
1052.9729,0.137305
1054.8366,0.129226
1056.7003,0.123130
1058.5639,0.119025
1060.4276,0.116235
1062.2913,0.114417
1064.1550,0.113729
1066.0186,0.114476
1067.8823,0.116990
1069.7460,0.121107
1071.6096,0.125770
1073.4733,0.129984
1075.3370,0.132825
1077.2006,0.133961
1079.0643,0.133606
1080.9280,0.132073
1082.7916,0.130059
1084.6553,0.128129
1086.5190,0.126585
1088.3826,0.125701
1090.2463,0.125821
1092.1100,0.127069
1093.9737,0.129530
1095.8373,0.132997
1097.7010,0.137111
1099.5647,0.141423
1101.4283,0.145612
1103.2920,0.148932
1105.1557,0.150833
1107.0193,0.150347
1108.8830,0.146438
1110.7467,0.139305
1112.6103,0.130465
1114.4740,0.121588
1116.3377,0.113621
1118.2014,0.106897
1120.0650,0.101886
1121.9287,0.098425
1123.7924,0.096079
1125.6560,0.094286
1127.5197,0.092648
1129.3834,0.091139
1131.2470,0.090007
1133.1107,0.089525
1134.9744,0.089649
1136.8380,0.090369
1138.7017,0.091665
1140.5654,0.093333
1142.4290,0.095007
1144.2927,0.096140
1146.1564,0.096697
1148.0201,0.096725
1149.8837,0.095927
1151.7474,0.094408
1153.6111,0.092329
1155.4747,0.089778
1157.3384,0.086953
1159.2021,0.083808
1161.0657,0.080496
1162.9294,0.077492
1164.7931,0.075123
1166.6567,0.073436
1168.5204,0.072583
1170.3841,0.072287
1172.2477,0.071788
1174.1114,0.070079
1175.9751,0.066807
1177.8388,0.063088
1179.7024,0.060272
1181.5661,0.058722
1183.4298,0.058295
1185.2934,0.058622
1187.1571,0.059210
1189.0208,0.059738
1190.8844,0.060246
1192.7481,0.060772
1194.6118,0.061348
1196.4754,0.062015
1198.3391,0.062677
1200.2028,0.063176
1202.0665,0.063519
1203.9301,0.063795
1205.7938,0.064064
1207.6575,0.064247
1209.5211,0.064385
1211.3848,0.064641
1213.2485,0.064990
1215.1121,0.065475
1216.9758,0.066113
1218.8395,0.066724
1220.7031,0.067468
1222.5668,0.068283
1224.4305,0.069014
1226.2941,0.069841
1228.1578,0.070582
1230.0215,0.071150
1231.8852,0.071726
1233.7488,0.072272
1235.6125,0.072838
1237.4762,0.073389
1239.3398,0.073836
1241.2035,0.074186
1243.0672,0.074601
1244.9308,0.075155
1246.7945,0.075634
1248.6582,0.075988
1250.5218,0.076453
1252.3855,0.077016
1254.2492,0.077531
1256.1129,0.078054
1257.9765,0.078704
1259.8402,0.079458
1261.7039,0.080235
1263.5675,0.080889
1265.4312,0.081467
1267.2949,0.081806
1269.1585,0.081813
1271.0222,0.081775
1272.8859,0.081838
1274.7495,0.082148
1276.6132,0.082801
1278.4769,0.083677
1280.3405,0.084874
1282.2042,0.086229
1284.0679,0.087629
1285.9316,0.089315
1287.7952,0.091449
1289.6589,0.093804
1291.5226,0.096363
1293.3862,0.099324
1295.2499,0.102817
1297.1136,0.106892
1298.9772,0.111650
1300.8409,0.117149
1302.7046,0.122776
1304.5682,0.126286
1306.4319,0.124855
1308.2956,0.116475
1310.1592,0.102539
1312.0229,0.088924
1313.8866,0.080437
1315.7503,0.077468
1317.6139,0.077984
1319.4776,0.080108
1321.3413,0.082337
1323.2049,0.084499
1325.0686,0.086932
1326.9323,0.089327
1328.7959,0.091510
1330.6596,0.093395
1332.5233,0.094719
1334.3869,0.095209
1336.2506,0.095461
1338.1143,0.096557
1339.9780,0.098431
1341.8416,0.098687
1343.7053,0.098320
1345.5690,0.098667
1347.4326,0.099523
1349.2963,0.100685
1351.1600,0.101895
1353.0236,0.103281
1354.8873,0.105112
1356.7510,0.106584
1358.6146,0.107606
1360.4783,0.109211
1362.3420,0.112789
1364.2056,0.115562
1366.0693,0.116251
1367.9330,0.117926
1369.7967,0.119967
1371.6603,0.121304
1373.5240,0.124432
1375.3877,0.127936
1377.2513,0.129575
1379.1150,0.132080
1380.9787,0.135485
1382.8423,0.138697
1384.7060,0.142455
1386.5697,0.148421
1388.4333,0.154781
1390.2970,0.157046
1392.1607,0.157848
1394.0244,0.158386
1395.8880,0.155564
1397.7517,0.149762
1399.6154,0.143456
1401.4790,0.136957
1403.3427,0.131920
1405.2064,0.124510
1407.0700,0.112837
1408.9337,0.100876
1410.7974,0.089908
1412.6610,0.081958
1414.5247,0.077929
1416.3884,0.077379
1418.2520,0.081149
1420.1157,0.087572
1421.9794,0.089286
1423.8431,0.087621
1425.7067,0.081455
1427.5704,0.074722
1429.4341,0.070482
1431.2977,0.068238
1433.1614,0.067132
1435.0251,0.067870
1436.8887,0.071059
1438.7524,0.072083
1440.6161,0.071848
1442.4797,0.072557
1444.3434,0.073171
1446.2071,0.073900
1448.0707,0.074621
1449.9344,0.073396
1451.7981,0.070845
1453.6618,0.068203
1455.5254,0.067637
1457.3891,0.071543
1459.2528,0.072190
1461.1164,0.070161
1462.9801,0.069730
1464.8438,0.070425
1466.7074,0.068952
1468.5711,0.066147
1470.4348,0.064563
1472.2984,0.065132
1474.1621,0.065395
1476.0258,0.064518
1477.8895,0.063401
1479.7531,0.062682
1481.6168,0.062657
1483.4805,0.062215
1485.3441,0.061711
1487.2078,0.062242
1489.0715,0.064101
1490.9351,0.065531
1492.7988,0.064418
1494.6625,0.064196
1496.5261,0.066233
1498.3898,0.068231
1500.2535,0.067893
1502.1171,0.066622
1503.9808,0.065821
1505.8445,0.068472
1507.7082,0.075791
1509.5718,0.074341
1511.4355,0.072965
1513.2992,0.072925
1515.1628,0.073600
1517.0265,0.075270
1518.8902,0.075592
1520.7538,0.077102
1522.6175,0.079521
1524.4812,0.079343
1526.3448,0.080235
1528.2085,0.080875
1530.0722,0.080419
1531.9359,0.081398
1533.7995,0.083953
1535.6632,0.083234
1537.5269,0.082210
1539.3905,0.085815
1541.2542,0.092558
1543.1179,0.092691
1544.9815,0.093286
1546.8452,0.093474
1548.7089,0.094366
1550.5725,0.096417
1552.4362,0.097234
1554.2999,0.098028
1556.1635,0.099190
1558.0272,0.104911
1559.8909,0.117021
1561.7546,0.111423
1563.6182,0.109380
1565.4819,0.110760
1567.3456,0.112577
1569.2092,0.116375
1571.0729,0.119075
1572.9366,0.118413
1574.8002,0.120982
1576.6639,0.127776
1578.5276,0.129156
1580.3912,0.128811
1582.2549,0.130527
1584.1186,0.132361
1585.9822,0.133590
1587.8459,0.134620
1589.7096,0.135332
1591.5733,0.135399
1593.4369,0.135318
1595.3006,0.135015
1597.1643,0.134037
1599.0279,0.132495
1600.8916,0.131200
1602.7553,0.129996
1604.6189,0.128667
1606.4826,0.127403
1608.3463,0.126407
1610.2099,0.124925
1612.0736,0.122602
1613.9373,0.119992
1615.8010,0.118526
1617.6646,0.114831
1619.5283,0.108880
1621.3920,0.105228
1623.2556,0.101860
1625.1193,0.096587
1626.9830,0.091937
1628.8466,0.086086
1630.7103,0.079466
1632.5740,0.074109
1634.4376,0.070214
1636.3013,0.065779
1638.1650,0.061379
1640.0286,0.059414
1641.8923,0.058234
1643.7560,0.057711
1645.6197,0.058914
1647.4833,0.061138
1649.3470,0.060923
1651.2107,0.061843
1653.0743,0.067885
1654.9380,0.070945
1656.8017,0.068481
1658.6653,0.068171
1660.5290,0.068649
1662.3927,0.069169
1664.2563,0.068292
1666.1200,0.066581
1667.9837,0.066027
1669.8474,0.066153
1671.7110,0.065220
1673.5747,0.065429
1675.4384,0.067841
1677.3020,0.069317
1679.1657,0.070045
1681.0294,0.071958
1682.8930,0.075219
1684.7567,0.080395
1686.6204,0.079977
1688.4840,0.078446
1690.3477,0.077224
1692.2114,0.074568
1694.0750,0.072266
1695.9387,0.070132
1697.8024,0.066827
1699.6661,0.065271
1701.5297,0.060771
1703.3934,0.055727
1705.2571,0.051400
1707.1207,0.045170
1708.9844,0.040562
1710.8481,0.037188
1712.7117,0.034468
1714.5754,0.032809
1716.4391,0.031873
1718.3027,0.031119
1720.1664,0.029701
1722.0301,0.028752
1723.8937,0.027818
1725.7574,0.026281
1727.6211,0.024797
1729.4848,0.023537
1731.3484,0.022224
1733.2121,0.022010
1735.0758,0.021990
1736.9394,0.020845
1738.8031,0.020603
1740.6668,0.020538
1742.5304,0.020118
1744.3941,0.019799
1746.2578,0.019616
1748.1214,0.019451
1749.9851,0.019428
1751.8488,0.019403
1753.7125,0.018946
1755.5761,0.018844
1757.4398,0.019002
1759.3035,0.018929
1761.1671,0.019117
1763.0308,0.019057
1764.8945,0.018602
1766.7581,0.018529
1768.6218,0.018384
1770.4855,0.018250
1772.3491,0.018715
1774.2128,0.018620
1776.0765,0.018283
1777.9401,0.018246
1779.8038,0.018358
1781.6675,0.018496
1783.5312,0.018620
1785.3948,0.018578
1787.2585,0.018295
1789.1222,0.018218
1790.9858,0.018546
1792.8495,0.018766
1794.7132,0.018334
1796.5768,0.018103
1798.4405,0.018286
1800.3042,0.018567
1802.1678,0.018710
1804.0315,0.018563
1805.8952,0.018414
1807.7589,0.018484
1809.6225,0.018541
1811.4862,0.018648
1813.3499,0.018694
1815.2135,0.018536
1817.0772,0.018498
1818.9409,0.018528
1820.8045,0.018520
1822.6682,0.018495
1824.5319,0.018455
1826.3955,0.018112
1828.2592,0.018005
1830.1229,0.018526
1831.9865,0.018515
1833.8502,0.018243
1835.7139,0.018143
1837.5776,0.018056
1839.4412,0.018139
1841.3049,0.018132
1843.1686,0.018266
1845.0322,0.018410
1846.8959,0.018105
1848.7596,0.018238
1850.6232,0.018499
1852.4869,0.018427
1854.3506,0.018237
1856.2142,0.018337
1858.0779,0.018349
1859.9416,0.018102
1861.8052,0.018185
1863.6689,0.018238
1865.5326,0.018049
1867.3963,0.018126
1869.2599,0.018410
1871.1236,0.018238
1872.9873,0.017910
1874.8509,0.017822
1876.7146,0.018249
1878.5783,0.018479
1880.4419,0.018022
1882.3056,0.017960
1884.1693,0.018234
1886.0329,0.018119
1887.8966,0.018139
1889.7603,0.018174
1891.6240,0.017703
1893.4876,0.017627
1895.3513,0.017806
1897.2150,0.017836
1899.0786,0.018104
1900.9423,0.018318
1902.8060,0.018032
1904.6696,0.017707
1906.5333,0.017744
1908.3970,0.017876
1910.2606,0.018276
1912.1243,0.018415
1913.9880,0.017859
1915.8516,0.017691
1917.7153,0.017819
1919.5790,0.017486
1921.4427,0.017270
1923.3063,0.017172
1925.1700,0.017187
1927.0337,0.017186
1928.8973,0.016793
1930.7610,0.016758
1932.6247,0.017232
1934.4883,0.017305
1936.3520,0.016861
1938.2157,0.016194
1940.0793,0.016042
1941.9430,0.016352
1943.8067,0.015788
1945.6704,0.015135
1947.5340,0.014767
1949.3977,0.014238
1951.2614,0.013832
1953.1250,0.013762
1954.9887,0.013824
1956.8524,0.013487
1958.7160,0.013406
1960.5797,0.012574
1962.4434,0.011096
1964.3070,0.010975
1966.1707,0.011375
1968.0344,0.010522
1969.8980,0.009032
1971.7617,0.008895
1973.6254,0.008758
1975.4891,0.007804
1977.3527,0.007605
1979.2164,0.007786
1981.0801,0.008312
1982.9437,0.008877
1984.8074,0.009595
1986.6711,0.010617
1988.5347,0.011161
1990.3984,0.011702
1992.2621,0.012212
1994.1257,0.012457
1995.9894,0.012649
1997.8531,0.012672
1999.7167,0.011922
2001.5804,0.011172
2003.4441,0.011374
2005.3078,0.010984
2007.1714,0.009492
2009.0351,0.008608
2010.8988,0.008791
2012.7624,0.008584
2014.6261,0.008434
2016.4898,0.008773
2018.3534,0.007354
2020.2171,0.006681
2022.0808,0.008550
2023.9444,0.008729
2025.8081,0.007176
2027.6718,0.007907
2029.5355,0.008771
2031.3991,0.008187
2033.2628,0.008495
2035.1265,0.009690
2036.9901,0.010763
2038.8538,0.011154
2040.7175,0.011273
2042.5811,0.011646
2044.4448,0.011950
2046.3085,0.013010
2048.1721,0.014124
2050.0358,0.014644
2051.8995,0.014910
2053.7631,0.014610
2055.6268,0.014994
2057.4905,0.016057
2059.3542,0.016596
2061.2178,0.017048
2063.0815,0.017329
2064.9452,0.017387
2066.8088,0.017751
2068.6725,0.018031
2070.5362,0.018441
2072.3998,0.018711
2074.2635,0.018540
2076.1272,0.018622
2077.9908,0.018392
2079.8545,0.018574
2081.7182,0.019655
2083.5819,0.020463
2085.4455,0.020446
2087.3092,0.019611
2089.1729,0.019337
2091.0365,0.019897
2092.9002,0.020079
2094.7639,0.019836
2096.6275,0.019707
2098.4912,0.020007
2100.3549,0.020263
2102.2185,0.020391
2104.0822,0.020228
2105.9459,0.019801
2107.8095,0.019901
2109.6732,0.020410
2111.5369,0.020961
2113.4006,0.020943
2115.2642,0.020698
2117.1279,0.020598
2118.9916,0.020596
2120.8552,0.021036
2122.7189,0.020986
2124.5826,0.020251
2126.4462,0.020164
2128.3099,0.020256
2130.1736,0.019560
2132.0372,0.018583
2133.9009,0.018054
2135.7646,0.018093
2137.6282,0.018225
2139.4919,0.018013
2141.3556,0.016900
2143.2193,0.015232
2145.0829,0.014543
2146.9466,0.014280
2148.8103,0.014161
2150.6739,0.014003
2152.5376,0.012060
2154.4013,0.008776
2156.2649,0.007707
2158.1286,0.009494
2159.9923,0.010832
2161.8559,0.010389
2163.7196,0.010070
2165.5833,0.011752
2167.4470,0.012798
2169.3106,0.012361
2171.1743,0.012411
2173.0380,0.012416
2174.9016,0.012171
2176.7653,0.013413
2178.6290,0.014510
2180.4926,0.014290
2182.3563,0.014963
2184.2200,0.015248
2186.0836,0.014994
2187.9473,0.015824
2189.8110,0.015980
2191.6746,0.015884
2193.5383,0.016318
2195.4020,0.015893
2197.2657,0.015691
2199.1293,0.016322
2200.9930,0.016646
2202.8567,0.016558
2204.7203,0.016746
2206.5840,0.017897
2208.4477,0.018343
2210.3113,0.017979
2212.1750,0.018097
2214.0387,0.018491
2215.9023,0.019053
2217.7660,0.019141
2219.6297,0.019467
2221.4934,0.019361
2223.3570,0.019424
2225.2207,0.020541
2227.0844,0.021221
2228.9480,0.020990
2230.8117,0.020501
2232.6754,0.020046
2234.5390,0.020075
2236.4027,0.021033
2238.2664,0.022361
2240.1300,0.022720
2241.9937,0.022210
2243.8574,0.022023
2245.7210,0.022023
2247.5847,0.022042
2249.4484,0.022178
2251.3121,0.022692
2253.1757,0.022564
2255.0394,0.022607
2256.9031,0.023598
2258.7667,0.024049
2260.6304,0.023682
2262.4941,0.023557
2264.3577,0.023398
2266.2214,0.024039
2268.0851,0.025033
2269.9487,0.024704
2271.8124,0.024518
2273.6761,0.025430
2275.5397,0.026375
2277.4034,0.026391
2279.2671,0.026451
2281.1308,0.027048
2282.9944,0.027770
2284.8581,0.028244
2286.7218,0.028349
2288.5854,0.028348
2290.4491,0.028249
2292.3128,0.027779
2294.1764,0.027434
2296.0401,0.027723
2297.9038,0.027823
2299.7674,0.027840
2301.6311,0.028110
2303.4948,0.028246
2305.3585,0.028446
2307.2221,0.028606
2309.0858,0.028665
2310.9495,0.028602
2312.8131,0.028548
2314.6768,0.028568
2316.5405,0.028710
2318.4041,0.028768
2320.2678,0.029148
2322.1315,0.029569
2323.9951,0.029438
2325.8588,0.028946
2327.7225,0.028358
2329.5861,0.028180
2331.4498,0.028315
2333.3135,0.028063
2335.1772,0.028100
2337.0408,0.028723
2338.9045,0.028973
2340.7682,0.028743
2342.6318,0.028958
2344.4955,0.029273
2346.3592,0.029063
2348.2228,0.028517
2350.0865,0.028123
2351.9502,0.027895
2353.8138,0.027870
2355.6775,0.027984
2357.5412,0.028130
2359.4049,0.028353
2361.2685,0.028486
2363.1322,0.028416
2364.9959,0.028325
2366.8595,0.028160
2368.7232,0.028245
2370.5869,0.028648
2372.4505,0.029028
2374.3142,0.029387
2376.1779,0.029614
2378.0415,0.029504
2379.9052,0.029355
2381.7689,0.029189
2383.6325,0.029125
2385.4962,0.029076
2387.3599,0.028939
2389.2236,0.028727
2391.0872,0.028785
2392.9509,0.028954
2394.8146,0.028901
2396.6782,0.028984
2398.5419,0.029295
2400.4056,0.029411
2402.2692,0.029324
2404.1329,0.029462
2405.9966,0.029709
2407.8602,0.029997
2409.7239,0.030106
2411.5876,0.029781
2413.4512,0.029770
2415.3149,0.030008
2417.1786,0.030115
2419.0423,0.030278
2420.9059,0.030353
2422.7696,0.030456
2424.6333,0.030520
2426.4969,0.030232
2428.3606,0.030294
2430.2243,0.030460
2432.0879,0.030540
2433.9516,0.030925
2435.8153,0.030824
2437.6789,0.030494
2439.5426,0.030600
2441.4063,0.030804
2443.2700,0.030841
2445.1336,0.030803
2446.9973,0.030810
2448.8610,0.030683
2450.7246,0.030889
2452.5883,0.031320
2454.4520,0.031439
2456.3156,0.031300
2458.1793,0.031285
2460.0430,0.031307
2461.9066,0.031089
2463.7703,0.030844
2465.6340,0.031012
2467.4976,0.031343
2469.3613,0.031545
2471.2250,0.031619
2473.0887,0.031519
2474.9523,0.031305
2476.8160,0.031353
2478.6797,0.031510
2480.5433,0.031558
2482.4070,0.031658
2484.2707,0.031702
2486.1343,0.031550
2487.9980,0.031603
2489.8617,0.031866
2491.7253,0.031917
2493.5890,0.032003
2495.4527,0.032427
2497.3164,0.032761
2499.1800,0.032624
2501.0437,0.032268
2502.9074,0.032552
2504.7710,0.032957
2506.6347,0.033124
2508.4984,0.033400
2510.3620,0.033542
2512.2257,0.033200
2514.0894,0.032910
2515.9530,0.032756
2517.8167,0.032900
2519.6804,0.033300
2521.5440,0.033456
2523.4077,0.033488
2525.2714,0.033703
2527.1351,0.034127
2528.9987,0.034230
2530.8624,0.033803
2532.7261,0.033761
2534.5897,0.034102
2536.4534,0.034037
2538.3171,0.033567
2540.1807,0.033759
2542.0444,0.034096
2543.9081,0.033970
2545.7717,0.033753
2547.6354,0.034124
2549.4991,0.034476
2551.3627,0.034379
2553.2264,0.034213
2555.0901,0.034289
2556.9538,0.034631
2558.8174,0.034902
2560.6811,0.034996
2562.5448,0.034996
2564.4084,0.034922
2566.2721,0.035211
2568.1358,0.035402
2569.9994,0.035628
2571.8631,0.035787
2573.7268,0.035528
2575.5904,0.035422
2577.4541,0.035863
2579.3178,0.035983
2581.1815,0.035863
2583.0451,0.036155
2584.9088,0.036839
2586.7725,0.037221
2588.6361,0.037201
2590.4998,0.037049
2592.3635,0.036992
2594.2271,0.037086
2596.0908,0.037564
2597.9545,0.037762
2599.8181,0.037732
2601.6818,0.037881
2603.5455,0.038166
2605.4091,0.038103
2607.2728,0.038261
2609.1365,0.038559
2611.0002,0.038726
2612.8638,0.038911
2614.7275,0.039105
2616.5912,0.039381
2618.4548,0.039689
2620.3185,0.039704
2622.1822,0.039620
2624.0458,0.039866
2625.9095,0.040162
2627.7732,0.040315
2629.6368,0.040834
2631.5005,0.041288
2633.3642,0.041638
2635.2279,0.041831
2637.0915,0.041957
2638.9552,0.042299
2640.8189,0.042486
2642.6825,0.042401
2644.5462,0.042494
2646.4099,0.042690
2648.2735,0.042859
2650.1372,0.043139
2652.0009,0.043395
2653.8645,0.043426
2655.7282,0.043498
2657.5919,0.043702
2659.4555,0.043816
2661.3192,0.043953
2663.1829,0.043995
2665.0466,0.043827
2666.9102,0.044028
2668.7739,0.044334
2670.6376,0.044408
2672.5012,0.044346
2674.3649,0.044542
2676.2286,0.044709
2678.0922,0.044714
2679.9559,0.045094
2681.8196,0.045535
2683.6832,0.045662
2685.5469,0.045698
2687.4106,0.045816
2689.2742,0.045972
2691.1379,0.046132
2693.0016,0.046494
2694.8653,0.046861
2696.7289,0.047133
2698.5926,0.047331
2700.4563,0.047590
2702.3199,0.047808
2704.1836,0.047935
2706.0473,0.048080
2707.9109,0.048274
2709.7746,0.048646
2711.6383,0.049262
2713.5019,0.049567
2715.3656,0.049715
2717.2293,0.049864
2719.0930,0.050010
2720.9566,0.050353
2722.8203,0.050810
2724.6840,0.051031
2726.5476,0.051488
2728.4113,0.051999
2730.2750,0.052286
2732.1386,0.052492
2734.0023,0.052907
2735.8660,0.053388
2737.7296,0.053876
2739.5933,0.054363
2741.4570,0.054667
2743.3206,0.054696
2745.1843,0.054936
2747.0480,0.055411
2748.9117,0.055901
2750.7753,0.056526
2752.6390,0.056917
2754.5027,0.057224
2756.3663,0.057850
2758.2300,0.058216
2760.0937,0.058521
2761.9573,0.058880
2763.8210,0.059293
2765.6847,0.059740
2767.5483,0.060421
2769.4120,0.060869
2771.2757,0.061302
2773.1394,0.061866
2775.0030,0.062492
2776.8667,0.063179
2778.7304,0.063586
2780.5940,0.063597
2782.4577,0.063762
2784.3214,0.064071
2786.1850,0.064231
2788.0487,0.063938
2789.9124,0.063930
2791.7760,0.064120
2793.6397,0.063742
2795.5034,0.063062
2797.3670,0.062912
2799.2307,0.062963
2801.0944,0.062909
2802.9581,0.062421
2804.8217,0.061957
2806.6854,0.061670
2808.5491,0.061575
2810.4127,0.061854
2812.2764,0.062114
2814.1401,0.061968
2816.0037,0.061860
2817.8674,0.061972
2819.7311,0.062254
2821.5947,0.062220
2823.4584,0.062353
2825.3221,0.062711
2827.1857,0.062858
2829.0494,0.062695
2830.9131,0.062701
2832.7768,0.062789
2834.6404,0.062797
2836.5041,0.063082
2838.3678,0.063777
2840.2314,0.064215
2842.0951,0.064371
2843.9588,0.064746
2845.8224,0.065379
2847.6861,0.066059
2849.5498,0.066896
2851.4134,0.067498
2853.2771,0.068008
2855.1408,0.068494
2857.0045,0.069163
2858.8681,0.069849
2860.7318,0.070499
2862.5955,0.071194
2864.4591,0.072023
2866.3228,0.072614
2868.1865,0.073125
2870.0501,0.073338
2871.9138,0.073521
2873.7775,0.074314
2875.6411,0.075347
2877.5048,0.075772
2879.3685,0.076340
2881.2321,0.076881
2883.0958,0.077042
2884.9595,0.077375
2886.8232,0.077976
2888.6868,0.078309
2890.5505,0.078608
2892.4142,0.078953
2894.2778,0.079515
2896.1415,0.079850
2898.0052,0.080054
2899.8688,0.079911
2901.7325,0.079639
2903.5962,0.080055
2905.4598,0.080469
2907.3235,0.080521
2909.1872,0.080970
2911.0509,0.081391
2912.9145,0.081770
2914.7782,0.082401
2916.6419,0.083637
2918.5055,0.084286
2920.3692,0.084305
2922.2329,0.084429
2924.0965,0.084789
2925.9602,0.085113
2927.8239,0.085485
2929.6875,0.085569
2931.5512,0.085723
2933.4149,0.086068
2935.2785,0.086078
2937.1422,0.085669
2939.0059,0.085445
2940.8696,0.085168
2942.7332,0.084835
2944.5969,0.084514
2946.4606,0.084144
2948.3242,0.083423
2950.1879,0.083188
2952.0516,0.083366
2953.9152,0.083077
2955.7789,0.082763
2957.6426,0.082971
2959.5062,0.083209
2961.3699,0.083409
2963.2336,0.083402
2965.0972,0.083529
2966.9609,0.084014
2968.8246,0.084671
2970.6883,0.085080
2972.5519,0.085601
2974.4156,0.085759
2976.2793,0.085784
2978.1429,0.086189
2980.0066,0.086541
2981.8703,0.086567
2983.7339,0.086772
2985.5976,0.087012
2987.4613,0.087490
2989.3249,0.087694
2991.1886,0.088306
2993.0523,0.088853
2994.9160,0.089240
2996.7796,0.090042
2998.6433,0.090721
3000.5070,0.091024
3002.3706,0.091571
3004.2343,0.092134
3006.0980,0.092919
3007.9616,0.093651
3009.8253,0.094425
3011.6890,0.094908
3013.5526,0.095301
3015.4163,0.095658
3017.2800,0.096421
3019.1436,0.097019
3021.0073,0.097759
3022.8710,0.097799
3024.7347,0.097720
3026.5983,0.098128
3028.4620,0.098660
3030.3257,0.099098
3032.1893,0.099834
3034.0530,0.100167
3035.9167,0.100509
3037.7803,0.101064
3039.6440,0.101528
3041.5077,0.101868
3043.3713,0.102178
3045.2350,0.102215
3047.0987,0.102902
3048.9624,0.103712
3050.8260,0.103981
3052.6897,0.104042
3054.5534,0.104501
3056.4170,0.104632
3058.2807,0.105033
3060.1444,0.105282
3062.0080,0.105307
3063.8717,0.105745
3065.7354,0.106659
3067.5990,0.106736
3069.4627,0.106542
3071.3264,0.106423
3073.1900,0.106557
3075.0537,0.107031
3076.9174,0.107351
3078.7811,0.107118
3080.6447,0.107106
3082.5084,0.106706
3084.3721,0.106820
3086.2357,0.106772
3088.0994,0.106305
3089.9631,0.106296
3091.8267,0.106575
3093.6904,0.106253
3095.5541,0.106405
3097.4177,0.106169
3099.2814,0.105285
3101.1451,0.104783
3103.0087,0.104688
3104.8724,0.104429
3106.7361,0.104242
3108.5998,0.103380
3110.4634,0.102862
3112.3271,0.102952
3114.1908,0.102507
3116.0544,0.102295
3117.9181,0.102157
3119.7818,0.101371
3121.6454,0.101241
3123.5091,0.101396
3125.3728,0.101334
3127.2364,0.100857
3129.1001,0.100627
3130.9638,0.099928
3132.8275,0.099256
3134.6911,0.098922
3136.5548,0.099071
3138.4185,0.098788
3140.2821,0.098872
3142.1458,0.098900
3144.0095,0.098947
3145.8731,0.098916
3147.7368,0.098512
3149.6005,0.098323
3151.4641,0.098519
3153.3278,0.098299
3155.1915,0.098513
3157.0551,0.098352
3158.9188,0.097909
3160.7825,0.097709
3162.6462,0.097746
3164.5098,0.097264
3166.3735,0.097363
3168.2372,0.097492
3170.1008,0.097570
3171.9645,0.097100
3173.8282,0.096192
3175.6918,0.096219
3177.5555,0.097021
3179.4192,0.096650
3181.2828,0.096502
3183.1465,0.096538
3185.0102,0.096676
3186.8739,0.096680
3188.7375,0.096896
3190.6012,0.096274
3192.4649,0.096234
3194.3285,0.096871
3196.1922,0.097214
3198.0559,0.096965
3199.9195,0.097539
3201.7832,0.097561
3203.6469,0.097302
3205.5105,0.097847
3207.3742,0.098584
3209.2379,0.098388
3211.1015,0.098651
3212.9652,0.098656
3214.8289,0.099483
3216.6926,0.099859
3218.5562,0.099498
3220.4199,0.098917
3222.2836,0.099165
3224.1472,0.098965
3226.0109,0.099074
3227.8746,0.100016
3229.7382,0.100614
3231.6019,0.100261
3233.4656,0.100401
3235.3292,0.101239
3237.1929,0.102502
3239.0566,0.101856
3240.9202,0.101079
3242.7839,0.100920
3244.6476,0.101527
3246.5113,0.102221
3248.3749,0.102476
3250.2386,0.102202
3252.1023,0.103276
3253.9659,0.104152
3255.8296,0.104526
3257.6933,0.104684
3259.5569,0.104897
3261.4206,0.105068
3263.2843,0.105680
3265.1479,0.105345
3267.0116,0.105186
3268.8753,0.105102
3270.7390,0.105285
3272.6026,0.105425
3274.4663,0.105748
3276.3300,0.105242
3278.1936,0.105155
3280.0573,0.105208
3281.9210,0.104492
3283.7846,0.103827
3285.6483,0.103337
3287.5120,0.102483
3289.3756,0.103167
3291.2393,0.102805
3293.1030,0.101783
3294.9666,0.100705
3296.8303,0.100179
3298.6940,0.099808
3300.5577,0.099527
3302.4213,0.098696
3304.2850,0.097563
3306.1487,0.097016
3308.0123,0.097262
3309.8760,0.096964
3311.7397,0.096817
3313.6033,0.095872
3315.4670,0.094875
3317.3307,0.094748
3319.1943,0.095666
3321.0580,0.095818
3322.9217,0.096263
3324.7854,0.096379
3326.6490,0.096682
3328.5127,0.096386
3330.3764,0.096217
3332.2400,0.095370
3334.1037,0.094886
3335.9674,0.094311
3337.8310,0.094044
3339.6947,0.094340
3341.5584,0.093329
3343.4220,0.091670
3345.2857,0.090741
3347.1494,0.089838
3349.0130,0.088978
3350.8767,0.087973
3352.7404,0.087034
3354.6041,0.085255
3356.4677,0.084422
3358.3314,0.084351
3360.1951,0.083829
3362.0587,0.082694
3363.9224,0.081908
3365.7861,0.080798
3367.6497,0.080497
3369.5134,0.080402
3371.3771,0.079753
3373.2407,0.078591
3375.1044,0.078314
3376.9681,0.079761
3378.8317,0.080431
3380.6954,0.078709
3382.5591,0.078163
3384.4228,0.078123
3386.2864,0.078370
3388.1501,0.078895
3390.0138,0.078974
3391.8774,0.077956
3393.7411,0.076937
3395.6048,0.076650
3397.4684,0.078022
3399.3321,0.078035
3401.1958,0.076887
3403.0594,0.076015
3404.9231,0.075792
3406.7868,0.074990
3408.6505,0.072890
3410.5141,0.071564
3412.3778,0.070865
3414.2415,0.069001
3416.1051,0.067386
3417.9688,0.065764
3419.8325,0.065347
3421.6961,0.064870
3423.5598,0.063496
3425.4235,0.061915
3427.2871,0.060601
3429.1508,0.059718
3431.0145,0.059184
3432.8781,0.057623
3434.7418,0.055874
3436.6055,0.054980
3438.4692,0.054922
3440.3328,0.054379
3442.1965,0.054332
3444.0602,0.054351
3445.9238,0.053744
3447.7875,0.052205
3449.6512,0.050213
3451.5148,0.048911
3453.3785,0.049213
3455.2422,0.049266
3457.1058,0.048530
3458.9695,0.046991
3460.8332,0.045617
3462.6969,0.045892
3464.5605,0.046147
3466.4242,0.045564
3468.2879,0.044227
3470.1515,0.043450
3472.0152,0.043551
3473.8789,0.042975
3475.7425,0.043012
3477.6062,0.041946
3479.4699,0.040200
3481.3335,0.041171
3483.1972,0.041092
3485.0609,0.039296
3486.9245,0.038812
3488.7882,0.037781
3490.6519,0.037358
3492.5156,0.037422
3494.3792,0.036638
3496.2429,0.035376
3498.1066,0.034969
3499.9702,0.034868
3501.8339,0.034070
3503.6976,0.032442
3505.5612,0.031921
3507.4249,0.030985
3509.2886,0.030260
3511.1522,0.031675
3513.0159,0.032823
3514.8796,0.031331
3516.7432,0.029299
3518.6069,0.029629
3520.4706,0.029139
3522.3343,0.027651
3524.1979,0.027564
3526.0616,0.027449
3527.9253,0.026569
3529.7889,0.025372
3531.6526,0.024173
3533.5163,0.024248
3535.3799,0.025301
3537.2436,0.025155
3539.1073,0.024283
3540.9709,0.023559
3542.8346,0.023053
3544.6983,0.022349
3546.5620,0.021605
3548.4256,0.021038
3550.2893,0.020588
3552.1530,0.020760
3554.0166,0.020797
3555.8803,0.020480
3557.7440,0.021128
3559.6076,0.020275
3561.4713,0.018272
3563.3350,0.016330
3565.1986,0.015588
3567.0623,0.015132
3568.9260,0.015181
3570.7896,0.015131
3572.6533,0.016219
3574.5170,0.016475
3576.3807,0.016923
3578.2443,0.016942
3580.1080,0.016501
3581.9717,0.016784
3583.8353,0.016264
3585.6990,0.015731
3587.5627,0.015387
3589.4263,0.012618
3591.2900,0.011745
3593.1537,0.013572
3595.0173,0.014008
3596.8810,0.013130
3598.7447,0.012861
3600.6084,0.013157
3602.4720,0.014130
3604.3357,0.013677
3606.1994,0.013494
3608.0630,0.013107
3609.9267,0.011911
3611.7904,0.011474
3613.6540,0.011862
3615.5177,0.011899
3617.3814,0.012153
3619.2450,0.011857
3621.1087,0.011402
3622.9724,0.010902
3624.8360,0.011307
3626.6997,0.011862
3628.5634,0.011524
3630.4271,0.010338
3632.2907,0.009515
3634.1544,0.010477
3636.0181,0.011548
3637.8817,0.011826
3639.7454,0.011801
3641.6091,0.011559
3643.4727,0.011785
3645.3364,0.011765
3647.2001,0.012796
3649.0637,0.012295
3650.9274,0.008648
3652.7911,0.008003
3654.6547,0.009993
3656.5184,0.011449
3658.3821,0.011419
3660.2458,0.011519
3662.1094,0.012122
3663.9731,0.011931
3665.8368,0.011766
3667.7004,0.011323
3669.5641,0.010878
3671.4278,0.009778
3673.2914,0.008297
3675.1551,0.009645
3677.0188,0.010405
3678.8824,0.009818
3680.7461,0.010668
3682.6098,0.011049
3684.4735,0.011628
3686.3371,0.012325
3688.2008,0.011271
3690.0645,0.010069
3691.9281,0.010331
3693.7918,0.011164
3695.6555,0.011816
3697.5191,0.012432
3699.3828,0.012530
3701.2465,0.011793
3703.1101,0.011383
3704.9738,0.010742
3706.8375,0.011444
3708.7011,0.011849
3710.5648,0.011554
3712.4285,0.011678
3714.2922,0.011512
3716.1558,0.011451
3718.0195,0.011861
3719.8832,0.012241
3721.7468,0.011629
3723.6105,0.011457
3725.4742,0.011587
3727.3378,0.011273
3729.2015,0.010914
3731.0652,0.011313
3732.9288,0.011561
3734.7925,0.010951
3736.6562,0.010642
3738.5199,0.009623
3740.3835,0.009983
3742.2472,0.010792
3744.1109,0.011069
3745.9745,0.009837
3747.8382,0.009682
3749.7019,0.010893
3751.5655,0.011755
3753.4292,0.011828
3755.2929,0.012061
3757.1565,0.012443
3759.0202,0.012816
3760.8839,0.013175
3762.7475,0.013307
3764.6112,0.012503
3766.4749,0.012889
3768.3386,0.013319
3770.2022,0.013715
3772.0659,0.014458
3773.9296,0.013856
3775.7932,0.013071
3777.6569,0.013635
3779.5206,0.014545
3781.3842,0.014616
3783.2479,0.014250
3785.1116,0.014399
3786.9752,0.014302
3788.8389,0.014141
3790.7026,0.013974
3792.5662,0.013869
3794.4299,0.013411
3796.2936,0.013463
3798.1573,0.013609
3800.0209,0.013231
3801.8846,0.013515
3803.7483,0.013961
3805.6119,0.013387
3807.4756,0.013022
3809.3393,0.013425
3811.2029,0.013240
3813.0666,0.013233
3814.9303,0.013762
3816.7939,0.013497
3818.6576,0.012493
3820.5213,0.012646
3822.3850,0.014142
3824.2486,0.014517
3826.1123,0.014530
3827.9760,0.014404
3829.8396,0.013734
3831.7033,0.013281
3833.5670,0.013566
3835.4306,0.013325
3837.2943,0.013246
3839.1580,0.013462
3841.0216,0.013792
3842.8853,0.013426
3844.7490,0.014128
3846.6126,0.013991
3848.4763,0.013608
3850.3400,0.013985
3852.2037,0.014536
3854.0673,0.015151
3855.9310,0.014241
3857.7947,0.013450
3859.6583,0.014347
3861.5220,0.014752
3863.3857,0.015019
3865.2493,0.014856
3867.1130,0.014042
3868.9767,0.014160
3870.8403,0.015215
3872.7040,0.015275
3874.5677,0.015049
3876.4314,0.014574
3878.2950,0.014727
3880.1587,0.014670
3882.0224,0.014838
3883.8860,0.015004
3885.7497,0.014738
3887.6134,0.014556
3889.4770,0.015346
3891.3407,0.015791
3893.2044,0.014999
3895.0680,0.014065
3896.9317,0.014961
3898.7954,0.015382
3900.6590,0.015565
3902.5227,0.016380
3904.3864,0.016305
3906.2501,0.015888
3908.1137,0.015498
3909.9774,0.015686
3911.8411,0.016489
3913.7047,0.016619
3915.5684,0.016493
3917.4321,0.016700
3919.2957,0.016332
3921.1594,0.015776
3923.0231,0.016078
3924.8867,0.016349
3926.7504,0.016176
3928.6141,0.015427
3930.4777,0.015625
3932.3414,0.016384
3934.2051,0.016333
3936.0688,0.016688
3937.9324,0.016637
3939.7961,0.016085
3941.6598,0.015722
3943.5234,0.016056
3945.3871,0.016679
3947.2508,0.016795
3949.1144,0.016199
3950.9781,0.015802
3952.8418,0.016068
3954.7054,0.015780
3956.5691,0.016094
3958.4328,0.016611
3960.2965,0.016959
3962.1601,0.017276
3964.0238,0.017303
3965.8875,0.017324
3967.7511,0.016960
3969.6148,0.016886
3971.4785,0.017347
3973.3421,0.017531
3975.2058,0.017451
3977.0695,0.016510
3978.9331,0.016316
3980.7968,0.016367
3982.6605,0.017206
3984.5241,0.017888
3986.3878,0.017581
3988.2515,0.016840
3990.1152,0.016962
3991.9788,0.017295
3993.8425,0.017313
3995.7062,0.017618
3997.5698,0.017718
3999.4335,0.017139
