Wavenumber,Intensity
650.4205,0.256466
652.2841,0.275200
654.1478,0.296146
656.0115,0.318596
657.8751,0.346372
659.7388,0.378205
661.6025,0.412293
663.4661,0.440328
665.3298,0.462710
667.1935,0.475307
669.0571,0.460855
670.9208,0.418314
672.7845,0.376700
674.6481,0.339644
676.5118,0.313760
678.3755,0.294510
680.2392,0.280626
682.1028,0.265756
683.9665,0.247515
685.8302,0.227954
687.6938,0.210832
689.5575,0.194613
691.4212,0.180434
693.2848,0.167906
695.1485,0.156340
697.0122,0.147876
698.8758,0.143188
700.7395,0.139761
702.6032,0.138139
704.4669,0.136248
706.3305,0.133406
708.1942,0.129935
710.0579,0.126498
711.9215,0.122851
713.7852,0.119567
715.6489,0.117046
717.5125,0.114209
719.3762,0.110920
721.2399,0.107561
723.1035,0.105387
724.9672,0.104174
726.8309,0.102792
728.6945,0.101451
730.5582,0.100071
732.4219,0.099516
734.2856,0.099286
736.1492,0.098534
738.0129,0.098355
739.8766,0.099833
741.7402,0.102422
743.6039,0.105199
745.4676,0.107545
747.3312,0.108930
749.1949,0.109756
751.0586,0.110558
752.9222,0.110975
754.7859,0.111656
756.6496,0.113104
758.5132,0.114537
760.3769,0.115340
762.2406,0.116436
764.1043,0.117951
765.9679,0.119377
767.8316,0.120452
769.6953,0.121671
771.5589,0.123073
773.4226,0.125245
775.2863,0.127700
777.1499,0.130652
779.0136,0.133974
780.8773,0.136283
782.7409,0.136866
784.6046,0.137470
786.4683,0.139132
788.3320,0.140979
790.1956,0.142342
792.0593,0.144551
793.9230,0.147069
795.7866,0.149840
797.6503,0.152677
799.5140,0.155524
801.3776,0.158152
803.2413,0.160152
805.1050,0.161957
806.9686,0.163816
808.8323,0.165052
810.6960,0.166263
812.5596,0.167638
814.4233,0.168550
816.2870,0.168698
818.1507,0.169599
820.0143,0.171493
821.8780,0.173567
823.7417,0.176083
825.6053,0.179579
827.4690,0.183930
829.3327,0.188125
831.1963,0.188543
833.0600,0.184782
834.9237,0.181266
836.7873,0.180880
838.6510,0.182836
840.5147,0.185829
842.3784,0.189006
844.2420,0.192349
846.1057,0.195722
847.9694,0.199301
849.8330,0.202545
851.6967,0.206094
853.5604,0.209922
855.4240,0.213526
857.2877,0.216770
859.1514,0.220290
861.0150,0.223854
862.8787,0.227281
864.7424,0.230547
866.6060,0.234176
868.4697,0.237977
870.3334,0.241865
872.1971,0.245912
874.0607,0.250499
875.9244,0.255433
877.7881,0.260244
879.6517,0.264718
881.5154,0.269183
883.3791,0.273575
885.2427,0.277901
887.1064,0.281811
888.9701,0.285347
890.8337,0.288257
892.6974,0.291136
894.5611,0.294335
896.4247,0.298187
898.2884,0.302628
900.1521,0.307453
902.0158,0.312528
903.8794,0.318482
905.7431,0.325560
907.6068,0.333472
909.4704,0.341467
911.3341,0.349650
913.1978,0.358049
915.0614,0.364060
916.9251,0.362302
918.7888,0.355246
920.6524,0.350722
922.5161,0.351298
924.3798,0.354429
926.2435,0.358312
928.1071,0.362486
929.9708,0.366983
931.8345,0.371650
933.6981,0.376352
935.5618,0.380639
937.4255,0.384692
939.2891,0.388635
941.1528,0.392852
943.0165,0.397049
944.8801,0.401025
946.7438,0.404978
948.6075,0.409245
950.4711,0.413466
952.3348,0.417924
954.1985,0.422804
956.0622,0.428024
957.9258,0.433064
959.7895,0.438026
961.6532,0.442832
963.5168,0.447918
965.3805,0.453458
967.2442,0.459799
969.1078,0.466552
970.9715,0.473430
972.8352,0.480448
974.6988,0.488705
976.5625,0.499436
978.4262,0.513989
980.2899,0.529924
982.1535,0.533075
984.0172,0.514299
985.8809,0.494599
987.7445,0.489779
989.6082,0.493472
991.4719,0.497664
993.3355,0.500922
995.1992,0.503358
997.0629,0.505303
998.9265,0.506822
1000.7902,0.507945
1002.6539,0.508015
1004.5175,0.506936
1006.3812,0.504222
1008.2449,0.499024
1010.1086,0.490119
1011.9722,0.477292
1013.8359,0.461014
1015.6996,0.441772
1017.5632,0.420257
1019.4269,0.397642
1021.2906,0.374591
1023.1542,0.351979
1025.0179,0.330750
1026.8816,0.311516
1028.7452,0.294186
1030.6089,0.278154
1032.4726,0.262931
1034.3362,0.248549
1036.1999,0.235161
1038.0636,0.222807
1039.9273,0.211315
1041.7909,0.200625
1043.6546,0.190802
1045.5183,0.181937
1047.3819,0.173919
1049.2456,0.166552
1051.1093,0.159703
1052.9729,0.154011
1054.8366,0.150322
1056.7003,0.148525
1058.5639,0.147738
1060.4276,0.147104
1062.2913,0.146180
1064.1550,0.145102
1066.0186,0.144158
1067.8823,0.143321
1069.7460,0.142672
1071.6096,0.142142
1073.4733,0.141519
1075.3370,0.140712
1077.2006,0.139531
1079.0643,0.138188
1080.9280,0.136893
1082.7916,0.135717
1084.6553,0.134762
1086.5190,0.133915
1088.3826,0.133274
1090.2463,0.133060
1092.1100,0.133216
1093.9737,0.133596
1095.8373,0.133965
1097.7010,0.134317
1099.5647,0.134855
1101.4283,0.135455
1103.2920,0.135713
1105.1557,0.135245
1107.0193,0.133538
1108.8830,0.130020
1110.7467,0.124653
1112.6103,0.118372
1114.4740,0.112179
1116.3377,0.106545
1118.2014,0.101732
1120.0650,0.097844
1121.9287,0.094864
1123.7924,0.092394
1125.6560,0.089991
1127.5197,0.087581
1129.3834,0.085110
1131.2470,0.082584
1133.1107,0.080177
1134.9744,0.077984
1136.8380,0.075862
1138.7017,0.073861
1140.5654,0.072086
1142.4290,0.070309
1144.2927,0.068462
1146.1564,0.066682
1148.0201,0.065021
1149.8837,0.063561
1151.7474,0.062279
1153.6111,0.061060
1155.4747,0.059922
1157.3384,0.058964
1159.2021,0.058280
1161.0657,0.057735
1162.9294,0.057274
1164.7931,0.057114
1166.6567,0.057277
1168.5204,0.057678
1170.3841,0.058254
1172.2477,0.058501
1174.1114,0.057719
1175.9751,0.055882
1177.8388,0.053684
1179.7024,0.051917
1181.5661,0.050917
1183.4298,0.050521
1185.2934,0.050418
1187.1571,0.050417
1189.0208,0.050467
1190.8844,0.050449
1192.7481,0.050462
1194.6118,0.050599
1196.4754,0.050718
1198.3391,0.050934
1200.2028,0.051342
1202.0665,0.051789
1203.9301,0.052219
1205.7938,0.052555
1207.6575,0.052809
1209.5211,0.053147
1211.3848,0.053503
1213.2485,0.053770
1215.1121,0.054050
1216.9758,0.054244
1218.8395,0.054336
1220.7031,0.054462
1222.5668,0.054527
1224.4305,0.054569
1226.2941,0.054600
1228.1578,0.054622
1230.0215,0.054699
1231.8852,0.054712
1233.7488,0.054709
1235.6125,0.054776
1237.4762,0.054792
1239.3398,0.054840
1241.2035,0.054936
1243.0672,0.055034
1244.9308,0.055106
1246.7945,0.055155
1248.6582,0.055282
1250.5218,0.055464
1252.3855,0.055666
1254.2492,0.055851
1256.1129,0.055971
1257.9765,0.056185
1259.8402,0.056563
1261.7039,0.056913
1263.5675,0.057218
1265.4312,0.057542
1267.2949,0.057734
1269.1585,0.057776
1271.0222,0.057818
1272.8859,0.057920
1274.7495,0.058171
1276.6132,0.058597
1278.4769,0.059111
1280.3405,0.059756
1282.2042,0.060459
1284.0679,0.061297
1285.9316,0.062326
1287.7952,0.063486
1289.6589,0.064904
1291.5226,0.066480
1293.3862,0.068250
1295.2499,0.070370
1297.1136,0.072903
1298.9772,0.075883
1300.8409,0.079322
1302.7046,0.082932
1304.5682,0.085467
1306.4319,0.084957
1308.2956,0.080093
1310.1592,0.071671
1312.0229,0.063193
1313.8866,0.057743
1315.7503,0.055769
1317.6139,0.056061
1319.4776,0.057321
1321.3413,0.058629
1323.2049,0.059892
1325.0686,0.061286
1326.9323,0.062720
1328.7959,0.064085
1330.6596,0.065359
1332.5233,0.066433
1334.3869,0.067234
1336.2506,0.067891
1338.1143,0.068887
1339.9780,0.070318
1341.8416,0.071046
1343.7053,0.071324
1345.5690,0.072000
1347.4326,0.072822
1349.2963,0.073752
1351.1600,0.074671
1353.0236,0.075547
1354.8873,0.076494
1356.7510,0.077261
1358.6146,0.077812
1360.4783,0.078831
1362.3420,0.080793
1364.2056,0.082264
1366.0693,0.082624
1367.9330,0.083693
1369.7967,0.085041
1371.6603,0.085956
1373.5240,0.087775
1375.3877,0.089952
1377.2513,0.091120
1379.1150,0.092855
1380.9787,0.095152
1382.8423,0.097363
1384.7060,0.099909
1386.5697,0.103685
1388.4333,0.107934
1390.2970,0.109953
1392.1607,0.111023
1394.0244,0.111681
1395.8880,0.109871
1397.7517,0.106117
1399.6154,0.101836
1401.4790,0.097513
1403.3427,0.093816
1405.2064,0.089062
1407.0700,0.081946
1408.9337,0.074075
1410.7974,0.066496
1412.6610,0.060791
1414.5247,0.057846
1416.3884,0.057373
1418.2520,0.059608
1420.1157,0.063411
1421.9794,0.064794
1423.8431,0.064317
1425.7067,0.061251
1427.5704,0.057138
1429.4341,0.054443
1431.2977,0.053135
1433.1614,0.052599
1435.0251,0.053169
1436.8887,0.055313
1438.7524,0.056305
1440.6161,0.056213
1442.4797,0.056651
1444.3434,0.057015
1446.2071,0.057415
1448.0707,0.057769
1449.9344,0.056954
1451.7981,0.055285
1453.6618,0.053691
1455.5254,0.053490
1457.3891,0.055897
1459.2528,0.056347
1461.1164,0.055172
1462.9801,0.054957
1464.8438,0.055376
1466.7074,0.054813
1468.5711,0.053416
1470.4348,0.052642
1472.2984,0.053038
1474.1621,0.053333
1476.0258,0.052801
1477.8895,0.052413
1479.7531,0.052042
1481.6168,0.052028
1483.4805,0.051776
1485.3441,0.051400
1487.2078,0.051591
1489.0715,0.052587
1490.9351,0.053147
1492.7988,0.052274
1494.6625,0.051875
1496.5261,0.052974
1498.3898,0.054075
1500.2535,0.053956
1502.1171,0.053273
1503.9808,0.052841
1505.8445,0.054194
1507.7082,0.057912
1509.5718,0.057186
1511.4355,0.056411
1513.2992,0.056382
1515.1628,0.056692
1517.0265,0.057600
1518.8902,0.057853
1520.7538,0.058532
1522.6175,0.060004
1524.4812,0.059590
1526.3448,0.059999
1528.2085,0.060382
1530.0722,0.060134
1531.9359,0.060641
1533.7995,0.062074
1535.6632,0.061730
1537.5269,0.061194
1539.3905,0.063251
1541.2542,0.066603
1543.1179,0.066686
1544.9815,0.067087
1546.8452,0.067303
1548.7089,0.068030
1550.5725,0.069535
1552.4362,0.070154
1554.2999,0.070687
1556.1635,0.071575
1558.0272,0.074326
1559.8909,0.081173
1561.7546,0.079084
1563.6182,0.078104
1565.4819,0.079081
1567.3456,0.080363
1569.2092,0.082646
1571.0729,0.084596
1572.9366,0.084526
1574.8002,0.086297
1576.6639,0.090116
1578.5276,0.091432
1580.3912,0.091633
1582.2549,0.093107
1584.1186,0.094546
1585.9822,0.095756
1587.8459,0.096533
1589.7096,0.097065
1591.5733,0.097171
1593.4369,0.097142
1595.3006,0.096967
1597.1643,0.096561
1599.0279,0.095839
1600.8916,0.095149
1602.7553,0.094381
1604.6189,0.093517
1606.4826,0.092722
1608.3463,0.092023
1610.2099,0.090917
1612.0736,0.089323
1613.9373,0.087532
1615.8010,0.086230
1617.6646,0.083844
1619.5283,0.080326
1621.3920,0.077853
1623.2556,0.075367
1625.1193,0.072178
1626.9830,0.069260
1628.8466,0.065531
1630.7103,0.061143
1632.5740,0.057635
1634.4376,0.054617
1636.3013,0.051091
1638.1650,0.048331
1640.0286,0.047157
1641.8923,0.046363
1643.7560,0.046257
1645.6197,0.047192
1647.4833,0.048467
1649.3470,0.048216
1651.2107,0.048850
1653.0743,0.052278
1654.9380,0.054883
1656.8017,0.053841
1658.6653,0.054029
1660.5290,0.054634
1662.3927,0.055399
1664.2563,0.055205
1666.1200,0.054410
1667.9837,0.054344
1669.8474,0.054802
1671.7110,0.054236
1673.5747,0.054140
1675.4384,0.055353
1677.3020,0.056341
1679.1657,0.056724
1681.0294,0.058027
1682.8930,0.060215
1684.7567,0.064237
1686.6204,0.064553
1688.4840,0.063651
1690.3477,0.063087
1692.2114,0.061641
1694.0750,0.060006
1695.9387,0.058346
1697.8024,0.055866
1699.6661,0.054652
1701.5297,0.051653
1703.3934,0.048212
1705.2571,0.045169
1707.1207,0.041170
1708.9844,0.037761
1710.8481,0.035075
1712.7117,0.032828
1714.5754,0.031610
1716.4391,0.030583
1718.3027,0.029757
1720.1664,0.028802
1722.0301,0.028145
1723.8937,0.027342
1725.7574,0.026192
1727.6211,0.025145
1729.4848,0.024425
1731.3484,0.023677
1733.2121,0.023368
1735.0758,0.022872
1736.9394,0.022231
1738.8031,0.022050
1740.6668,0.022035
1742.5304,0.021726
1744.3941,0.021498
1746.2578,0.021263
1748.1214,0.021262
1749.9851,0.020957
1751.8488,0.020701
1753.7125,0.020458
1755.5761,0.020455
1757.4398,0.020518
1759.3035,0.020260
1761.1671,0.020215
1763.0308,0.020412
1764.8945,0.020208
1766.7581,0.020007
1768.6218,0.019887
1770.4855,0.019907
1772.3491,0.019913
1774.2128,0.019648
1776.0765,0.019301
1777.9401,0.019406
1779.8038,0.019662
1781.6675,0.019723
1783.5312,0.019562
1785.3948,0.019788
1787.2585,0.019652
1789.1222,0.019688
1790.9858,0.020123
1792.8495,0.020349
1794.7132,0.019842
1796.5768,0.019751
1798.4405,0.019984
1800.3042,0.020291
1802.1678,0.020290
1804.0315,0.020206
1805.8952,0.020129
1807.7589,0.020243
1809.6225,0.020229
1811.4862,0.020273
1813.3499,0.020291
1815.2135,0.020217
1817.0772,0.020028
1818.9409,0.020204
1820.8045,0.020293
1822.6682,0.020263
1824.5319,0.020253
1826.3955,0.020045
1828.2592,0.019857
1830.1229,0.019994
1831.9865,0.019580
1833.8502,0.019342
1835.7139,0.019303
1837.5776,0.019246
1839.4412,0.019118
1841.3049,0.019169
1843.1686,0.019156
1845.0322,0.018891
1846.8959,0.018301
1848.7596,0.018448
1850.6232,0.018776
1852.4869,0.018859
1854.3506,0.018652
1856.2142,0.018619
1858.0779,0.018554
1859.9416,0.018565
1861.8052,0.018531
1863.6689,0.018608
1865.5326,0.018862
1867.3963,0.018793
1869.2599,0.018153
1871.1236,0.018019
1872.9873,0.018111
1874.8509,0.018220
1876.7146,0.018277
1878.5783,0.018123
1880.4419,0.017726
1882.3056,0.017701
1884.1693,0.017670
1886.0329,0.017506
1887.8966,0.017393
1889.7603,0.017320
1891.6240,0.016853
1893.4876,0.017108
1895.3513,0.017387
1897.2150,0.017387
1899.0786,0.017103
1900.9423,0.017090
1902.8060,0.016944
1904.6696,0.016862
1906.5333,0.016847
1908.3970,0.017035
1910.2606,0.017031
1912.1243,0.016841
1913.9880,0.016607
1915.8516,0.016714
1917.7153,0.016976
1919.5790,0.016641
1921.4427,0.016113
1923.3063,0.015444
1925.1700,0.015281
1927.0337,0.015976
1928.8973,0.015778
1930.7610,0.015455
1932.6247,0.015298
1934.4883,0.015248
1936.3520,0.014599
1938.2157,0.014202
1940.0793,0.013943
1941.9430,0.013639
1943.8067,0.012488
1945.6704,0.012810
1947.5340,0.012671
1949.3977,0.012612
1951.2614,0.012632
1953.1250,0.012425
1954.9887,0.011709
1956.8524,0.010753
1958.7160,0.009887
1960.5797,0.009666
1962.4434,0.008884
1964.3070,0.007468
1966.1707,0.006185
1968.0344,0.006230
1969.8980,0.006048
1971.7617,0.005831
1973.6254,0.004277
1975.4891,0.002623
1977.3527,0.002384
1979.2164,0.004096
1981.0801,0.006215
1982.9437,0.006790
1984.8074,0.006307
1986.6711,0.006901
1988.5347,0.007575
1990.3984,0.007887
1992.2621,0.006850
1994.1257,0.007413
1995.9894,0.007486
1997.8531,0.007477
1999.7167,0.007458
2001.5804,0.007831
2003.4441,0.007402
2005.3078,0.006458
2007.1714,0.004734
2009.0351,0.004666
2010.8988,0.004986
2012.7624,0.005245
2014.6261,0.004317
2016.4898,0.004118
2018.3534,0.004600
2020.2171,0.004481
2022.0808,0.002945
2023.9444,0.001651
2025.8081,-0.000275
2027.6718,0.001503
2029.5355,0.002256
2031.3991,0.003318
2033.2628,0.003735
2035.1265,0.003945
2036.9901,0.004316
2038.8538,0.004829
2040.7175,0.005263
2042.5811,0.005753
2044.4448,0.006532
2046.3085,0.007312
2048.1721,0.007120
2050.0358,0.008671
2051.8995,0.009968
2053.7631,0.009964
2055.6268,0.010294
2057.4905,0.012014
2059.3542,0.012512
2061.2178,0.012356
2063.0815,0.012232
2064.9452,0.012483
2066.8088,0.012915
2068.6725,0.013430
2070.5362,0.013568
2072.3998,0.013797
2074.2635,0.014198
2076.1272,0.014247
2077.9908,0.014170
2079.8545,0.014844
2081.7182,0.015070
2083.5819,0.015368
2085.4455,0.015951
2087.3092,0.015722
2089.1729,0.015353
2091.0365,0.015644
2092.9002,0.015691
2094.7639,0.015365
2096.6275,0.015075
2098.4912,0.015253
2100.3549,0.015563
2102.2185,0.016147
2104.0822,0.016425
2105.9459,0.016489
2107.8095,0.016349
2109.6732,0.016120
2111.5369,0.016354
2113.4006,0.016305
2115.2642,0.016280
2117.1279,0.016914
2118.9916,0.016834
2120.8552,0.016433
2122.7189,0.016449
2124.5826,0.016186
2126.4462,0.015394
2128.3099,0.015379
2130.1736,0.014771
2132.0372,0.013678
2133.9009,0.013414
2135.7646,0.013580
2137.6282,0.012833
2139.4919,0.012084
2141.3556,0.011521
2143.2193,0.010622
2145.0829,0.009992
2146.9466,0.009000
2148.8103,0.007605
2150.6739,0.007103
2152.5376,0.004855
2154.4013,0.002324
2156.2649,0.002198
2158.1286,0.003170
2159.9923,0.003329
2161.8559,0.004034
2163.7196,0.005677
2165.5833,0.007257
2167.4470,0.006470
2169.3106,0.006164
2171.1743,0.006729
2173.0380,0.007666
2174.9016,0.008035
2176.7653,0.008286
2178.6290,0.008801
2180.4926,0.009079
2182.3563,0.009073
2184.2200,0.009803
2186.0836,0.009590
2187.9473,0.010241
2189.8110,0.009864
2191.6746,0.010394
2193.5383,0.011679
2195.4020,0.011874
2197.2657,0.011751
2199.1293,0.012967
2200.9930,0.013980
2202.8567,0.013580
2204.7203,0.012819
2206.5840,0.012981
2208.4477,0.013127
2210.3113,0.013406
2212.1750,0.013462
2214.0387,0.013455
2215.9023,0.013446
2217.7660,0.014102
2219.6297,0.014660
2221.4934,0.015037
2223.3570,0.015301
2225.2207,0.015265
2227.0844,0.015069
2228.9480,0.015753
2230.8117,0.016254
2232.6754,0.016428
2234.5390,0.016142
2236.4027,0.016209
2238.2664,0.016501
2240.1300,0.016632
2241.9937,0.017319
2243.8574,0.018248
2245.7210,0.017836
2247.5847,0.017704
2249.4484,0.018170
2251.3121,0.018089
2253.1757,0.017767
2255.0394,0.017811
2256.9031,0.018284
2258.7667,0.018986
2260.6304,0.019024
2262.4941,0.019229
2264.3577,0.019371
2266.2214,0.019382
2268.0851,0.019710
2269.9487,0.020204
2271.8124,0.020384
2273.6761,0.020413
2275.5397,0.020559
2277.4034,0.020919
2279.2671,0.021197
2281.1308,0.021842
2282.9944,0.022863
2284.8581,0.023143
2286.7218,0.022909
2288.5854,0.022801
2290.4491,0.022730
2292.3128,0.022949
2294.1764,0.023201
2296.0401,0.023439
2297.9038,0.023409
2299.7674,0.023539
2301.6311,0.023798
2303.4948,0.023695
2305.3585,0.023759
2307.2221,0.023831
2309.0858,0.024024
2310.9495,0.024201
2312.8131,0.023973
2314.6768,0.023669
2316.5405,0.023936
2318.4041,0.024085
2320.2678,0.024086
2322.1315,0.024245
2323.9951,0.024664
2325.8588,0.024735
2327.7225,0.023882
2329.5861,0.023327
2331.4498,0.023381
2333.3135,0.023487
2335.1772,0.023406
2337.0408,0.023216
2338.9045,0.023131
2340.7682,0.023414
2342.6318,0.023829
2344.4955,0.023977
2346.3592,0.023720
2348.2228,0.023369
2350.0865,0.023141
2351.9502,0.023036
2353.8138,0.023109
2355.6775,0.023162
2357.5412,0.023097
2359.4049,0.022844
2361.2685,0.022533
2363.1322,0.022361
2364.9959,0.022551
2366.8595,0.022978
2368.7232,0.023382
2370.5869,0.023473
2372.4505,0.023999
2374.3142,0.024298
2376.1779,0.024166
2378.0415,0.024157
2379.9052,0.024061
2381.7689,0.023904
2383.6325,0.023863
2385.4962,0.024034
2387.3599,0.024266
2389.2236,0.024325
2391.0872,0.023959
2392.9509,0.023789
2394.8146,0.024093
2396.6782,0.024394
2398.5419,0.024200
2400.4056,0.023982
2402.2692,0.024191
2404.1329,0.024271
2405.9966,0.024347
2407.8602,0.024388
2409.7239,0.024242
2411.5876,0.024196
2413.4512,0.024324
2415.3149,0.024364
2417.1786,0.024420
2419.0423,0.024461
2420.9059,0.024417
2422.7696,0.024506
2424.6333,0.024854
2426.4969,0.025054
2428.3606,0.025012
2430.2243,0.024823
2432.0879,0.024746
2433.9516,0.024972
2435.8153,0.024619
2437.6789,0.024487
2439.5426,0.025042
2441.4063,0.025337
2443.2700,0.025079
2445.1336,0.024909
2446.9973,0.024960
2448.8610,0.025164
2450.7246,0.024902
2452.5883,0.024732
2454.4520,0.024818
2456.3156,0.024716
2458.1793,0.024723
2460.0430,0.025117
2461.9066,0.025115
2463.7703,0.024955
2465.6340,0.024989
2467.4976,0.024996
2469.3613,0.024977
2471.2250,0.024786
2473.0887,0.024770
2474.9523,0.024971
2476.8160,0.025055
2478.6797,0.024951
2480.5433,0.025104
2482.4070,0.025466
2484.2707,0.025514
2486.1343,0.025247
2487.9980,0.025462
2489.8617,0.025760
2491.7253,0.025583
2493.5890,0.025632
2495.4527,0.025560
2497.3164,0.025466
2499.1800,0.025857
2501.0437,0.025805
2502.9074,0.025787
2504.7710,0.026185
2506.6347,0.026224
2508.4984,0.026361
2510.3620,0.026447
2512.2257,0.026451
2514.0894,0.026285
2515.9530,0.026386
2517.8167,0.026367
2519.6804,0.026088
2521.5440,0.026134
2523.4077,0.026548
2525.2714,0.026691
2527.1351,0.026758
2528.9987,0.026679
2530.8624,0.026659
2532.7261,0.026809
2534.5897,0.026701
2536.4534,0.026872
2538.3171,0.026670
2540.1807,0.026325
2542.0444,0.026891
2543.9081,0.027258
2545.7717,0.027189
2547.6354,0.027045
2549.4991,0.026905
2551.3627,0.027018
2553.2264,0.027260
2555.0901,0.027483
2556.9538,0.027576
2558.8174,0.027498
2560.6811,0.027501
2562.5448,0.027555
2564.4084,0.027698
2566.2721,0.027736
2568.1358,0.027798
2569.9994,0.027817
2571.8631,0.027729
2573.7268,0.028074
2575.5904,0.028227
2577.4541,0.028244
2579.3178,0.028422
2581.1815,0.028481
2583.0451,0.028815
2584.9088,0.029063
2586.7725,0.028802
2588.6361,0.028392
2590.4998,0.028491
2592.3635,0.028968
2594.2271,0.029189
2596.0908,0.029266
2597.9545,0.029647
2599.8181,0.029831
2601.6818,0.029999
2603.5455,0.030095
2605.4091,0.029932
2607.2728,0.029750
2609.1365,0.029840
2611.0002,0.030127
2612.8638,0.030356
2614.7275,0.030410
2616.5912,0.030418
2618.4548,0.030433
2620.3185,0.030453
2622.1822,0.030489
2624.0458,0.030721
2625.9095,0.030950
2627.7732,0.031305
2629.6368,0.031477
2631.5005,0.031527
2633.3642,0.031775
2635.2279,0.032036
2637.0915,0.032223
2638.9552,0.032084
2640.8189,0.032063
2642.6825,0.032272
2644.5462,0.032455
2646.4099,0.032621
2648.2735,0.032876
2650.1372,0.032967
2652.0009,0.032855
2653.8645,0.032663
2655.7282,0.032934
2657.5919,0.033063
2659.4555,0.032900
2661.3192,0.033051
2663.1829,0.033050
2665.0466,0.033039
2666.9102,0.033236
2668.7739,0.033065
2670.6376,0.032925
2672.5012,0.033101
2674.3649,0.033369
2676.2286,0.033338
2678.0922,0.033217
2679.9559,0.033299
2681.8196,0.033563
2683.6832,0.033717
2685.5469,0.033805
2687.4106,0.033880
2689.2742,0.033940
2691.1379,0.033998
2693.0016,0.034103
2694.8653,0.034308
2696.7289,0.034414
2698.5926,0.034461
2700.4563,0.034591
2702.3199,0.034664
2704.1836,0.034821
2706.0473,0.035062
2707.9109,0.035179
2709.7746,0.035229
2711.6383,0.035444
2713.5019,0.035677
2715.3656,0.035776
2717.2293,0.036007
2719.0930,0.036263
2720.9566,0.036212
2722.8203,0.036340
2724.6840,0.036518
2726.5476,0.036691
2728.4113,0.037161
2730.2750,0.037426
2732.1386,0.037549
2734.0023,0.037743
2735.8660,0.037928
2737.7296,0.038077
2739.5933,0.038040
2741.4570,0.038138
2743.3206,0.038453
2745.1843,0.038990
2747.0480,0.039492
2748.9117,0.039609
2750.7753,0.039850
2752.6390,0.040228
2754.5027,0.040228
2756.3663,0.040365
2758.2300,0.040721
2760.0937,0.040909
2761.9573,0.041106
2763.8210,0.041437
2765.6847,0.041692
2767.5483,0.041940
2769.4120,0.042277
2771.2757,0.042674
2773.1394,0.042983
2775.0030,0.043405
2776.8667,0.044003
2778.7304,0.044196
2780.5940,0.043987
2782.4577,0.044044
2784.3214,0.044287
2786.1850,0.044340
2788.0487,0.044316
2789.9124,0.044374
2791.7760,0.044262
2793.6397,0.043837
2795.5034,0.043481
2797.3670,0.043597
2799.2307,0.043691
2801.0944,0.043550
2802.9581,0.043187
2804.8217,0.042963
2806.6854,0.042754
2808.5491,0.042544
2810.4127,0.042513
2812.2764,0.042565
2814.1401,0.042246
2816.0037,0.041964
2817.8674,0.042108
2819.7311,0.042305
2821.5947,0.042491
2823.4584,0.042747
2825.3221,0.042699
2827.1857,0.042494
2829.0494,0.042377
2830.9131,0.042298
2832.7768,0.042154
2834.6404,0.042060
2836.5041,0.042214
2838.3678,0.042628
2840.2314,0.042776
2842.0951,0.042816
2843.9588,0.043083
2845.8224,0.043182
2847.6861,0.043259
2849.5498,0.043629
2851.4134,0.043879
2853.2771,0.044143
2855.1408,0.044431
2857.0045,0.044632
2858.8681,0.045172
2860.7318,0.045858
2862.5955,0.046003
2864.4591,0.045981
2866.3228,0.046304
2868.1865,0.046586
2870.0501,0.046526
2871.9138,0.046587
2873.7775,0.046814
2875.6411,0.047349
2877.5048,0.047806
2879.3685,0.047959
2881.2321,0.048089
2883.0958,0.048378
2884.9595,0.048517
2886.8232,0.048695
2888.6868,0.049161
2890.5505,0.049227
2892.4142,0.049182
2894.2778,0.049735
2896.1415,0.050092
2898.0052,0.050129
2899.8688,0.050088
2901.7325,0.050011
2903.5962,0.050041
2905.4598,0.050248
2907.3235,0.050311
2909.1872,0.050569
2911.0509,0.051107
2912.9145,0.051437
2914.7782,0.051710
2916.6419,0.051986
2918.5055,0.052373
2920.3692,0.052913
2922.2329,0.053022
2924.0965,0.053072
2925.9602,0.053451
2927.8239,0.053706
2929.6875,0.054116
2931.5512,0.054472
2933.4149,0.054702
2935.2785,0.055080
2937.1422,0.055343
2939.0059,0.055662
2940.8696,0.055471
2942.7332,0.055194
2944.5969,0.055402
2946.4606,0.055483
2948.3242,0.055636
2950.1879,0.055848
2952.0516,0.056145
2953.9152,0.056576
2955.7789,0.056519
2957.6426,0.056381
2959.5062,0.056452
2961.3699,0.056895
2963.2336,0.057237
2965.0972,0.057522
2966.9609,0.058074
2968.8246,0.058587
2970.6883,0.058551
2972.5519,0.058732
2974.4156,0.059124
2976.2793,0.059496
2978.1429,0.059970
2980.0066,0.060260
2981.8703,0.060317
2983.7339,0.060284
2985.5976,0.060490
2987.4613,0.060641
2989.3249,0.060843
2991.1886,0.061370
2993.0523,0.061630
2994.9160,0.061801
2996.7796,0.062203
2998.6433,0.062650
3000.5070,0.063264
3002.3706,0.063656
3004.2343,0.063983
3006.0980,0.064556
3007.9616,0.064660
3009.8253,0.064584
3011.6890,0.065132
3013.5526,0.065956
3015.4163,0.066093
3017.2800,0.066206
3019.1436,0.066717
3021.0073,0.066973
3022.8710,0.066945
3024.7347,0.066804
3026.5983,0.066892
3028.4620,0.067067
3030.3257,0.067201
3032.1893,0.067661
3034.0530,0.067744
3035.9167,0.067787
3037.7803,0.067908
3039.6440,0.068024
3041.5077,0.068133
3043.3713,0.068440
3045.2350,0.068863
3047.0987,0.069254
3048.9624,0.069411
3050.8260,0.069533
3052.6897,0.069776
3054.5534,0.069722
3056.4170,0.069487
3058.2807,0.069352
3060.1444,0.069358
3062.0080,0.069663
3063.8717,0.069781
3065.7354,0.070093
3067.5990,0.070302
3069.4627,0.070146
3071.3264,0.069889
3073.1900,0.069971
3075.0537,0.070112
3076.9174,0.069884
3078.7811,0.069860
3080.6447,0.070071
3082.5084,0.069682
3084.3721,0.069266
3086.2357,0.069176
3088.0994,0.068770
3089.9631,0.068326
3091.8267,0.068418
3093.6904,0.068624
3095.5541,0.068403
3097.4177,0.067921
3099.2814,0.067688
3101.1451,0.067147
3103.0087,0.066641
3104.8724,0.066334
3106.7361,0.065970
3108.5998,0.065523
3110.4634,0.065143
3112.3271,0.064856
3114.1908,0.064373
3116.0544,0.064203
3117.9181,0.064480
3119.7818,0.064151
3121.6454,0.063641
3123.5091,0.063253
3125.3728,0.063116
3127.2364,0.063005
3129.1001,0.062471
3130.9638,0.061962
3132.8275,0.061785
3134.6911,0.061738
3136.5548,0.061537
3138.4185,0.061014
3140.2821,0.060852
3142.1458,0.061001
3144.0095,0.061002
3145.8731,0.060719
3147.7368,0.060495
3149.6005,0.060340
3151.4641,0.059906
3153.3278,0.059490
3155.1915,0.059651
3157.0551,0.059827
3158.9188,0.059603
3160.7825,0.059241
3162.6462,0.059027
3164.5098,0.058484
3166.3735,0.058269
3168.2372,0.058337
3170.1008,0.058201
3171.9645,0.058120
3173.8282,0.058000
3175.6918,0.057296
3177.5555,0.056699
3179.4192,0.056947
3181.2828,0.057673
3183.1465,0.057805
3185.0102,0.057039
3186.8739,0.056901
3188.7375,0.057426
3190.6012,0.057308
3192.4649,0.056937
3194.3285,0.057275
3196.1922,0.057818
3198.0559,0.057449
3199.9195,0.056807
3201.7832,0.056801
3203.6469,0.057309
3205.5105,0.057627
3207.3742,0.057634
3209.2379,0.057686
3211.1015,0.057758
3212.9652,0.057799
3214.8289,0.058026
3216.6926,0.057704
3218.5562,0.057770
3220.4199,0.058133
3222.2836,0.057720
3224.1472,0.057484
3226.0109,0.058019
3227.8746,0.058550
3229.7382,0.058857
3231.6019,0.058600
3233.4656,0.058072
3235.3292,0.058095
3237.1929,0.058467
3239.0566,0.059039
3240.9202,0.059414
3242.7839,0.059163
3244.6476,0.058712
3246.5113,0.058770
3248.3749,0.059621
3250.2386,0.060235
3252.1023,0.059997
3253.9659,0.059474
3255.8296,0.059343
3257.6933,0.060047
3259.5569,0.060776
3261.4206,0.061158
3263.2843,0.061380
3265.1479,0.061015
3267.0116,0.060630
3268.8753,0.060744
3270.7390,0.060771
3272.6026,0.060136
3274.4663,0.059986
3276.3300,0.060750
3278.1936,0.061209
3280.0573,0.060611
3281.9210,0.059595
3283.7846,0.059216
3285.6483,0.059435
3287.5120,0.059452
3289.3756,0.059432
3291.2393,0.059247
3293.1030,0.058793
3294.9666,0.058169
3296.8303,0.057368
3298.6940,0.057079
3300.5577,0.057331
3302.4213,0.057183
3304.2850,0.056603
3306.1487,0.056166
3308.0123,0.055883
3309.8760,0.055663
3311.7397,0.055869
3313.6033,0.055657
3315.4670,0.054885
3317.3307,0.054623
3319.1943,0.054881
3321.0580,0.055198
3322.9217,0.055325
3324.7854,0.055570
3326.6490,0.055492
3328.5127,0.054833
3330.3764,0.054735
3332.2400,0.054910
3334.1037,0.054635
3335.9674,0.055015
3337.8310,0.055378
3339.6947,0.054774
3341.5584,0.054281
3343.4220,0.053661
3345.2857,0.052930
3347.1494,0.052742
3349.0130,0.052513
3350.8767,0.051352
3352.7404,0.050393
3354.6041,0.050223
3356.4677,0.050148
3358.3314,0.049597
3360.1951,0.048473
3362.0587,0.047734
3363.9224,0.047222
3365.7861,0.047147
3367.6497,0.047395
3369.5134,0.046710
3371.3771,0.045843
3373.2407,0.045411
3375.1044,0.045193
3376.9681,0.045724
3378.8317,0.046104
3380.6954,0.045476
3382.5591,0.045395
3384.4228,0.045636
3386.2864,0.045138
3388.1501,0.045062
3390.0138,0.045806
3391.8774,0.046577
3393.7411,0.046909
3395.6048,0.046634
3397.4684,0.046362
3399.3321,0.046001
3401.1958,0.045272
3403.0594,0.044943
3404.9231,0.044899
3406.7868,0.044478
3408.6505,0.043731
3410.5141,0.043221
3412.3778,0.042939
3414.2415,0.042692
3416.1051,0.041990
3417.9688,0.040740
3419.8325,0.039496
3421.6961,0.038716
3423.5598,0.038396
3425.4235,0.037705
3427.2871,0.036294
3429.1508,0.035897
3431.0145,0.035817
3432.8781,0.034768
3434.7418,0.034889
3436.6055,0.034712
3438.4692,0.033026
3440.3328,0.032582
3442.1965,0.032539
3444.0602,0.031350
3445.9238,0.031189
3447.7875,0.031608
3449.6512,0.030910
3451.5148,0.030564
3453.3785,0.030462
3455.2422,0.030192
3457.1058,0.030379
3458.9695,0.030567
3460.8332,0.030691
3462.6969,0.031065
3464.5605,0.030818
3466.4242,0.029079
3468.2879,0.027972
3470.1515,0.027904
3472.0152,0.027452
3473.8789,0.027481
3475.7425,0.027835
3477.6062,0.028457
3479.4699,0.028463
3481.3335,0.027835
3483.1972,0.027302
3485.0609,0.026692
3486.9245,0.026911
3488.7882,0.026728
3490.6519,0.026360
3492.5156,0.026527
3494.3792,0.026136
3496.2429,0.025259
3498.1066,0.024663
3499.9702,0.024323
3501.8339,0.024435
3503.6976,0.025326
3505.5612,0.025407
3507.4249,0.024218
3509.2886,0.023311
3511.1522,0.023509
3513.0159,0.023571
3514.8796,0.023984
3516.7432,0.024453
3518.6069,0.023803
3520.4706,0.023155
3522.3343,0.022269
3524.1979,0.021895
3526.0616,0.022682
3527.9253,0.022837
3529.7889,0.021540
3531.6526,0.020876
3533.5163,0.021234
3535.3799,0.020975
3537.2436,0.021469
3539.1073,0.022231
3540.9709,0.021564
3542.8346,0.021105
3544.6983,0.020846
3546.5620,0.021140
3548.4256,0.021901
3550.2893,0.021677
3552.1530,0.021050
3554.0166,0.020724
3555.8803,0.020483
3557.7440,0.020159
3559.6076,0.020265
3561.4713,0.020278
3563.3350,0.020123
3565.1986,0.020406
3567.0623,0.020217
3568.9260,0.018793
3570.7896,0.019151
3572.6533,0.020259
3574.5170,0.020457
3576.3807,0.020132
3578.2443,0.020212
3580.1080,0.020255
3581.9717,0.020068
3583.8353,0.020858
3585.6990,0.021149
3587.5627,0.020448
3589.4263,0.019147
3591.2900,0.017895
3593.1537,0.019079
3595.0173,0.020004
3596.8810,0.019861
3598.7447,0.020698
3600.6084,0.020806
3602.4720,0.020003
3604.3357,0.019766
3606.1994,0.019516
3608.0630,0.019481
3609.9267,0.019883
3611.7904,0.019841
3613.6540,0.019537
3615.5177,0.019952
3617.3814,0.020066
3619.2450,0.019973
3621.1087,0.020294
3622.9724,0.020070
3624.8360,0.020348
3626.6997,0.020508
3628.5634,0.019461
3630.4271,0.019391
3632.2907,0.020783
3634.1544,0.020485
3636.0181,0.019956
3637.8817,0.020546
3639.7454,0.020709
3641.6091,0.020881
3643.4727,0.021261
3645.3364,0.021076
3647.2001,0.021494
3649.0637,0.022521
3650.9274,0.023034
3652.7911,0.023691
3654.6547,0.023811
3656.5184,0.023836
3658.3821,0.025026
3660.2458,0.026525
3662.1094,0.027480
3663.9731,0.028133
3665.8368,0.029499
3667.7004,0.032507
3669.5641,0.038750
3671.4278,0.050343
3673.2914,0.058699
3675.1551,0.060771
3677.0188,0.054184
3678.8824,0.033664
3680.7461,0.020160
3682.6098,0.014689
3684.4735,0.015196
3686.3371,0.016482
3688.2008,0.016740
3690.0645,0.017091
3691.9281,0.017593
3693.7918,0.017909
3695.6555,0.017676
3697.5191,0.017552
3699.3828,0.017979
3701.2465,0.017637
3703.1101,0.017092
3704.9738,0.017124
3706.8375,0.017815
3708.7011,0.018171
3710.5648,0.017644
3712.4285,0.018003
3714.2922,0.018913
3716.1558,0.018420
3718.0195,0.018426
3719.8832,0.018533
3721.7468,0.018253
3723.6105,0.018424
3725.4742,0.018678
3727.3378,0.018615
3729.2015,0.018163
3731.0652,0.018148
3732.9288,0.017861
3734.7925,0.016834
3736.6562,0.016823
3738.5199,0.017516
3740.3835,0.017851
3742.2472,0.018277
3744.1109,0.018137
3745.9745,0.017083
3747.8382,0.017134
3749.7019,0.018732
3751.5655,0.019184
3753.4292,0.018895
3755.2929,0.020002
3757.1565,0.020371
3759.0202,0.020325
3760.8839,0.019979
3762.7475,0.019579
3764.6112,0.019802
3766.4749,0.020150
3768.3386,0.020415
3770.2022,0.020397
3772.0659,0.020151
3773.9296,0.020207
3775.7932,0.020490
3777.6569,0.020421
3779.5206,0.020628
3781.3842,0.021306
3783.2479,0.021208
3785.1116,0.020959
3786.9752,0.020902
3788.8389,0.020909
3790.7026,0.020832
3792.5662,0.020526
3794.4299,0.020267
3796.2936,0.020654
3798.1573,0.020779
3800.0209,0.020016
3801.8846,0.019964
3803.7483,0.020529
3805.6119,0.020460
3807.4756,0.020478
3809.3393,0.021114
3811.2029,0.020818
3813.0666,0.020136
3814.9303,0.019601
3816.7939,0.019583
3818.6576,0.020552
3820.5213,0.020920
3822.3850,0.021076
3824.2486,0.021096
3826.1123,0.020935
3827.9760,0.020815
3829.8396,0.020508
3831.7033,0.020378
3833.5670,0.020512
3835.4306,0.020388
3837.2943,0.020506
3839.1580,0.020666
3841.0216,0.020858
3842.8853,0.021001
3844.7490,0.020618
3846.6126,0.020565
3848.4763,0.020845
3850.3400,0.020493
3852.2037,0.020359
3854.0673,0.022642
3855.9310,0.023923
3857.7947,0.021596
3859.6583,0.020934
3861.5220,0.020815
3863.3857,0.020615
3865.2493,0.020530
3867.1130,0.020519
3868.9767,0.020376
3870.8403,0.020983
3872.7040,0.021849
3874.5677,0.021640
3876.4314,0.021574
3878.2950,0.021648
3880.1587,0.021940
3882.0224,0.022064
3883.8860,0.021769
3885.7497,0.021580
3887.6134,0.021791
3889.4770,0.021751
3891.3407,0.021600
3893.2044,0.021918
3895.0680,0.021979
3896.9317,0.021556
3898.7954,0.021520
3900.6590,0.021837
3902.5227,0.022101
3904.3864,0.022743
3906.2501,0.023147
3908.1137,0.022533
3909.9774,0.022057
3911.8411,0.021968
3913.7047,0.022114
3915.5684,0.022377
3917.4321,0.023151
3919.2957,0.023048
3921.1594,0.021906
3923.0231,0.021825
3924.8867,0.022494
3926.7504,0.023000
3928.6141,0.023035
3930.4777,0.022646
3932.3414,0.022516
3934.2051,0.022247
3936.0688,0.021946
3937.9324,0.022481
3939.7961,0.022839
3941.6598,0.022198
3943.5234,0.022433
3945.3871,0.022942
3947.2508,0.022879
3949.1144,0.022976
3950.9781,0.023309
3952.8418,0.023227
3954.7054,0.023098
3956.5691,0.023029
3958.4328,0.023162
3960.2965,0.023318
3962.1601,0.023390
3964.0238,0.023307
3965.8875,0.022889
3967.7511,0.023036
3969.6148,0.023336
3971.4785,0.023334
3973.3421,0.022986
3975.2058,0.022709
3977.0695,0.023071
3978.9331,0.023170
3980.7968,0.022873
3982.6605,0.022282
3984.5241,0.022630
3986.3878,0.022984
3988.2515,0.022959
3990.1152,0.023021
3991.9788,0.023288
3993.8425,0.023504
3995.7062,0.023456
3997.5698,0.023068
3999.4335,0.022943
