Wavenumber,Intensity
650.4205,0.217768
652.2841,0.229584
654.1478,0.244130
656.0115,0.261214
657.8751,0.284595
659.7388,0.307750
661.6025,0.331816
663.4661,0.352875
665.3298,0.370329
667.1935,0.382606
669.0571,0.374458
670.9208,0.343861
672.7845,0.312494
674.6481,0.285872
676.5118,0.267819
678.3755,0.251994
680.2392,0.238999
682.1028,0.225991
683.9665,0.211554
685.8302,0.196276
687.6938,0.183105
689.5575,0.171033
691.4212,0.159940
693.2848,0.148771
695.1485,0.139456
697.0122,0.132582
698.8758,0.128225
700.7395,0.126058
702.6032,0.124867
704.4669,0.122987
706.3305,0.120184
708.1942,0.116679
710.0579,0.113419
711.9215,0.109864
713.7852,0.107058
715.6489,0.104169
717.5125,0.100847
719.3762,0.098179
721.2399,0.097051
723.1035,0.096048
724.9672,0.094200
726.8309,0.092265
728.6945,0.091322
730.5582,0.090113
732.4219,0.089079
734.2856,0.088172
736.1492,0.087310
738.0129,0.086890
739.8766,0.087997
741.7402,0.090920
743.6039,0.093280
745.4676,0.094306
747.3312,0.095748
749.1949,0.097017
751.0586,0.097500
752.9222,0.097610
754.7859,0.098166
756.6496,0.099001
758.5132,0.099963
760.3769,0.101080
762.2406,0.102083
764.1043,0.102519
765.9679,0.103339
767.8316,0.104395
769.6953,0.105221
771.5589,0.106302
773.4226,0.108025
775.2863,0.109874
777.1499,0.111925
779.0136,0.114361
780.8773,0.116317
782.7409,0.116771
784.6046,0.117213
786.4683,0.118749
788.3320,0.120737
790.1956,0.122340
792.0593,0.123576
793.9230,0.125097
795.7866,0.127389
797.6503,0.129728
799.5140,0.131662
801.3776,0.133411
803.2413,0.135038
805.1050,0.136218
806.9686,0.137227
808.8323,0.138094
810.6960,0.138698
812.5596,0.139291
814.4233,0.139766
816.2870,0.139845
818.1507,0.140385
820.0143,0.141309
821.8780,0.142534
823.7417,0.144320
825.6053,0.146876
827.4690,0.149915
829.3327,0.152621
831.1963,0.152343
833.0600,0.148508
834.9237,0.145097
836.7873,0.144790
838.6510,0.146133
840.5147,0.148023
842.3784,0.150209
844.2420,0.152735
846.1057,0.155327
847.9694,0.158099
849.8330,0.160590
851.6967,0.163008
853.5604,0.165854
855.4240,0.168900
857.2877,0.171770
859.1514,0.174265
861.0150,0.176535
862.8787,0.178957
864.7424,0.181377
866.6060,0.184111
868.4697,0.186781
870.3334,0.189301
872.1971,0.192183
874.0607,0.195667
875.9244,0.199291
877.7881,0.202907
879.6517,0.206372
881.5154,0.210158
883.3791,0.213708
885.2427,0.216523
887.1064,0.219165
888.9701,0.222030
890.8337,0.224628
892.6974,0.226970
894.5611,0.229430
896.4247,0.232398
898.2884,0.235717
900.1521,0.239605
902.0158,0.244171
903.8794,0.249257
905.7431,0.254760
907.6068,0.260880
909.4704,0.266916
911.3341,0.273328
913.1978,0.280288
915.0614,0.284813
916.9251,0.282653
918.7888,0.276234
920.6524,0.271796
922.5161,0.271628
924.3798,0.274125
926.2435,0.277365
928.1071,0.280804
929.9708,0.284814
931.8345,0.288884
933.6981,0.292752
935.5618,0.296412
937.4255,0.299947
939.2891,0.303225
941.1528,0.306578
943.0165,0.309957
944.8801,0.313330
946.7438,0.316705
948.6075,0.320086
950.4711,0.323649
952.3348,0.327458
954.1985,0.331400
956.0622,0.335656
957.9258,0.339700
959.7895,0.343935
961.6532,0.348378
963.5168,0.352838
965.3805,0.357307
967.2442,0.361993
969.1078,0.367251
970.9715,0.372747
972.8352,0.378368
974.6988,0.385201
976.5625,0.394079
978.4262,0.406056
980.2899,0.418857
982.1535,0.421087
984.0172,0.405851
985.8809,0.389410
987.7445,0.384608
989.6082,0.386979
991.4719,0.390232
993.3355,0.393020
995.1992,0.395461
997.0629,0.397763
998.9265,0.399516
1000.7902,0.400659
1002.6539,0.401302
1004.5175,0.401214
1006.3812,0.399580
1008.2449,0.395981
1010.1086,0.389852
1011.9722,0.381095
1013.8359,0.369974
1015.6996,0.356989
1017.5632,0.342511
1019.4269,0.327163
1021.2906,0.311528
1023.1542,0.295975
1025.0179,0.281018
1026.8816,0.267118
1028.7452,0.254089
1030.6089,0.241750
1032.4726,0.229857
1034.3362,0.218595
1036.1999,0.208007
1038.0636,0.197929
1039.9273,0.188375
1041.7909,0.179275
1043.6546,0.170783
1045.5183,0.163055
1047.3819,0.155778
1049.2456,0.148816
1051.1093,0.142143
1052.9729,0.136340
1054.8366,0.132399
1056.7003,0.130294
1058.5639,0.129144
1060.4276,0.128266
1062.2913,0.127395
1064.1550,0.126504
1066.0186,0.125616
1067.8823,0.124914
1069.7460,0.124497
1071.6096,0.124237
1073.4733,0.123900
1075.3370,0.123370
1077.2006,0.122504
1079.0643,0.121473
1080.9280,0.120420
1082.7916,0.119245
1084.6553,0.118369
1086.5190,0.117883
1088.3826,0.117473
1090.2463,0.117273
1092.1100,0.117443
1093.9737,0.117909
1095.8373,0.118403
1097.7010,0.118881
1099.5647,0.119496
1101.4283,0.120152
1103.2920,0.120402
1105.1557,0.119817
1107.0193,0.118135
1108.8830,0.114915
1110.7467,0.110054
1112.6103,0.104391
1114.4740,0.098826
1116.3377,0.093720
1118.2014,0.089404
1120.0650,0.086006
1121.9287,0.083341
1123.7924,0.081158
1125.6560,0.079054
1127.5197,0.076930
1129.3834,0.074919
1131.2470,0.072881
1133.1107,0.070792
1134.9744,0.068949
1136.8380,0.067432
1138.7017,0.065957
1140.5654,0.064465
1142.4290,0.063066
1144.2927,0.061728
1146.1564,0.060423
1148.0201,0.059211
1149.8837,0.058072
1151.7474,0.056965
1153.6111,0.056039
1155.4747,0.055313
1157.3384,0.054670
1159.2021,0.054108
1161.0657,0.053685
1162.9294,0.053455
1164.7931,0.053393
1166.6567,0.053580
1168.5204,0.054092
1170.3841,0.054699
1172.2477,0.054922
1174.1114,0.054226
1175.9751,0.052519
1177.8388,0.050455
1179.7024,0.048824
1181.5661,0.047898
1183.4298,0.047503
1185.2934,0.047454
1187.1571,0.047547
1189.0208,0.047647
1190.8844,0.047834
1192.7481,0.047900
1194.6118,0.047828
1196.4754,0.047912
1198.3391,0.048131
1200.2028,0.048329
1202.0665,0.048500
1203.9301,0.048754
1205.7938,0.049036
1207.6575,0.049277
1209.5211,0.049494
1211.3848,0.049766
1213.2485,0.049970
1215.1121,0.050053
1216.9758,0.050299
1218.8395,0.050648
1220.7031,0.050848
1222.5668,0.050947
1224.4305,0.050976
1226.2941,0.050987
1228.1578,0.051079
1230.0215,0.051214
1231.8852,0.051372
1233.7488,0.051486
1235.6125,0.051509
1237.4762,0.051589
1239.3398,0.051727
1241.2035,0.051831
1243.0672,0.051933
1244.9308,0.051988
1246.7945,0.052047
1248.6582,0.052175
1250.5218,0.052386
1252.3855,0.052667
1254.2492,0.052887
1256.1129,0.053064
1257.9765,0.053293
1259.8402,0.053678
1261.7039,0.054159
1263.5675,0.054479
1265.4312,0.054697
1267.2949,0.054901
1269.1585,0.054961
1271.0222,0.054992
1272.8859,0.055202
1274.7495,0.055489
1276.6132,0.055866
1278.4769,0.056370
1280.3405,0.056911
1282.2042,0.057567
1284.0679,0.058390
1285.9316,0.059334
1287.7952,0.060448
1289.6589,0.061793
1291.5226,0.063213
1293.3862,0.064773
1295.2499,0.066655
1297.1136,0.068843
1298.9772,0.071344
1300.8409,0.074219
1302.7046,0.077149
1304.5682,0.078865
1306.4319,0.077909
1308.2956,0.073434
1310.1592,0.066052
1312.0229,0.058609
1313.8866,0.053756
1315.7503,0.052073
1317.6139,0.052490
1319.4776,0.053703
1321.3413,0.054913
1323.2049,0.056158
1325.0686,0.057517
1326.9323,0.058867
1328.7959,0.060213
1330.6596,0.061440
1332.5233,0.062415
1334.3869,0.063094
1336.2506,0.063639
1338.1143,0.064527
1339.9780,0.065834
1341.8416,0.066556
1343.7053,0.066740
1345.5690,0.067230
1347.4326,0.067923
1349.2963,0.068707
1351.1600,0.069517
1353.0236,0.070368
1354.8873,0.071334
1356.7510,0.072165
1358.6146,0.072730
1360.4783,0.073600
1362.3420,0.075298
1364.2056,0.076711
1366.0693,0.077233
1367.9330,0.078237
1369.7967,0.079356
1371.6603,0.080160
1373.5240,0.081807
1375.3877,0.083688
1377.2513,0.084697
1379.1150,0.086182
1380.9787,0.088100
1382.8423,0.089969
1384.7060,0.091956
1386.5697,0.094740
1388.4333,0.097937
1390.2970,0.099307
1392.1607,0.099762
1394.0244,0.099938
1395.8880,0.098365
1397.7517,0.095247
1399.6154,0.091585
1401.4790,0.087979
1403.3427,0.084833
1405.2064,0.080475
1407.0700,0.074277
1408.9337,0.067629
1410.7974,0.061149
1412.6610,0.056273
1414.5247,0.053801
1416.3884,0.053434
1418.2520,0.055354
1420.1157,0.058936
1421.9794,0.060489
1423.8431,0.059860
1425.7067,0.056649
1427.5704,0.052800
1429.4341,0.050442
1431.2977,0.049431
1433.1614,0.049111
1435.0251,0.049651
1436.8887,0.051452
1438.7524,0.052351
1440.6161,0.052389
1442.4797,0.052850
1444.3434,0.053157
1446.2071,0.053470
1448.0707,0.053783
1449.9344,0.053120
1451.7981,0.051659
1453.6618,0.050190
1455.5254,0.049775
1457.3891,0.051767
1459.2528,0.052650
1461.1164,0.051826
1462.9801,0.051635
1464.8438,0.052019
1466.7074,0.051550
1468.5711,0.050350
1470.4348,0.049622
1472.2984,0.049870
1474.1621,0.050383
1476.0258,0.050115
1477.8895,0.049723
1479.7531,0.049371
1481.6168,0.049375
1483.4805,0.049159
1485.3441,0.048859
1487.2078,0.048993
1489.0715,0.049847
1490.9351,0.050459
1492.7988,0.049837
1494.6625,0.049541
1496.5261,0.050636
1498.3898,0.051711
1500.2535,0.051582
1502.1171,0.050908
1503.9808,0.050409
1505.8445,0.051557
1507.7082,0.054945
1509.5718,0.054383
1511.4355,0.053788
1513.2992,0.053835
1515.1628,0.054120
1517.0265,0.054879
1518.8902,0.055167
1520.7538,0.055782
1522.6175,0.057136
1524.4812,0.056909
1526.3448,0.057268
1528.2085,0.057579
1530.0722,0.057436
1531.9359,0.057948
1533.7995,0.059235
1535.6632,0.058863
1537.5269,0.058283
1539.3905,0.059946
1541.2542,0.063023
1543.1179,0.063526
1544.9815,0.064044
1546.8452,0.064112
1548.7089,0.064451
1550.5725,0.065538
1552.4362,0.066195
1554.2999,0.066756
1556.1635,0.067511
1558.0272,0.069768
1559.8909,0.075379
1561.7546,0.073722
1563.6182,0.073009
1565.4819,0.073969
1567.3456,0.074930
1569.2092,0.076541
1571.0729,0.078166
1572.9366,0.078156
1574.8002,0.079523
1576.6639,0.082867
1578.5276,0.083904
1580.3912,0.083707
1582.2549,0.084710
1584.1186,0.085871
1585.9822,0.086631
1587.8459,0.087182
1589.7096,0.087566
1591.5733,0.087514
1593.4369,0.087405
1595.3006,0.087002
1597.1643,0.086467
1599.0279,0.085762
1600.8916,0.084938
1602.7553,0.084178
1604.6189,0.083464
1606.4826,0.082564
1608.3463,0.081820
1610.2099,0.080887
1612.0736,0.079439
1613.9373,0.077835
1615.8010,0.076488
1617.6646,0.074232
1619.5283,0.071418
1621.3920,0.069465
1623.2556,0.067566
1625.1193,0.064909
1626.9830,0.062086
1628.8466,0.058677
1630.7103,0.054904
1632.5740,0.051858
1634.4376,0.049143
1636.3013,0.046107
1638.1650,0.043983
1640.0286,0.043035
1641.8923,0.042218
1643.7560,0.042066
1645.6197,0.042854
1647.4833,0.044218
1649.3470,0.044194
1651.2107,0.044669
1653.0743,0.047809
1654.9380,0.050237
1656.8017,0.049279
1658.6653,0.049418
1660.5290,0.049846
1662.3927,0.050344
1664.2563,0.050003
1666.1200,0.049192
1667.9837,0.048912
1669.8474,0.049044
1671.7110,0.048715
1673.5747,0.048791
1675.4384,0.049961
1677.3020,0.050981
1679.1657,0.051571
1681.0294,0.052829
1682.8930,0.054567
1684.7567,0.057765
1686.6204,0.058083
1688.4840,0.057180
1690.3477,0.056520
1692.2114,0.055129
1694.0750,0.053588
1695.9387,0.052109
1697.8024,0.050078
1699.6661,0.048929
1701.5297,0.046308
1703.3934,0.043558
1705.2571,0.040744
1707.1207,0.036794
1708.9844,0.033762
1710.8481,0.031714
1712.7117,0.029990
1714.5754,0.028629
1716.4391,0.027506
1718.3027,0.027107
1720.1664,0.026355
1722.0301,0.025629
1723.8937,0.024854
1725.7574,0.024011
1727.6211,0.023155
1729.4848,0.022346
1731.3484,0.021606
1733.2121,0.021457
1735.0758,0.021161
1736.9394,0.020457
1738.8031,0.020183
1740.6668,0.020158
1742.5304,0.019968
1744.3941,0.019832
1746.2578,0.019491
1748.1214,0.019444
1749.9851,0.019417
1751.8488,0.019406
1753.7125,0.019093
1755.5761,0.018925
1757.4398,0.018960
1759.3035,0.018844
1761.1671,0.018825
1763.0308,0.018927
1764.8945,0.018612
1766.7581,0.018475
1768.6218,0.018391
1770.4855,0.018290
1772.3491,0.018225
1774.2128,0.018129
1776.0765,0.018012
1777.9401,0.018130
1779.8038,0.018356
1781.6675,0.018465
1783.5312,0.018236
1785.3948,0.018259
1787.2585,0.018162
1789.1222,0.018144
1790.9858,0.018204
1792.8495,0.018415
1794.7132,0.018396
1796.5768,0.018278
1798.4405,0.018380
1800.3042,0.018597
1802.1678,0.018550
1804.0315,0.018651
1805.8952,0.018697
1807.7589,0.018761
1809.6225,0.018768
1811.4862,0.018746
1813.3499,0.018487
1815.2135,0.018304
1817.0772,0.018498
1818.9409,0.018852
1820.8045,0.018798
1822.6682,0.018721
1824.5319,0.018595
1826.3955,0.018210
1828.2592,0.018118
1830.1229,0.018234
1831.9865,0.018029
1833.8502,0.018055
1835.7139,0.017986
1837.5776,0.017806
1839.4412,0.017517
1841.3049,0.017449
1843.1686,0.017417
1845.0322,0.017220
1846.8959,0.017190
1848.7596,0.017433
1850.6232,0.017498
1852.4869,0.017309
1854.3506,0.017133
1856.2142,0.017366
1858.0779,0.017368
1859.9416,0.017292
1861.8052,0.017439
1863.6689,0.017647
1865.5326,0.017263
1867.3963,0.017051
1869.2599,0.017123
1871.1236,0.016929
1872.9873,0.016791
1874.8509,0.016681
1876.7146,0.016599
1878.5783,0.016738
1880.4419,0.016806
1882.3056,0.016748
1884.1693,0.016445
1886.0329,0.016530
1887.8966,0.016611
1889.7603,0.016390
1891.6240,0.016105
1893.4876,0.016463
1895.3513,0.016146
1897.2150,0.015938
1899.0786,0.016102
1900.9423,0.016288
1902.8060,0.016136
1904.6696,0.016073
1906.5333,0.016019
1908.3970,0.016063
1910.2606,0.016107
1912.1243,0.015951
1913.9880,0.015911
1915.8516,0.015926
1917.7153,0.015961
1919.5790,0.015492
1921.4427,0.015037
1923.3063,0.014620
1925.1700,0.014460
1927.0337,0.014815
1928.8973,0.014470
1930.7610,0.014344
1932.6247,0.014529
1934.4883,0.014552
1936.3520,0.014043
1938.2157,0.013873
1940.0793,0.013399
1941.9430,0.013388
1943.8067,0.013294
1945.6704,0.012600
1947.5340,0.011951
1949.3977,0.011707
1951.2614,0.011493
1953.1250,0.011498
1954.9887,0.011133
1956.8524,0.010170
1958.7160,0.008695
1960.5797,0.008029
1962.4434,0.007770
1964.3070,0.007804
1966.1707,0.006924
1968.0344,0.005844
1969.8980,0.005742
1971.7617,0.005850
1973.6254,0.004742
1975.4891,0.005283
1977.3527,0.004557
1979.2164,0.004393
1981.0801,0.005523
1982.9437,0.006490
1984.8074,0.006813
1986.6711,0.007734
1988.5347,0.007859
1990.3984,0.007318
1992.2621,0.006686
1994.1257,0.006999
1995.9894,0.008092
1997.8531,0.008124
1999.7167,0.006538
2001.5804,0.007107
2003.4441,0.007483
2005.3078,0.006811
2007.1714,0.006617
2009.0351,0.006138
2010.8988,0.004685
2012.7624,0.004968
2014.6261,0.004669
2016.4898,0.004953
2018.3534,0.003748
2020.2171,0.003535
2022.0808,0.003623
2023.9444,0.004375
2025.8081,0.004940
2027.6718,0.004727
2029.5355,0.003406
2031.3991,0.002533
2033.2628,0.003397
2035.1265,0.004133
2036.9901,0.004998
2038.8538,0.006686
2040.7175,0.006061
2042.5811,0.005975
2044.4448,0.007085
2046.3085,0.008547
2048.1721,0.008633
2050.0358,0.009509
2051.8995,0.010597
2053.7631,0.010944
2055.6268,0.011060
2057.4905,0.011424
2059.3542,0.011080
2061.2178,0.011666
2063.0815,0.012588
2064.9452,0.013137
2066.8088,0.013095
2068.6725,0.013560
2070.5362,0.013518
2072.3998,0.013166
2074.2635,0.013383
2076.1272,0.014043
2077.9908,0.014532
2079.8545,0.015071
2081.7182,0.015476
2083.5819,0.015860
2085.4455,0.015705
2087.3092,0.015316
2089.1729,0.015285
2091.0365,0.015183
2092.9002,0.014684
2094.7639,0.015138
2096.6275,0.015714
2098.4912,0.015809
2100.3549,0.015533
2102.2185,0.015636
2104.0822,0.015494
2105.9459,0.015622
2107.8095,0.015742
2109.6732,0.015951
2111.5369,0.016058
2113.4006,0.016249
2115.2642,0.016233
2117.1279,0.016216
2118.9916,0.015879
2120.8552,0.015485
2122.7189,0.015435
2124.5826,0.014954
2126.4462,0.015128
2128.3099,0.015388
2130.1736,0.014306
2132.0372,0.013255
2133.9009,0.013378
2135.7646,0.013742
2137.6282,0.012304
2139.4919,0.011301
2141.3556,0.010761
2143.2193,0.010235
2145.0829,0.010103
2146.9466,0.011198
2148.8103,0.010214
2150.6739,0.009105
2152.5376,0.007082
2154.4013,0.005343
2156.2649,0.003470
2158.1286,0.002937
2159.9923,0.005147
2161.8559,0.007096
2163.7196,0.007614
2165.5833,0.008693
2167.4470,0.008641
2169.3106,0.008833
2171.1743,0.008834
2173.0380,0.009551
2174.9016,0.009273
2176.7653,0.008429
2178.6290,0.008820
2180.4926,0.009796
2182.3563,0.009239
2184.2200,0.009141
2186.0836,0.009535
2187.9473,0.010696
2189.8110,0.010254
2191.6746,0.009997
2193.5383,0.010704
2195.4020,0.010793
2197.2657,0.011157
2199.1293,0.011360
2200.9930,0.011677
2202.8567,0.012742
2204.7203,0.013345
2206.5840,0.013668
2208.4477,0.013296
2210.3113,0.013065
2212.1750,0.013542
2214.0387,0.013954
2215.9023,0.013278
2217.7660,0.013578
2219.6297,0.014595
2221.4934,0.014587
2223.3570,0.014443
2225.2207,0.015085
2227.0844,0.015119
2228.9480,0.015243
2230.8117,0.015272
2232.6754,0.015726
2234.5390,0.016095
2236.4027,0.016288
2238.2664,0.016446
2240.1300,0.016520
2241.9937,0.017322
2243.8574,0.018013
2245.7210,0.017828
2247.5847,0.017691
2249.4484,0.017392
2251.3121,0.017177
2253.1757,0.016903
2255.0394,0.017892
2256.9031,0.019138
2258.7667,0.019022
2260.6304,0.018442
2262.4941,0.018178
2264.3577,0.018400
2266.2214,0.018359
2268.0851,0.019072
2269.9487,0.020109
2271.8124,0.020511
2273.6761,0.020656
2275.5397,0.020691
2277.4034,0.020821
2279.2671,0.020931
2281.1308,0.021092
2282.9944,0.021152
2284.8581,0.021511
2286.7218,0.021943
2288.5854,0.022404
2290.4491,0.022586
2292.3128,0.022380
2294.1764,0.021742
2296.0401,0.021852
2297.9038,0.022504
2299.7674,0.022488
2301.6311,0.022243
2303.4948,0.022384
2305.3585,0.022586
2307.2221,0.022721
2309.0858,0.022865
2310.9495,0.022668
2312.8131,0.022546
2314.6768,0.022572
2316.5405,0.022520
2318.4041,0.022679
2320.2678,0.023103
2322.1315,0.023614
2323.9951,0.023778
2325.8588,0.023423
2327.7225,0.022744
2329.5861,0.022561
2331.4498,0.022419
2333.3135,0.022375
2335.1772,0.022410
2337.0408,0.022103
2338.9045,0.022157
2340.7682,0.022443
2342.6318,0.022804
2344.4955,0.022849
2346.3592,0.022533
2348.2228,0.022374
2350.0865,0.022193
2351.9502,0.022204
2353.8138,0.022187
2355.6775,0.021668
2357.5412,0.021646
2359.4049,0.021867
2361.2685,0.021881
2363.1322,0.021986
2364.9959,0.022037
2366.8595,0.022191
2368.7232,0.022288
2370.5869,0.022408
2372.4505,0.022761
2374.3142,0.023012
2376.1779,0.022930
2378.0415,0.022869
2379.9052,0.022651
2381.7689,0.022566
2383.6325,0.022647
2385.4962,0.022721
2387.3599,0.022577
2389.2236,0.022709
2391.0872,0.022830
2392.9509,0.022676
2394.8146,0.022705
2396.6782,0.022761
2398.5419,0.022895
2400.4056,0.022935
2402.2692,0.022767
2404.1329,0.022640
2405.9966,0.022910
2407.8602,0.023218
2409.7239,0.023278
2411.5876,0.023380
2413.4512,0.023572
2415.3149,0.023396
2417.1786,0.023060
2419.0423,0.023055
2420.9059,0.023246
2422.7696,0.023325
2424.6333,0.023281
2426.4969,0.023331
2428.3606,0.023288
2430.2243,0.023473
2432.0879,0.023603
2433.9516,0.023299
2435.8153,0.023471
2437.6789,0.023867
2439.5426,0.023958
2441.4063,0.023985
2443.2700,0.023733
2445.1336,0.023637
2446.9973,0.023754
2448.8610,0.023670
2450.7246,0.023777
2452.5883,0.023726
2454.4520,0.023788
2456.3156,0.023978
2458.1793,0.023883
2460.0430,0.023660
2461.9066,0.023382
2463.7703,0.023513
2465.6340,0.023643
2467.4976,0.023722
2469.3613,0.023920
2471.2250,0.023740
2473.0887,0.023576
2474.9523,0.023875
2476.8160,0.024086
2478.6797,0.023831
2480.5433,0.023732
2482.4070,0.023765
2484.2707,0.023746
2486.1343,0.023736
2487.9980,0.023824
2489.8617,0.024037
2491.7253,0.024269
2493.5890,0.024423
2495.4527,0.024429
2497.3164,0.024480
2499.1800,0.024337
2501.0437,0.024210
2502.9074,0.024463
2504.7710,0.024667
2506.6347,0.024910
2508.4984,0.024753
2510.3620,0.024481
2512.2257,0.024698
2514.0894,0.024868
2515.9530,0.024936
2517.8167,0.025128
2519.6804,0.025355
2521.5440,0.025460
2523.4077,0.025246
2525.2714,0.025128
2527.1351,0.024919
2528.9987,0.024864
2530.8624,0.025059
2532.7261,0.024970
2534.5897,0.024966
2536.4534,0.025287
2538.3171,0.025525
2540.1807,0.025461
2542.0444,0.025192
2543.9081,0.024843
2545.7717,0.025052
2547.6354,0.025512
2549.4991,0.025849
2551.3627,0.025987
2553.2264,0.026011
2555.0901,0.025863
2556.9538,0.025524
2558.8174,0.025555
2560.6811,0.025923
2562.5448,0.026022
2564.4084,0.026254
2566.2721,0.026184
2568.1358,0.026159
2569.9994,0.026411
2571.8631,0.026727
2573.7268,0.026665
2575.5904,0.026681
2577.4541,0.026973
2579.3178,0.026990
2581.1815,0.026888
2583.0451,0.026905
2584.9088,0.027450
2586.7725,0.027608
2588.6361,0.027364
2590.4998,0.027608
2592.3635,0.027677
2594.2271,0.027589
2596.0908,0.027895
2597.9545,0.028028
2599.8181,0.028144
2601.6818,0.028262
2603.5455,0.028125
2605.4091,0.027908
2607.2728,0.028163
2609.1365,0.028585
2611.0002,0.028494
2612.8638,0.028277
2614.7275,0.028415
2616.5912,0.028833
2618.4548,0.028805
2620.3185,0.028808
2622.1822,0.029065
2624.0458,0.029256
2625.9095,0.029412
2627.7732,0.029556
2629.6368,0.029556
2631.5005,0.029506
2633.3642,0.029757
2635.2279,0.030093
2637.0915,0.030307
2638.9552,0.030403
2640.8189,0.030603
2642.6825,0.030765
2644.5462,0.030748
2646.4099,0.030811
2648.2735,0.031049
2650.1372,0.031302
2652.0009,0.031189
2653.8645,0.031071
2655.7282,0.031172
2657.5919,0.031143
2659.4555,0.031201
2661.3192,0.031230
2663.1829,0.031048
2665.0466,0.030922
2666.9102,0.030847
2668.7739,0.030929
2670.6376,0.031175
2672.5012,0.031311
2674.3649,0.031480
2676.2286,0.031593
2678.0922,0.031666
2679.9559,0.031611
2681.8196,0.031679
2683.6832,0.031833
2685.5469,0.031982
2687.4106,0.032042
2689.2742,0.031877
2691.1379,0.032055
2693.0016,0.032242
2694.8653,0.032140
2696.7289,0.032412
2698.5926,0.032569
2700.4563,0.032702
2702.3199,0.032962
2704.1836,0.033059
2706.0473,0.033118
2707.9109,0.033383
2709.7746,0.033540
2711.6383,0.033589
2713.5019,0.033666
2715.3656,0.033840
2717.2293,0.034033
2719.0930,0.034126
2720.9566,0.034210
2722.8203,0.034481
2724.6840,0.034582
2726.5476,0.034828
2728.4113,0.035085
2730.2750,0.035321
2732.1386,0.035624
2734.0023,0.035796
2735.8660,0.035782
2737.7296,0.035884
2739.5933,0.036183
2741.4570,0.036630
2743.3206,0.036964
2745.1843,0.037140
2747.0480,0.037079
2748.9117,0.037211
2750.7753,0.037778
2752.6390,0.038053
2754.5027,0.037958
2756.3663,0.038226
2758.2300,0.038639
2760.0937,0.038873
2761.9573,0.039100
2763.8210,0.039236
2765.6847,0.039421
2767.5483,0.039802
2769.4120,0.040143
2771.2757,0.040472
2773.1394,0.040637
2775.0030,0.040825
2776.8667,0.041134
2778.7304,0.041385
2780.5940,0.041517
2782.4577,0.041706
2784.3214,0.041745
2786.1850,0.041606
2788.0487,0.041365
2789.9124,0.041387
2791.7760,0.041534
2793.6397,0.041332
2795.5034,0.041020
2797.3670,0.041049
2799.2307,0.040928
2801.0944,0.040639
2802.9581,0.040339
2804.8217,0.040298
2806.6854,0.040262
2808.5491,0.039919
2810.4127,0.039802
2812.2764,0.039786
2814.1401,0.039655
2816.0037,0.039665
2817.8674,0.039561
2819.7311,0.039663
2821.5947,0.039871
2823.4584,0.039937
2825.3221,0.040078
2827.1857,0.040078
2829.0494,0.039884
2830.9131,0.039659
2832.7768,0.039717
2834.6404,0.040007
2836.5041,0.040015
2838.3678,0.040153
2840.2314,0.040329
2842.0951,0.040310
2843.9588,0.040255
2845.8224,0.040507
2847.6861,0.040758
2849.5498,0.040941
2851.4134,0.041426
2853.2771,0.041831
2855.1408,0.041959
2857.0045,0.042089
2858.8681,0.042330
2860.7318,0.042839
2862.5955,0.043238
2864.4591,0.043329
2866.3228,0.043376
2868.1865,0.043638
2870.0501,0.043821
2871.9138,0.043834
2873.7775,0.043957
2875.6411,0.044457
2877.5048,0.044904
2879.3685,0.045184
2881.2321,0.045182
2883.0958,0.045277
2884.9595,0.045699
2886.8232,0.045920
2888.6868,0.045942
2890.5505,0.046054
2892.4142,0.046363
2894.2778,0.046909
2896.1415,0.047289
2898.0052,0.047103
2899.8688,0.046820
2901.7325,0.047004
2903.5962,0.047219
2905.4598,0.047230
2907.3235,0.047243
2909.1872,0.047633
2911.0509,0.047865
2912.9145,0.047929
2914.7782,0.048437
2916.6419,0.049065
2918.5055,0.049150
2920.3692,0.049308
2922.2329,0.049641
2924.0965,0.049982
2925.9602,0.050248
2927.8239,0.050555
2929.6875,0.050811
2931.5512,0.051175
2933.4149,0.051413
2935.2785,0.051478
2937.1422,0.051495
2939.0059,0.051490
2940.8696,0.051650
2942.7332,0.051750
2944.5969,0.051840
2946.4606,0.052190
2948.3242,0.052257
2950.1879,0.052151
2952.0516,0.052230
2953.9152,0.052362
2955.7789,0.052525
2957.6426,0.052811
2959.5062,0.052974
2961.3699,0.053178
2963.2336,0.053434
2965.0972,0.053628
2966.9609,0.054050
2968.8246,0.054813
2970.6883,0.055096
2972.5519,0.055159
2974.4156,0.055152
2976.2793,0.055477
2978.1429,0.055826
2980.0066,0.056106
2981.8703,0.056376
2983.7339,0.056410
2985.5976,0.056057
2987.4613,0.056107
2989.3249,0.056828
2991.1886,0.057242
2993.0523,0.057271
2994.9160,0.057803
2996.7796,0.058519
2998.6433,0.058837
3000.5070,0.058916
3002.3706,0.059112
3004.2343,0.059298
3006.0980,0.059631
3007.9616,0.059933
3009.8253,0.060323
3011.6890,0.060580
3013.5526,0.060660
3015.4163,0.061093
3017.2800,0.061447
3019.1436,0.061487
3021.0073,0.061707
3022.8710,0.061719
3024.7347,0.061872
3026.5983,0.062539
3028.4620,0.062644
3030.3257,0.062256
3032.1893,0.062322
3034.0530,0.062343
3035.9167,0.062324
3037.7803,0.062636
3039.6440,0.063006
3041.5077,0.063220
3043.3713,0.063498
3045.2350,0.063873
3047.0987,0.063931
3048.9624,0.063547
3050.8260,0.063356
3052.6897,0.063623
3054.5534,0.064016
3056.4170,0.064041
3058.2807,0.063998
3060.1444,0.063906
3062.0080,0.063960
3063.8717,0.064116
3065.7354,0.064475
3067.5990,0.064697
3069.4627,0.064517
3071.3264,0.064515
3073.1900,0.064642
3075.0537,0.064255
3076.9174,0.064196
3078.7811,0.064307
3080.6447,0.064139
3082.5084,0.063847
3084.3721,0.063793
3086.2357,0.063744
3088.0994,0.063316
3089.9631,0.062914
3091.8267,0.062718
3093.6904,0.062563
3095.5541,0.062624
3097.4177,0.062339
3099.2814,0.061803
3101.1451,0.061527
3103.0087,0.061398
3104.8724,0.061120
3106.7361,0.060784
3108.5998,0.060534
3110.4634,0.060452
3112.3271,0.060003
3114.1908,0.059371
3116.0544,0.058951
3117.9181,0.058857
3119.7818,0.058745
3121.6454,0.058422
3123.5091,0.058131
3125.3728,0.057916
3127.2364,0.057758
3129.1001,0.057480
3130.9638,0.057131
3132.8275,0.056963
3134.6911,0.056787
3136.5548,0.056749
3138.4185,0.056718
3140.2821,0.056345
3142.1458,0.055977
3144.0095,0.055690
3145.8731,0.055359
3147.7368,0.055179
3149.6005,0.055102
3151.4641,0.054963
3153.3278,0.055084
3155.1915,0.055146
3157.0551,0.055028
3158.9188,0.054848
3160.7825,0.054269
3162.6462,0.054106
3164.5098,0.054306
3166.3735,0.054213
3168.2372,0.053938
3170.1008,0.053640
3171.9645,0.053177
3173.8282,0.052941
3175.6918,0.052935
3177.5555,0.053057
3179.4192,0.052939
3181.2828,0.052555
3183.1465,0.052274
3185.0102,0.052220
3186.8739,0.052597
3188.7375,0.052664
3190.6012,0.052542
3192.4649,0.052781
3194.3285,0.052857
3196.1922,0.052602
3198.0559,0.052288
3199.9195,0.052314
3201.7832,0.052409
3203.6469,0.052350
3205.5105,0.052382
3207.3742,0.052791
3209.2379,0.053169
3211.1015,0.053313
3212.9652,0.053114
3214.8289,0.053085
3216.6926,0.053525
3218.5562,0.053541
3220.4199,0.053191
3222.2836,0.053213
3224.1472,0.053148
3226.0109,0.052927
3227.8746,0.052953
3229.7382,0.053219
3231.6019,0.053833
3233.4656,0.054474
3235.3292,0.054090
3237.1929,0.053563
3239.0566,0.053480
3240.9202,0.053645
3242.7839,0.054194
3244.6476,0.054166
3246.5113,0.053903
3248.3749,0.054479
3250.2386,0.055283
3252.1023,0.055036
3253.9659,0.054243
3255.8296,0.054416
3257.6933,0.055028
3259.5569,0.055348
3261.4206,0.055543
3263.2843,0.055427
3265.1479,0.055152
3267.0116,0.055274
3268.8753,0.055314
3270.7390,0.055212
3272.6026,0.055317
3274.4663,0.055637
3276.3300,0.055250
3278.1936,0.054850
3280.0573,0.055186
3281.9210,0.054720
3283.7846,0.054177
3285.6483,0.054408
3287.5120,0.054471
3289.3756,0.053979
3291.2393,0.053464
3293.1030,0.053469
3294.9666,0.053418
3296.8303,0.053066
3298.6940,0.052609
3300.5577,0.052114
3302.4213,0.051301
3304.2850,0.051118
3306.1487,0.051443
3308.0123,0.051059
3309.8760,0.050839
3311.7397,0.050902
3313.6033,0.049882
3315.4670,0.049035
3317.3307,0.049595
3319.1943,0.050495
3321.0580,0.050551
3322.9217,0.050516
3324.7854,0.050537
3326.6490,0.050159
3328.5127,0.050027
3330.3764,0.050213
3332.2400,0.050559
3334.1037,0.050617
3335.9674,0.050237
3337.8310,0.049496
3339.6947,0.048704
3341.5584,0.048747
3343.4220,0.049170
3345.2857,0.048936
3347.1494,0.047874
3349.0130,0.046345
3350.8767,0.045836
3352.7404,0.046631
3354.6041,0.046316
3356.4677,0.044931
3358.3314,0.044113
3360.1951,0.043777
3362.0587,0.043662
3363.9224,0.043083
3365.7861,0.042162
3367.6497,0.041944
3369.5134,0.041587
3371.3771,0.041136
3373.2407,0.041330
3375.1044,0.041446
3376.9681,0.041247
3378.8317,0.041343
3380.6954,0.041518
3382.5591,0.041543
3384.4228,0.041945
3386.2864,0.041931
3388.1501,0.041615
3390.0138,0.041752
3391.8774,0.041785
3393.7411,0.042205
3395.6048,0.042600
3397.4684,0.041630
3399.3321,0.040751
3401.1958,0.040946
3403.0594,0.040920
3404.9231,0.040591
3406.7868,0.040603
3408.6505,0.040674
3410.5141,0.039895
3412.3778,0.038159
3414.2415,0.036862
3416.1051,0.036862
3417.9688,0.036707
3419.8325,0.035190
3421.6961,0.034289
3423.5598,0.034300
3425.4235,0.033353
3427.2871,0.032371
3429.1508,0.032092
3431.0145,0.031315
3432.8781,0.030773
3434.7418,0.030940
3436.6055,0.031159
3438.4692,0.030977
3440.3328,0.030173
3442.1965,0.029497
3444.0602,0.029107
3445.9238,0.029301
3447.7875,0.029565
3449.6512,0.028626
3451.5148,0.027369
3453.3785,0.027094
3455.2422,0.027475
3457.1058,0.027730
3458.9695,0.027666
3460.8332,0.026644
3462.6969,0.025746
3464.5605,0.026041
3466.4242,0.026140
3468.2879,0.025788
3470.1515,0.025521
3472.0152,0.025435
3473.8789,0.025477
3475.7425,0.025745
3477.6062,0.025618
3479.4699,0.024602
3481.3335,0.024526
3483.1972,0.024638
3485.0609,0.024400
3486.9245,0.024420
3488.7882,0.023637
3490.6519,0.023125
3492.5156,0.023242
3494.3792,0.023388
3496.2429,0.023787
3498.1066,0.022581
3499.9702,0.022218
3501.8339,0.022971
3503.6976,0.022638
3505.5612,0.022958
3507.4249,0.022357
3509.2886,0.020742
3511.1522,0.020696
3513.0159,0.021245
3514.8796,0.020991
3516.7432,0.021140
3518.6069,0.021512
3520.4706,0.020710
3522.3343,0.020541
3524.1979,0.020380
3526.0616,0.019560
3527.9253,0.020071
3529.7889,0.019911
3531.6526,0.019008
3533.5163,0.019020
3535.3799,0.018437
3537.2436,0.018072
3539.1073,0.019012
3540.9709,0.019716
3542.8346,0.019931
3544.6983,0.019872
3546.5620,0.019494
3548.4256,0.019036
3550.2893,0.019096
3552.1530,0.019655
3554.0166,0.019356
3555.8803,0.018271
3557.7440,0.017834
3559.6076,0.017589
3561.4713,0.017543
3563.3350,0.018313
3565.1986,0.018282
3567.0623,0.018210
3568.9260,0.018661
3570.7896,0.018107
3572.6533,0.018547
3574.5170,0.019208
3576.3807,0.018404
3578.2443,0.017457
3580.1080,0.017347
3581.9717,0.017581
3583.8353,0.017406
3585.6990,0.017512
3587.5627,0.017536
3589.4263,0.017044
3591.2900,0.016413
3593.1537,0.016808
3595.0173,0.018184
3596.8810,0.018592
3598.7447,0.018276
3600.6084,0.017803
3602.4720,0.017275
3604.3357,0.017368
3606.1994,0.017621
3608.0630,0.017021
3609.9267,0.016978
3611.7904,0.017723
3613.6540,0.018059
3615.5177,0.018015
3617.3814,0.017803
3619.2450,0.018301
3621.1087,0.018061
3622.9724,0.017083
3624.8360,0.016831
3626.6997,0.017014
3628.5634,0.017537
3630.4271,0.018007
3632.2907,0.018490
3634.1544,0.018953
3636.0181,0.018781
3637.8817,0.018077
3639.7454,0.017981
3641.6091,0.018621
3643.4727,0.018960
3645.3364,0.018551
3647.2001,0.018241
3649.0637,0.019324
3650.9274,0.020361
3652.7911,0.020222
3654.6547,0.020303
3656.5184,0.021145
3658.3821,0.022442
3660.2458,0.022550
3662.1094,0.022815
3663.9731,0.023880
3665.8368,0.024890
3667.7004,0.027290
3669.5641,0.031884
3671.4278,0.039325
3673.2914,0.045918
3675.1551,0.048310
3677.0188,0.042483
3678.8824,0.026755
3680.7461,0.017650
3682.6098,0.013908
3684.4735,0.013726
3686.3371,0.014331
3688.2008,0.015094
3690.0645,0.014887
3691.9281,0.014608
3693.7918,0.015533
3695.6555,0.016254
3697.5191,0.016618
3699.3828,0.016491
3701.2465,0.016523
3703.1101,0.016519
3704.9738,0.016012
3706.8375,0.015326
3708.7011,0.014968
3710.5648,0.015656
3712.4285,0.016982
3714.2922,0.017243
3716.1558,0.016989
3718.0195,0.016653
3719.8832,0.016143
3721.7468,0.016288
3723.6105,0.016409
3725.4742,0.016341
3727.3378,0.016309
3729.2015,0.016543
3731.0652,0.016686
3732.9288,0.016597
3734.7925,0.016285
3736.6562,0.016653
3738.5199,0.016602
3740.3835,0.015938
3742.2472,0.016081
3744.1109,0.016606
3745.9745,0.016593
3747.8382,0.016452
3749.7019,0.016484
3751.5655,0.017342
3753.4292,0.018146
3755.2929,0.017543
3757.1565,0.017304
3759.0202,0.017960
3760.8839,0.018320
3762.7475,0.018231
3764.6112,0.017909
3766.4749,0.017823
3768.3386,0.018393
3770.2022,0.018896
3772.0659,0.018623
3773.9296,0.018018
3775.7932,0.017901
3777.6569,0.017883
3779.5206,0.018483
3781.3842,0.018907
3783.2479,0.018544
3785.1116,0.018506
3786.9752,0.018240
3788.8389,0.017617
3790.7026,0.018017
3792.5662,0.018417
3794.4299,0.018248
3796.2936,0.018520
3798.1573,0.018536
3800.0209,0.018168
3801.8846,0.018798
3803.7483,0.019043
3805.6119,0.018582
3807.4756,0.019008
3809.3393,0.019206
3811.2029,0.018044
3813.0666,0.017667
3814.9303,0.017918
3816.7939,0.017746
3818.6576,0.018213
3820.5213,0.019240
3822.3850,0.019536
3824.2486,0.019282
3826.1123,0.018665
3827.9760,0.018192
3829.8396,0.018207
3831.7033,0.018423
3833.5670,0.018610
3835.4306,0.018449
3837.2943,0.018569
3839.1580,0.019842
3841.0216,0.019932
3842.8853,0.019273
3844.7490,0.018973
3846.6126,0.018507
3848.4763,0.018397
3850.3400,0.018397
3852.2037,0.018390
3854.0673,0.019435
3855.9310,0.020768
3857.7947,0.019553
3859.6583,0.018314
3861.5220,0.017959
3863.3857,0.017903
3865.2493,0.018437
3867.1130,0.018918
3868.9767,0.018641
3870.8403,0.018753
3872.7040,0.019531
3874.5677,0.018964
3876.4314,0.018793
3878.2950,0.019167
3880.1587,0.019425
3882.0224,0.019547
3883.8860,0.019535
3885.7497,0.019904
3887.6134,0.019981
3889.4770,0.019232
3891.3407,0.018995
3893.2044,0.019710
3895.0680,0.019936
3896.9317,0.019012
3898.7954,0.018974
3900.6590,0.020152
3902.5227,0.020373
3904.3864,0.020254
3906.2501,0.020386
3908.1137,0.020239
3909.9774,0.020157
3911.8411,0.019971
3913.7047,0.020136
3915.5684,0.019987
3917.4321,0.019931
3919.2957,0.020185
3921.1594,0.019976
3923.0231,0.019514
3924.8867,0.019589
3926.7504,0.020018
3928.6141,0.020181
3930.4777,0.020101
3932.3414,0.020426
3934.2051,0.020725
3936.0688,0.020501
3937.9324,0.020025
3939.7961,0.020132
3941.6598,0.020415
3943.5234,0.020480
3945.3871,0.020577
3947.2508,0.020185
3949.1144,0.020046
3950.9781,0.020240
3952.8418,0.020251
3954.7054,0.020983
3956.5691,0.021251
3958.4328,0.020716
3960.2965,0.020636
3962.1601,0.021129
3964.0238,0.020940
3965.8875,0.020618
3967.7511,0.020347
3969.6148,0.020016
3971.4785,0.019701
3973.3421,0.020124
3975.2058,0.020681
3977.0695,0.021004
3978.9331,0.021021
3980.7968,0.020509
3982.6605,0.020772
3984.5241,0.021439
3986.3878,0.021146
3988.2515,0.021122
3990.1152,0.021000
3991.9788,0.020537
3993.8425,0.020726
3995.7062,0.020871
3997.5698,0.020667
3999.4335,0.020964
