Wavenumber,Intensity
650.4205,0.169623
652.2841,0.168719
654.1478,0.168910
656.0115,0.168630
657.8751,0.171381
659.7388,0.173435
661.6025,0.176741
663.4661,0.179755
665.3298,0.182428
667.1935,0.185382
669.0571,0.188026
670.9208,0.182076
672.7845,0.175332
674.6481,0.168729
676.5118,0.165406
678.3755,0.161846
680.2392,0.158961
682.1028,0.157241
683.9665,0.157176
685.8302,0.154669
687.6938,0.153352
689.5575,0.152212
691.4212,0.150434
693.2848,0.148645
695.1485,0.147492
697.0122,0.145720
698.8758,0.145744
700.7395,0.146382
702.6032,0.147322
704.4669,0.146788
706.3305,0.144417
708.1942,0.139865
710.0579,0.135570
711.9215,0.131441
713.7852,0.127510
715.6489,0.123989
717.5125,0.120847
719.3762,0.118117
721.2399,0.116078
723.1035,0.114281
724.9672,0.112465
726.8309,0.110658
728.6945,0.109445
730.5582,0.108265
732.4219,0.107298
734.2856,0.105782
736.1492,0.102410
738.0129,0.097205
739.8766,0.092847
741.7402,0.089810
743.6039,0.087544
745.4676,0.084515
747.3312,0.080553
749.1949,0.076830
751.0586,0.074196
752.9222,0.072637
754.7859,0.072294
756.6496,0.072499
758.5132,0.072028
760.3769,0.071418
762.2406,0.071465
764.1043,0.071286
765.9679,0.070950
767.8316,0.071020
769.6953,0.071489
771.5589,0.071494
773.4226,0.071542
775.2863,0.072338
777.1499,0.073658
779.0136,0.074879
780.8773,0.076274
782.7409,0.077447
784.6046,0.078489
786.4683,0.079307
788.3320,0.080490
790.1956,0.082149
792.0593,0.083902
793.9230,0.085646
795.7866,0.087225
797.6503,0.088546
799.5140,0.089993
801.3776,0.090785
803.2413,0.091428
805.1050,0.091769
806.9686,0.091230
808.8323,0.090008
810.6960,0.088892
812.5596,0.087540
814.4233,0.085678
816.2870,0.083907
818.1507,0.082341
820.0143,0.080816
821.8780,0.079753
823.7417,0.079422
825.6053,0.080069
827.4690,0.081932
829.3327,0.083184
831.1963,0.080177
833.0600,0.073048
834.9237,0.066774
836.7873,0.063986
838.6510,0.063307
840.5147,0.063505
842.3784,0.064631
844.2420,0.066789
846.1057,0.068789
847.9694,0.068354
849.8330,0.065554
851.6967,0.063314
853.5604,0.062821
855.4240,0.063140
857.2877,0.063437
859.1514,0.064000
861.0150,0.064638
862.8787,0.065042
864.7424,0.065408
866.6060,0.066148
868.4697,0.066765
870.3334,0.067157
872.1971,0.067812
874.0607,0.068738
875.9244,0.069701
877.7881,0.070823
879.6517,0.072170
881.5154,0.073719
883.3791,0.075568
885.2427,0.077597
887.1064,0.080079
888.9701,0.083175
890.8337,0.086056
892.6974,0.087376
894.5611,0.085508
896.4247,0.082124
898.2884,0.080300
900.1521,0.080759
902.0158,0.082706
903.8794,0.085571
905.7431,0.089089
907.6068,0.093352
909.4704,0.097973
911.3341,0.102905
913.1978,0.108168
915.0614,0.110611
916.9251,0.105275
918.7888,0.095399
920.6524,0.088267
922.5161,0.085749
924.3798,0.085519
926.2435,0.086130
928.1071,0.087257
929.9708,0.088498
931.8345,0.089689
933.6981,0.091020
935.5618,0.092272
937.4255,0.093537
939.2891,0.094743
941.1528,0.096116
943.0165,0.097706
944.8801,0.099316
946.7438,0.100970
948.6075,0.102922
950.4711,0.104984
952.3348,0.107163
954.1985,0.109777
956.0622,0.112567
957.9258,0.115118
959.7895,0.117199
961.6532,0.117978
963.5168,0.117577
965.3805,0.117238
967.2442,0.118047
969.1078,0.120172
970.9715,0.123033
972.8352,0.126464
974.6988,0.131703
976.5625,0.139940
978.4262,0.152708
980.2899,0.169516
982.1535,0.177136
984.0172,0.161613
985.8809,0.140383
987.7445,0.131494
989.6082,0.131397
991.4719,0.133195
993.3355,0.135126
995.1992,0.137223
997.0629,0.139331
998.9265,0.141388
1000.7902,0.143559
1002.6539,0.145743
1004.5175,0.147945
1006.3812,0.150182
1008.2449,0.152306
1010.1086,0.153936
1011.9722,0.155084
1013.8359,0.155778
1015.6996,0.155797
1017.5632,0.155145
1019.4269,0.154134
1021.2906,0.152701
1023.1542,0.151058
1025.0179,0.149386
1026.8816,0.147957
1028.7452,0.146964
1030.6089,0.146366
1032.4726,0.145889
1034.3362,0.144839
1036.1999,0.142102
1038.0636,0.137309
1039.9273,0.132171
1041.7909,0.128997
1043.6546,0.128126
1045.5183,0.127635
1047.3819,0.125263
1049.2456,0.120330
1051.1093,0.112930
1052.9729,0.104426
1054.8366,0.097455
1056.7003,0.093271
1058.5639,0.091320
1060.4276,0.090833
1062.2913,0.090812
1064.1550,0.091002
1066.0186,0.091794
1067.8823,0.092963
1069.7460,0.094428
1071.6096,0.096259
1073.4733,0.098097
1075.3370,0.099771
1077.2006,0.101359
1079.0643,0.102927
1080.9280,0.104554
1082.7916,0.106362
1084.6553,0.108409
1086.5190,0.110688
1088.3826,0.113155
1090.2463,0.116172
1092.1100,0.119746
1093.9737,0.123673
1095.8373,0.127780
1097.7010,0.131860
1099.5647,0.135480
1101.4283,0.138304
1103.2920,0.140291
1105.1557,0.141558
1107.0193,0.141207
1108.8830,0.137772
1110.7467,0.130757
1112.6103,0.121278
1114.4740,0.110989
1116.3377,0.101312
1118.2014,0.093104
1120.0650,0.086863
1121.9287,0.082685
1123.7924,0.080043
1125.6560,0.078194
1127.5197,0.076557
1129.3834,0.074964
1131.2470,0.073540
1133.1107,0.072378
1134.9744,0.071609
1136.8380,0.071225
1138.7017,0.071112
1140.5654,0.071168
1142.4290,0.071514
1144.2927,0.072085
1146.1564,0.072519
1148.0201,0.072879
1149.8837,0.073378
1151.7474,0.073825
1153.6111,0.074338
1155.4747,0.075057
1157.3384,0.075860
1159.2021,0.076680
1161.0657,0.077595
1162.9294,0.078820
1164.7931,0.080461
1166.6567,0.082521
1168.5204,0.084993
1170.3841,0.087495
1172.2477,0.089227
1174.1114,0.089073
1175.9751,0.086698
1177.8388,0.083273
1179.7024,0.080266
1181.5661,0.078319
1183.4298,0.077231
1185.2934,0.076570
1187.1571,0.076031
1189.0208,0.075473
1190.8844,0.074947
1192.7481,0.074431
1194.6118,0.073968
1196.4754,0.073771
1198.3391,0.073790
1200.2028,0.073957
1202.0665,0.074166
1203.9301,0.074231
1205.7938,0.074034
1207.6575,0.073673
1209.5211,0.073274
1211.3848,0.072815
1213.2485,0.072150
1215.1121,0.071368
1216.9758,0.070485
1218.8395,0.069374
1220.7031,0.068202
1222.5668,0.067076
1224.4305,0.065989
1226.2941,0.064849
1228.1578,0.063811
1230.0215,0.062853
1231.8852,0.061790
1233.7488,0.060641
1235.6125,0.059430
1237.4762,0.058340
1239.3398,0.057538
1241.2035,0.057245
1243.0672,0.057615
1244.9308,0.058478
1246.7945,0.059327
1248.6582,0.059850
1250.5218,0.059905
1252.3855,0.059326
1254.2492,0.058404
1256.1129,0.057731
1257.9765,0.057575
1259.8402,0.057929
1261.7039,0.058458
1263.5675,0.059036
1265.4312,0.059581
1267.2949,0.059782
1269.1585,0.059724
1271.0222,0.059699
1272.8859,0.059759
1274.7495,0.059901
1276.6132,0.060304
1278.4769,0.060946
1280.3405,0.061877
1282.2042,0.062993
1284.0679,0.064262
1285.9316,0.065719
1287.7952,0.067506
1289.6589,0.069639
1291.5226,0.072196
1293.3862,0.075385
1295.2499,0.079447
1297.1136,0.084485
1298.9772,0.090616
1300.8409,0.097867
1302.7046,0.104733
1304.5682,0.107937
1306.4319,0.104957
1308.2956,0.094811
1310.1592,0.079307
1312.0229,0.064335
1313.8866,0.054697
1315.7503,0.050774
1317.6139,0.050308
1319.4776,0.051497
1321.3413,0.053038
1323.2049,0.054605
1325.0686,0.056347
1326.9323,0.058089
1328.7959,0.059757
1330.6596,0.061346
1332.5233,0.062695
1334.3869,0.063529
1336.2506,0.064299
1338.1143,0.065940
1339.9780,0.068552
1341.8416,0.070014
1343.7053,0.070237
1345.5690,0.069981
1347.4326,0.069570
1349.2963,0.069616
1351.1600,0.070128
1353.0236,0.071079
1354.8873,0.072664
1356.7510,0.074057
1358.6146,0.075083
1360.4783,0.076813
1362.3420,0.080336
1364.2056,0.083245
1366.0693,0.084378
1367.9330,0.086454
1369.7967,0.089085
1371.6603,0.091045
1373.5240,0.094502
1375.3877,0.098525
1377.2513,0.100955
1379.1150,0.104186
1380.9787,0.108471
1382.8423,0.113113
1384.7060,0.118714
1386.5697,0.126450
1388.4333,0.133411
1390.2970,0.134723
1392.1607,0.134812
1394.0244,0.135341
1395.8880,0.132500
1397.7517,0.126762
1399.6154,0.120390
1401.4790,0.113721
1403.3427,0.108442
1405.2064,0.100728
1407.0700,0.088840
1408.9337,0.076790
1410.7974,0.065890
1412.6610,0.057984
1414.5247,0.053945
1416.3884,0.053532
1418.2520,0.057647
1420.1157,0.064946
1421.9794,0.067925
1423.8431,0.067670
1425.7067,0.062710
1427.5704,0.056042
1429.4341,0.051018
1431.2977,0.047853
1433.1614,0.046429
1435.0251,0.046890
1436.8887,0.049666
1438.7524,0.051020
1440.6161,0.051228
1442.4797,0.052282
1444.3434,0.053227
1446.2071,0.054263
1448.0707,0.055368
1449.9344,0.054883
1451.7981,0.053262
1453.6618,0.051722
1455.5254,0.052413
1457.3891,0.057550
1459.2528,0.057066
1461.1164,0.053742
1462.9801,0.052903
1464.8438,0.053848
1466.7074,0.053270
1468.5711,0.051418
1470.4348,0.050493
1472.2984,0.051757
1474.1621,0.052855
1476.0258,0.052625
1477.8895,0.052262
1479.7531,0.052057
1481.6168,0.052574
1483.4805,0.052691
1485.3441,0.052581
1487.2078,0.053666
1489.0715,0.056395
1490.9351,0.058840
1492.7988,0.058171
1494.6625,0.058224
1496.5261,0.061007
1498.3898,0.063793
1500.2535,0.064230
1502.1171,0.063787
1503.9808,0.063477
1505.8445,0.066469
1507.7082,0.074560
1509.5718,0.072641
1511.4355,0.070517
1513.2992,0.069608
1515.1628,0.069335
1517.0265,0.070034
1518.8902,0.069575
1520.7538,0.070845
1522.6175,0.073266
1524.4812,0.072814
1526.3448,0.073241
1528.2085,0.073189
1530.0722,0.071917
1531.9359,0.072319
1533.7995,0.074538
1535.6632,0.073551
1537.5269,0.072493
1539.3905,0.076249
1541.2542,0.082812
1543.1179,0.082793
1544.9815,0.083331
1546.8452,0.083342
1548.7089,0.084042
1550.5725,0.086323
1552.4362,0.087469
1554.2999,0.088368
1556.1635,0.089824
1558.0272,0.095905
1559.8909,0.108445
1561.7546,0.102897
1563.6182,0.101044
1565.4819,0.103053
1567.3456,0.105368
1569.2092,0.109560
1571.0729,0.113049
1572.9366,0.112726
1574.8002,0.115483
1576.6639,0.122679
1578.5276,0.124221
1580.3912,0.123962
1582.2549,0.125824
1584.1186,0.127732
1585.9822,0.128830
1587.8459,0.129137
1589.7096,0.128946
1591.5733,0.128347
1593.4369,0.127625
1595.3006,0.126727
1597.1643,0.125451
1599.0279,0.123857
1600.8916,0.122516
1602.7553,0.121471
1604.6189,0.120547
1606.4826,0.119675
1608.3463,0.119143
1610.2099,0.118256
1612.0736,0.116518
1613.9373,0.114253
1615.8010,0.112618
1617.6646,0.107289
1619.5283,0.099410
1621.3920,0.094658
1623.2556,0.090359
1625.1193,0.083885
1626.9830,0.078403
1628.8466,0.072046
1630.7103,0.065196
1632.5740,0.059598
1634.4376,0.055383
1636.3013,0.050530
1638.1650,0.045820
1640.0286,0.043658
1641.8923,0.042384
1643.7560,0.041960
1645.6197,0.043136
1647.4833,0.045258
1649.3470,0.045532
1651.2107,0.046566
1653.0743,0.051878
1654.9380,0.055103
1656.8017,0.053474
1658.6653,0.053672
1660.5290,0.054534
1662.3927,0.055231
1664.2563,0.054546
1666.1200,0.053301
1667.9837,0.052993
1669.8474,0.052893
1671.7110,0.051981
1673.5747,0.052138
1675.4384,0.054166
1677.3020,0.055720
1679.1657,0.056773
1681.0294,0.059152
1682.8930,0.062724
1684.7567,0.067872
1686.6204,0.067845
1688.4840,0.066692
1690.3477,0.065864
1692.2114,0.063734
1694.0750,0.062057
1695.9387,0.060672
1697.8024,0.057701
1699.6661,0.055974
1701.5297,0.051112
1703.3934,0.046056
1705.2571,0.041972
1707.1207,0.035833
1708.9844,0.031201
1710.8481,0.027838
1712.7117,0.025079
1714.5754,0.023373
1716.4391,0.022246
1718.3027,0.021196
1720.1664,0.019936
1722.0301,0.019166
1723.8937,0.018201
1725.7574,0.016701
1727.6211,0.015427
1729.4848,0.014474
1731.3484,0.013481
1733.2121,0.012893
1735.0758,0.012306
1736.9394,0.011718
1738.8031,0.011636
1740.6668,0.011385
1742.5304,0.011034
1744.3941,0.010789
1746.2578,0.010517
1748.1214,0.010378
1749.9851,0.010294
1751.8488,0.009987
1753.7125,0.009899
1755.5761,0.010032
1757.4398,0.009840
1759.3035,0.009691
1761.1671,0.009895
1763.0308,0.009807
1764.8945,0.009627
1766.7581,0.009793
1768.6218,0.009867
1770.4855,0.009712
1772.3491,0.009758
1774.2128,0.009563
1776.0765,0.009409
1777.9401,0.009624
1779.8038,0.009879
1781.6675,0.009711
1783.5312,0.009571
1785.3948,0.009751
1787.2585,0.009747
1789.1222,0.009699
1790.9858,0.009838
1792.8495,0.009788
1794.7132,0.009726
1796.5768,0.009868
1798.4405,0.009990
1800.3042,0.010106
1802.1678,0.010077
1804.0315,0.009974
1805.8952,0.010037
1807.7589,0.010152
1809.6225,0.010289
1811.4862,0.010328
1813.3499,0.010132
1815.2135,0.010039
1817.0772,0.010165
1818.9409,0.010282
1820.8045,0.010266
1822.6682,0.010314
1824.5319,0.010302
1826.3955,0.009890
1828.2592,0.009834
1830.1229,0.010047
1831.9865,0.009824
1833.8502,0.009753
1835.7139,0.009939
1837.5776,0.009942
1839.4412,0.009794
1841.3049,0.009788
1843.1686,0.009924
1845.0322,0.009796
1846.8959,0.009643
1848.7596,0.009747
1850.6232,0.009815
1852.4869,0.009879
1854.3506,0.010063
1856.2142,0.010268
1858.0779,0.010160
1859.9416,0.009980
1861.8052,0.010098
1863.6689,0.010094
1865.5326,0.009827
1867.3963,0.009695
1869.2599,0.009774
1871.1236,0.009896
1872.9873,0.009773
1874.8509,0.009668
1876.7146,0.009960
1878.5783,0.010161
1880.4419,0.009987
1882.3056,0.009891
1884.1693,0.010152
1886.0329,0.010316
1887.8966,0.010313
1889.7603,0.010128
1891.6240,0.009826
1893.4876,0.009949
1895.3513,0.009917
1897.2150,0.009745
1899.0786,0.009683
1900.9423,0.009944
1902.8060,0.010368
1904.6696,0.010167
1906.5333,0.010043
1908.3970,0.010462
1910.2606,0.010623
1912.1243,0.010049
1913.9880,0.009640
1915.8516,0.009917
1917.7153,0.010275
1919.5790,0.010045
1921.4427,0.009757
1923.3063,0.009738
1925.1700,0.009439
1927.0337,0.009399
1928.8973,0.009707
1930.7610,0.009813
1932.6247,0.009746
1934.4883,0.009584
1936.3520,0.009422
1938.2157,0.009168
1940.0793,0.008835
1941.9430,0.008542
1943.8067,0.008661
1945.6704,0.009001
1947.5340,0.008523
1949.3977,0.007904
1951.2614,0.007506
1953.1250,0.007060
1954.9887,0.007257
1956.8524,0.007403
1958.7160,0.006836
1960.5797,0.006207
1962.4434,0.004967
1964.3070,0.003674
1966.1707,0.002754
1968.0344,0.002364
1969.8980,0.003135
1971.7617,0.003647
1973.6254,0.004165
1975.4891,0.004437
1977.3527,0.003729
1979.2164,0.003683
1981.0801,0.003423
1982.9437,0.003367
1984.8074,0.004142
1986.6711,0.004157
1988.5347,0.004847
1990.3984,0.006139
1992.2621,0.005685
1994.1257,0.004932
1995.9894,0.005977
1997.8531,0.006959
1999.7167,0.006601
2001.5804,0.006082
2003.4441,0.005278
2005.3078,0.004565
2007.1714,0.004534
2009.0351,0.003742
2010.8988,0.003049
2012.7624,0.003687
2014.6261,0.003009
2016.4898,0.001488
2018.3534,0.001027
2020.2171,0.000801
2022.0808,0.001351
2023.9444,0.003082
2025.8081,0.004183
2027.6718,0.003147
2029.5355,0.002348
2031.3991,0.003621
2033.2628,0.003676
2035.1265,0.002700
2036.9901,0.002825
2038.8538,0.003536
2040.7175,0.004790
2042.5811,0.005576
2044.4448,0.004662
2046.3085,0.004273
2048.1721,0.005908
2050.0358,0.006655
2051.8995,0.006402
2053.7631,0.007142
2055.6268,0.008101
2057.4905,0.008546
2059.3542,0.008553
2061.2178,0.008614
2063.0815,0.009157
2064.9452,0.009480
2066.8088,0.009174
2068.6725,0.008837
2070.5362,0.009134
2072.3998,0.009758
2074.2635,0.009508
2076.1272,0.009572
2077.9908,0.010337
2079.8545,0.010202
2081.7182,0.010126
2083.5819,0.010692
2085.4455,0.011157
2087.3092,0.010894
2089.1729,0.010137
2091.0365,0.010331
2092.9002,0.010690
2094.7639,0.010711
2096.6275,0.010649
2098.4912,0.010798
2100.3549,0.011307
2102.2185,0.010984
2104.0822,0.010292
2105.9459,0.010904
2107.8095,0.011973
2109.6732,0.011725
2111.5369,0.011397
2113.4006,0.012162
2115.2642,0.012435
2117.1279,0.011838
2118.9916,0.011621
2120.8552,0.011648
2122.7189,0.011501
2124.5826,0.011714
2126.4462,0.011565
2128.3099,0.010662
2130.1736,0.009891
2132.0372,0.009999
2133.9009,0.010722
2135.7646,0.010350
2137.6282,0.008990
2139.4919,0.008505
2141.3556,0.008350
2143.2193,0.007499
2145.0829,0.007487
2146.9466,0.007862
2148.8103,0.007511
2150.6739,0.007029
2152.5376,0.006494
2154.4013,0.005433
2156.2649,0.003487
2158.1286,0.002463
2159.9923,0.003073
2161.8559,0.003606
2163.7196,0.004308
2165.5833,0.004846
2167.4470,0.004592
2169.3106,0.004299
2171.1743,0.004690
2173.0380,0.005708
2174.9016,0.006199
2176.7653,0.006225
2178.6290,0.006360
2180.4926,0.007123
2182.3563,0.007030
2184.2200,0.007491
2186.0836,0.008738
2187.9473,0.008039
2189.8110,0.007702
2191.6746,0.008703
2193.5383,0.009303
2195.4020,0.008477
2197.2657,0.007658
2199.1293,0.008945
2200.9930,0.010354
2202.8567,0.010082
2204.7203,0.009313
2206.5840,0.009658
2208.4477,0.011088
2210.3113,0.011542
2212.1750,0.010702
2214.0387,0.010528
2215.9023,0.010347
2217.7660,0.010055
2219.6297,0.010959
2221.4934,0.011885
2223.3570,0.011830
2225.2207,0.011564
2227.0844,0.011480
2228.9480,0.011585
2230.8117,0.011675
2232.6754,0.012072
2234.5390,0.013071
2236.4027,0.013328
2238.2664,0.012626
2240.1300,0.012563
2241.9937,0.012911
2243.8574,0.013191
2245.7210,0.013312
2247.5847,0.013053
2249.4484,0.012991
2251.3121,0.013440
2253.1757,0.014166
2255.0394,0.014485
2256.9031,0.014758
2258.7667,0.014841
2260.6304,0.014602
2262.4941,0.014280
2264.3577,0.013854
2266.2214,0.014062
2268.0851,0.015364
2269.9487,0.015978
2271.8124,0.015273
2273.6761,0.014958
2275.5397,0.015408
2277.4034,0.015673
2279.2671,0.015951
2281.1308,0.016387
2282.9944,0.016698
2284.8581,0.016958
2286.7218,0.017134
2288.5854,0.017002
2290.4491,0.017000
2292.3128,0.017109
2294.1764,0.016974
2296.0401,0.016791
2297.9038,0.016889
2299.7674,0.017262
2301.6311,0.017545
2303.4948,0.017718
2305.3585,0.017711
2307.2221,0.017494
2309.0858,0.017412
2310.9495,0.017485
2312.8131,0.017692
2314.6768,0.017732
2316.5405,0.017446
2318.4041,0.017490
2320.2678,0.017947
2322.1315,0.018344
2323.9951,0.018332
2325.8588,0.017964
2327.7225,0.017581
2329.5861,0.017284
2331.4498,0.017288
2333.3135,0.017356
2335.1772,0.017161
2337.0408,0.016893
2338.9045,0.017033
2340.7682,0.017473
2342.6318,0.017833
2344.4955,0.018095
2346.3592,0.017934
2348.2228,0.017149
2350.0865,0.016663
2351.9502,0.016757
2353.8138,0.016916
2355.6775,0.017023
2357.5412,0.017281
2359.4049,0.017423
2361.2685,0.017156
2363.1322,0.017053
2364.9959,0.017031
2366.8595,0.016829
2368.7232,0.017282
2370.5869,0.017604
2372.4505,0.017566
2374.3142,0.017784
2376.1779,0.017803
2378.0415,0.017617
2379.9052,0.017532
2381.7689,0.017433
2383.6325,0.017756
2385.4962,0.017810
2387.3599,0.017343
2389.2236,0.017301
2391.0872,0.017469
2392.9509,0.017689
2394.8146,0.017822
2396.6782,0.017737
2398.5419,0.017740
2400.4056,0.017620
2402.2692,0.017601
2404.1329,0.017999
2405.9966,0.018022
2407.8602,0.017849
2409.7239,0.018028
2411.5876,0.018085
2413.4512,0.018074
2415.3149,0.018174
2417.1786,0.018204
2419.0423,0.018292
2420.9059,0.018349
2422.7696,0.018412
2424.6333,0.018509
2426.4969,0.018429
2428.3606,0.018180
2430.2243,0.018161
2432.0879,0.018492
2433.9516,0.018836
2435.8153,0.018826
2437.6789,0.018437
2439.5426,0.018313
2441.4063,0.018934
2443.2700,0.019303
2445.1336,0.018874
2446.9973,0.018596
2448.8610,0.018614
2450.7246,0.019018
2452.5883,0.019174
2454.4520,0.018885
2456.3156,0.018728
2458.1793,0.018646
2460.0430,0.018590
2461.9066,0.018606
2463.7703,0.018517
2465.6340,0.018680
2467.4976,0.019028
2469.3613,0.019050
2471.2250,0.018888
2473.0887,0.019197
2474.9523,0.019362
2476.8160,0.018966
2478.6797,0.018762
2480.5433,0.018789
2482.4070,0.018943
2484.2707,0.019193
2486.1343,0.019466
2487.9980,0.019470
2489.8617,0.019038
2491.7253,0.018996
2493.5890,0.019655
2495.4527,0.020361
2497.3164,0.020300
2499.1800,0.019711
2501.0437,0.019235
2502.9074,0.019487
2504.7710,0.020027
2506.6347,0.020132
2508.4984,0.019893
2510.3620,0.019542
2512.2257,0.019452
2514.0894,0.019596
2515.9530,0.019892
2517.8167,0.020207
2519.6804,0.020409
2521.5440,0.020596
2523.4077,0.020551
2525.2714,0.020568
2527.1351,0.020965
2528.9987,0.021195
2530.8624,0.020661
2532.7261,0.020404
2534.5897,0.021003
2536.4534,0.021254
2538.3171,0.021167
2540.1807,0.020819
2542.0444,0.020486
2543.9081,0.020720
2545.7717,0.020930
2547.6354,0.021066
2549.4991,0.021262
2551.3627,0.021334
2553.2264,0.021400
2555.0901,0.021744
2556.9538,0.021824
2558.8174,0.021590
2560.6811,0.021573
2562.5448,0.021886
2564.4084,0.021647
2566.2721,0.021718
2568.1358,0.021963
2569.9994,0.021780
2571.8631,0.021722
2573.7268,0.021991
2575.5904,0.022131
2577.4541,0.022489
2579.3178,0.022818
2581.1815,0.022718
2583.0451,0.022718
2584.9088,0.022777
2586.7725,0.022654
2588.6361,0.022885
2590.4998,0.022934
2592.3635,0.022824
2594.2271,0.023023
2596.0908,0.023314
2597.9545,0.023734
2599.8181,0.023949
2601.6818,0.023942
2603.5455,0.023969
2605.4091,0.023999
2607.2728,0.024058
2609.1365,0.024488
2611.0002,0.024756
2612.8638,0.024595
2614.7275,0.024881
2616.5912,0.025275
2618.4548,0.025130
2620.3185,0.025171
2622.1822,0.025501
2624.0458,0.025748
2625.9095,0.025868
2627.7732,0.026017
2629.6368,0.026239
2631.5005,0.026162
2633.3642,0.026241
2635.2279,0.026245
2637.0915,0.026228
2638.9552,0.026498
2640.8189,0.026874
2642.6825,0.026981
2644.5462,0.026819
2646.4099,0.026796
2648.2735,0.027069
2650.1372,0.027219
2652.0009,0.027367
2653.8645,0.027485
2655.7282,0.027617
2657.5919,0.027709
2659.4555,0.027605
2661.3192,0.027540
2663.1829,0.027735
2665.0466,0.027934
2666.9102,0.028009
2668.7739,0.028090
2670.6376,0.028159
2672.5012,0.028166
2674.3649,0.028255
2676.2286,0.028519
2678.0922,0.029006
2679.9559,0.029195
2681.8196,0.029184
2683.6832,0.029267
2685.5469,0.029449
2687.4106,0.029686
2689.2742,0.029895
2691.1379,0.029871
2693.0016,0.029891
2694.8653,0.030069
2696.7289,0.030249
2698.5926,0.030478
2700.4563,0.030690
2702.3199,0.030946
2704.1836,0.031205
2706.0473,0.031233
2707.9109,0.031479
2709.7746,0.031782
2711.6383,0.032041
2713.5019,0.032093
2715.3656,0.032228
2717.2293,0.032521
2719.0930,0.032891
2720.9566,0.032908
2722.8203,0.032726
2724.6840,0.032994
2726.5476,0.033419
2728.4113,0.033886
2730.2750,0.034299
2732.1386,0.034423
2734.0023,0.034628
2735.8660,0.034950
2737.7296,0.035322
2739.5933,0.035688
2741.4570,0.035962
2743.3206,0.036274
2745.1843,0.036796
2747.0480,0.037125
2748.9117,0.037571
2750.7753,0.038307
2752.6390,0.038918
2754.5027,0.038879
2756.3663,0.038994
2758.2300,0.039643
2760.0937,0.040227
2761.9573,0.040444
2763.8210,0.040546
2765.6847,0.040811
2767.5483,0.041194
2769.4120,0.041494
2771.2757,0.041761
2773.1394,0.042087
2775.0030,0.042638
2776.8667,0.043189
2778.7304,0.043646
2780.5940,0.043898
2782.4577,0.044007
2784.3214,0.043867
2786.1850,0.043661
2788.0487,0.043856
2789.9124,0.044207
2791.7760,0.043938
2793.6397,0.043706
2795.5034,0.043496
2797.3670,0.043174
2799.2307,0.042956
2801.0944,0.042675
2802.9581,0.042387
2804.8217,0.042287
2806.6854,0.041951
2808.5491,0.041617
2810.4127,0.041509
2812.2764,0.041516
2814.1401,0.041310
2816.0037,0.041051
2817.8674,0.040999
2819.7311,0.041145
2821.5947,0.041319
2823.4584,0.041545
2825.3221,0.041634
2827.1857,0.041739
2829.0494,0.041709
2830.9131,0.041421
2832.7768,0.041261
2834.6404,0.041447
2836.5041,0.041535
2838.3678,0.041723
2840.2314,0.042012
2842.0951,0.042339
2843.9588,0.042791
2845.8224,0.043328
2847.6861,0.043828
2849.5498,0.044281
2851.4134,0.044605
2853.2771,0.045065
2855.1408,0.045476
2857.0045,0.045594
2858.8681,0.045653
2860.7318,0.046208
2862.5955,0.046778
2864.4591,0.047185
2866.3228,0.047175
2868.1865,0.047138
2870.0501,0.047190
2871.9138,0.047444
2873.7775,0.048261
2875.6411,0.048853
2877.5048,0.048751
2879.3685,0.049013
2881.2321,0.049279
2883.0958,0.049589
2884.9595,0.049971
2886.8232,0.050515
2888.6868,0.050968
2890.5505,0.051380
2892.4142,0.051978
2894.2778,0.052525
2896.1415,0.053023
2898.0052,0.053179
2899.8688,0.053112
2901.7325,0.053064
2903.5962,0.052935
2905.4598,0.053373
2907.3235,0.053733
2909.1872,0.053529
2911.0509,0.053996
2912.9145,0.054914
2914.7782,0.055681
2916.6419,0.056511
2918.5055,0.056902
2920.3692,0.057005
2922.2329,0.057314
2924.0965,0.057954
2925.9602,0.058268
2927.8239,0.058631
2929.6875,0.058986
2931.5512,0.059684
2933.4149,0.060411
2935.2785,0.060681
2937.1422,0.060691
2939.0059,0.060885
2940.8696,0.061028
2942.7332,0.061375
2944.5969,0.061695
2946.4606,0.061708
2948.3242,0.061626
2950.1879,0.061854
2952.0516,0.062240
2953.9152,0.062542
2955.7789,0.062531
2957.6426,0.062490
2959.5062,0.062766
2961.3699,0.063298
2963.2336,0.063883
2965.0972,0.064793
2966.9609,0.065307
2968.8246,0.065671
2970.6883,0.066076
2972.5519,0.066412
2974.4156,0.066092
2976.2793,0.066009
2978.1429,0.066458
2980.0066,0.067042
2981.8703,0.067231
2983.7339,0.067558
2985.5976,0.067660
2987.4613,0.067764
2989.3249,0.067715
2991.1886,0.067855
2993.0523,0.068465
2994.9160,0.068918
2996.7796,0.069227
2998.6433,0.069793
3000.5070,0.070060
3002.3706,0.070389
3004.2343,0.070974
3006.0980,0.071582
3007.9616,0.072141
3009.8253,0.072991
3011.6890,0.073485
3013.5526,0.074027
3015.4163,0.074693
3017.2800,0.075033
3019.1436,0.075335
3021.0073,0.076063
3022.8710,0.076177
3024.7347,0.076244
3026.5983,0.076966
3028.4620,0.077344
3030.3257,0.077184
3032.1893,0.077587
3034.0530,0.078221
3035.9167,0.078724
3037.7803,0.078777
3039.6440,0.078781
3041.5077,0.078799
3043.3713,0.078950
3045.2350,0.079198
3047.0987,0.079592
3048.9624,0.079404
3050.8260,0.079125
3052.6897,0.079167
3054.5534,0.079454
3056.4170,0.079714
3058.2807,0.079563
3060.1444,0.079236
3062.0080,0.079204
3063.8717,0.079222
3065.7354,0.079637
3067.5990,0.079709
3069.4627,0.079630
3071.3264,0.079140
3073.1900,0.078802
3075.0537,0.078823
3076.9174,0.078789
3078.7811,0.078305
3080.6447,0.078023
3082.5084,0.077881
3084.3721,0.077266
3086.2357,0.077001
3088.0994,0.077014
3089.9631,0.076472
3091.8267,0.076031
3093.6904,0.075631
3095.5541,0.074849
3097.4177,0.074084
3099.2814,0.073576
3101.1451,0.073097
3103.0087,0.072711
3104.8724,0.072328
3106.7361,0.072013
3108.5998,0.071018
3110.4634,0.070454
3112.3271,0.069626
3114.1908,0.068542
3116.0544,0.068344
3117.9181,0.068206
3119.7818,0.067726
3121.6454,0.067481
3123.5091,0.067095
3125.3728,0.066283
3127.2364,0.065121
3129.1001,0.065210
3130.9638,0.065403
3132.8275,0.064547
3134.6911,0.063237
3136.5548,0.062558
3138.4185,0.062958
3140.2821,0.063478
3142.1458,0.062965
3144.0095,0.062562
3145.8731,0.062197
3147.7368,0.061491
3149.6005,0.060636
3151.4641,0.060878
3153.3278,0.061473
3155.1915,0.061212
3157.0551,0.060449
3158.9188,0.060072
3160.7825,0.059497
3162.6462,0.058731
3164.5098,0.058155
3166.3735,0.058278
3168.2372,0.058760
3170.1008,0.058251
3171.9645,0.057785
3173.8282,0.057625
3175.6918,0.056791
3177.5555,0.056416
3179.4192,0.056727
3181.2828,0.056704
3183.1465,0.056580
3185.0102,0.057095
3186.8739,0.056932
3188.7375,0.056406
3190.6012,0.055924
3192.4649,0.055982
3194.3285,0.056235
3196.1922,0.056656
3198.0559,0.056449
3199.9195,0.055970
3201.7832,0.055879
3203.6469,0.055725
3205.5105,0.055381
3207.3742,0.054986
3209.2379,0.055051
3211.1015,0.055692
3212.9652,0.055833
3214.8289,0.055403
3216.6926,0.054981
3218.5562,0.054577
3220.4199,0.054528
3222.2836,0.055543
3224.1472,0.055593
3226.0109,0.054821
3227.8746,0.054409
3229.7382,0.054628
3231.6019,0.054490
3233.4656,0.054349
3235.3292,0.054578
3237.1929,0.054642
3239.0566,0.053980
3240.9202,0.053868
3242.7839,0.053895
3244.6476,0.054468
3246.5113,0.053985
3248.3749,0.054004
3250.2386,0.054639
3252.1023,0.054849
3253.9659,0.055053
3255.8296,0.055484
3257.6933,0.055577
3259.5569,0.055982
3261.4206,0.055450
3263.2843,0.054766
3265.1479,0.054590
3267.0116,0.055020
3268.8753,0.055257
3270.7390,0.055607
3272.6026,0.055159
3274.4663,0.055464
3276.3300,0.055777
3278.1936,0.055762
3280.0573,0.055697
3281.9210,0.055594
3283.7846,0.054958
3285.6483,0.053940
3287.5120,0.053742
3289.3756,0.053362
3291.2393,0.052539
3293.1030,0.052442
3294.9666,0.052078
3296.8303,0.051825
3298.6940,0.051261
3300.5577,0.050147
3302.4213,0.049372
3304.2850,0.049360
3306.1487,0.049385
3308.0123,0.049533
3309.8760,0.048746
3311.7397,0.047990
3313.6033,0.048139
3315.4670,0.047772
3317.3307,0.047682
3319.1943,0.047977
3321.0580,0.047846
3322.9217,0.048334
3324.7854,0.048373
3326.6490,0.048199
3328.5127,0.048652
3330.3764,0.048464
3332.2400,0.048522
3334.1037,0.048763
3335.9674,0.048575
3337.8310,0.048455
3339.6947,0.047950
3341.5584,0.047074
3343.4220,0.046056
3345.2857,0.045322
3347.1494,0.044328
3349.0130,0.043854
3350.8767,0.043213
3352.7404,0.042571
3354.6041,0.042272
3356.4677,0.042229
3358.3314,0.040887
3360.1951,0.039410
3362.0587,0.038628
3363.9224,0.038610
3365.7861,0.039092
3367.6497,0.039332
3369.5134,0.038069
3371.3771,0.037350
3373.2407,0.036972
3375.1044,0.037453
3376.9681,0.037976
3378.8317,0.037409
3380.6954,0.036441
3382.5591,0.036246
3384.4228,0.037129
3386.2864,0.038301
3388.1501,0.038105
3390.0138,0.037977
3391.8774,0.038015
3393.7411,0.037773
3395.6048,0.037062
3397.4684,0.037580
3399.3321,0.038350
3401.1958,0.037965
3403.0594,0.038197
3404.9231,0.038549
3406.7868,0.036795
3408.6505,0.034531
3410.5141,0.033808
3412.3778,0.034002
3414.2415,0.033325
3416.1051,0.031748
3417.9688,0.030841
3419.8325,0.031766
3421.6961,0.031441
3423.5598,0.029417
3425.4235,0.027495
3427.2871,0.026598
3429.1508,0.025616
3431.0145,0.024851
3432.8781,0.024302
3434.7418,0.023242
3436.6055,0.023703
3438.4692,0.023499
3440.3328,0.022337
3442.1965,0.022365
3444.0602,0.021389
3445.9238,0.020154
3447.7875,0.020965
3449.6512,0.021048
3451.5148,0.019364
3453.3785,0.019027
3455.2422,0.019875
3457.1058,0.020175
3458.9695,0.018370
3460.8332,0.017726
3462.6969,0.017832
3464.5605,0.017851
3466.4242,0.017886
3468.2879,0.017596
3470.1515,0.017418
3472.0152,0.017737
3473.8789,0.017445
3475.7425,0.016701
3477.6062,0.014914
3479.4699,0.014919
3481.3335,0.016534
3483.1972,0.016823
3485.0609,0.014809
3486.9245,0.013965
3488.7882,0.014363
3490.6519,0.014326
3492.5156,0.014016
3494.3792,0.013160
3496.2429,0.012001
3498.1066,0.013279
3499.9702,0.014309
3501.8339,0.013509
3503.6976,0.012901
3505.5612,0.012387
3507.4249,0.011992
3509.2886,0.012265
3511.1522,0.011645
3513.0159,0.011124
3514.8796,0.010440
3516.7432,0.009969
3518.6069,0.010254
3520.4706,0.010910
3522.3343,0.010874
3524.1979,0.009361
3526.0616,0.008128
3527.9253,0.009353
3529.7889,0.009554
3531.6526,0.010101
3533.5163,0.009899
3535.3799,0.009121
3537.2436,0.009295
3539.1073,0.009334
3540.9709,0.009589
3542.8346,0.010049
3544.6983,0.009848
3546.5620,0.009067
3548.4256,0.008116
3550.2893,0.007522
3552.1530,0.008223
3554.0166,0.008944
3555.8803,0.008998
3557.7440,0.008815
3559.6076,0.009032
3561.4713,0.009953
3563.3350,0.008537
3565.1986,0.006277
3567.0623,0.005843
3568.9260,0.005520
3570.7896,0.005204
3572.6533,0.006530
3574.5170,0.008095
3576.3807,0.008342
3578.2443,0.008514
3580.1080,0.008111
3581.9717,0.006792
3583.8353,0.006686
3585.6990,0.006570
3587.5627,0.006873
3589.4263,0.007265
3591.2900,0.006156
3593.1537,0.006585
3595.0173,0.008218
3596.8810,0.007699
3598.7447,0.007111
3600.6084,0.007613
3602.4720,0.008147
3604.3357,0.007780
3606.1994,0.008043
3608.0630,0.007682
3609.9267,0.006394
3611.7904,0.006632
3613.6540,0.006808
3615.5177,0.005825
3617.3814,0.005821
3619.2450,0.006410
3621.1087,0.006534
3622.9724,0.006251
3624.8360,0.006650
3626.6997,0.007253
3628.5634,0.008059
3630.4271,0.007357
3632.2907,0.007075
3634.1544,0.007817
3636.0181,0.008231
3637.8817,0.008451
3639.7454,0.008463
3641.6091,0.008265
3643.4727,0.007925
3645.3364,0.008014
3647.2001,0.008355
3649.0637,0.006862
3650.9274,0.005286
3652.7911,0.007080
3654.6547,0.007374
3656.5184,0.007489
3658.3821,0.008033
3660.2458,0.008092
3662.1094,0.008625
3663.9731,0.008734
3665.8368,0.008867
3667.7004,0.009849
3669.5641,0.010271
3671.4278,0.009801
3673.2914,0.011300
3675.1551,0.013512
3677.0188,0.014022
3678.8824,0.010116
3680.7461,0.007961
3682.6098,0.007137
3684.4735,0.007548
3686.3371,0.007221
3688.2008,0.006484
3690.0645,0.007229
3691.9281,0.007276
3693.7918,0.008046
3695.6555,0.008107
3697.5191,0.007482
3699.3828,0.007285
3701.2465,0.007662
3703.1101,0.007456
3704.9738,0.006790
3706.8375,0.006873
3708.7011,0.007263
3710.5648,0.006740
3712.4285,0.006169
3714.2922,0.006888
3716.1558,0.007910
3718.0195,0.009429
3719.8832,0.009146
3721.7468,0.008302
3723.6105,0.008072
3725.4742,0.007482
3727.3378,0.006828
3729.2015,0.006645
3731.0652,0.007124
3732.9288,0.007673
3734.7925,0.006927
3736.6562,0.006402
3738.5199,0.005801
3740.3835,0.006044
3742.2472,0.006952
3744.1109,0.006387
3745.9745,0.004965
3747.8382,0.005797
3749.7019,0.007080
3751.5655,0.008093
3753.4292,0.007780
3755.2929,0.007110
3757.1565,0.007486
3759.0202,0.008664
3760.8839,0.008881
3762.7475,0.008708
3764.6112,0.008623
3766.4749,0.008829
3768.3386,0.008533
3770.2022,0.008717
3772.0659,0.009403
3773.9296,0.008785
3775.7932,0.008705
3777.6569,0.008968
3779.5206,0.008757
3781.3842,0.008445
3783.2479,0.008301
3785.1116,0.009299
3786.9752,0.009587
3788.8389,0.009250
3790.7026,0.008763
3792.5662,0.008112
3794.4299,0.008460
3796.2936,0.009319
3798.1573,0.009391
3800.0209,0.008563
3801.8846,0.008200
3803.7483,0.008466
3805.6119,0.008365
3807.4756,0.009186
3809.3393,0.009341
3811.2029,0.008901
3813.0666,0.009146
3814.9303,0.009415
3816.7939,0.009249
3818.6576,0.008350
3820.5213,0.008505
3822.3850,0.009043
3824.2486,0.008027
3826.1123,0.008137
3827.9760,0.008668
3829.8396,0.008863
3831.7033,0.008936
3833.5670,0.008954
3835.4306,0.008592
3837.2943,0.008305
3839.1580,0.007892
3841.0216,0.007881
3842.8853,0.008354
3844.7490,0.008318
3846.6126,0.008148
3848.4763,0.008844
3850.3400,0.009005
3852.2037,0.008982
3854.0673,0.008674
3855.9310,0.008314
3857.7947,0.008309
3859.6583,0.008660
3861.5220,0.008417
3863.3857,0.007758
3865.2493,0.008118
3867.1130,0.009063
3868.9767,0.008540
3870.8403,0.009247
3872.7040,0.009866
3874.5677,0.009751
3876.4314,0.009396
3878.2950,0.009004
3880.1587,0.009577
3882.0224,0.009577
3883.8860,0.008419
3885.7497,0.008831
3887.6134,0.009697
3889.4770,0.008958
3891.3407,0.009060
3893.2044,0.010000
3895.0680,0.009813
3896.9317,0.009668
3898.7954,0.009960
3900.6590,0.009937
3902.5227,0.008693
3904.3864,0.008866
3906.2501,0.010399
3908.1137,0.010771
3909.9774,0.010192
3911.8411,0.010296
3913.7047,0.010437
3915.5684,0.010573
3917.4321,0.010407
3919.2957,0.010200
3921.1594,0.009815
3923.0231,0.009933
3924.8867,0.009995
3926.7504,0.010595
3928.6141,0.010609
3930.4777,0.010407
3932.3414,0.009934
3934.2051,0.009370
3936.0688,0.010009
3937.9324,0.010248
3939.7961,0.010144
3941.6598,0.010482
3943.5234,0.009667
3945.3871,0.009561
3947.2508,0.010429
3949.1144,0.010321
3950.9781,0.009768
3952.8418,0.010024
3954.7054,0.010465
3956.5691,0.010765
3958.4328,0.010677
3960.2965,0.010418
3962.1601,0.010284
3964.0238,0.010198
3965.8875,0.010320
3967.7511,0.011147
3969.6148,0.011341
3971.4785,0.010937
3973.3421,0.010753
3975.2058,0.010672
3977.0695,0.010314
3978.9331,0.010602
3980.7968,0.011023
3982.6605,0.011258
3984.5241,0.010931
3986.3878,0.010634
3988.2515,0.010354
3990.1152,0.010619
3991.9788,0.010973
3993.8425,0.010652
3995.7062,0.010645
3997.5698,0.011278
3999.4335,0.011227
