Wavenumber,Intensity
650.4205,0.203494
652.2841,0.200506
654.1478,0.202018
656.0115,0.203269
657.8751,0.205054
659.7388,0.205589
661.6025,0.208011
663.4661,0.211772
665.3298,0.213920
667.1935,0.215870
669.0571,0.218139
670.9208,0.212716
672.7845,0.206256
674.6481,0.200552
676.5118,0.197377
678.3755,0.195374
680.2392,0.194225
682.1028,0.191485
683.9665,0.189422
685.8302,0.188413
687.6938,0.187791
689.5575,0.187319
691.4212,0.186661
693.2848,0.184628
695.1485,0.183829
697.0122,0.183964
698.8758,0.184537
700.7395,0.185172
702.6032,0.185294
704.4669,0.184878
706.3305,0.183562
708.1942,0.178821
710.0579,0.172747
711.9215,0.167412
713.7852,0.162308
715.6489,0.157984
717.5125,0.154830
719.3762,0.152116
721.2399,0.149882
723.1035,0.147707
724.9672,0.146407
726.8309,0.146151
728.6945,0.145376
730.5582,0.144216
732.4219,0.143896
734.2856,0.141964
736.1492,0.136049
738.0129,0.127834
739.8766,0.121032
741.7402,0.116388
743.6039,0.111883
745.4676,0.105626
747.3312,0.098541
749.1949,0.092901
751.0586,0.089647
752.9222,0.087451
754.7859,0.085940
756.6496,0.085003
758.5132,0.084647
760.3769,0.084547
762.2406,0.084305
764.1043,0.084048
765.9679,0.083662
767.8316,0.084078
769.6953,0.085238
771.5589,0.085531
773.4226,0.085560
775.2863,0.086254
777.1499,0.087377
779.0136,0.088560
780.8773,0.089925
782.7409,0.091287
784.6046,0.092545
786.4683,0.093877
788.3320,0.095710
790.1956,0.098086
792.0593,0.100491
793.9230,0.102388
795.7866,0.104103
797.6503,0.105979
799.5140,0.107665
801.3776,0.109158
803.2413,0.110216
805.1050,0.110042
806.9686,0.109492
808.8323,0.108660
810.6960,0.106922
812.5596,0.104753
814.4233,0.102700
816.2870,0.100477
818.1507,0.098214
820.0143,0.096153
821.8780,0.094826
823.7417,0.094752
825.6053,0.095679
827.4690,0.097629
829.3327,0.098945
831.1963,0.094751
833.0600,0.085377
834.9237,0.077434
836.7873,0.074066
838.6510,0.073739
840.5147,0.074608
842.3784,0.076312
844.2420,0.079193
846.1057,0.082398
847.9694,0.081787
849.8330,0.076604
851.6967,0.072386
853.5604,0.071100
855.4240,0.071357
857.2877,0.072312
859.1514,0.073144
861.0150,0.073741
862.8787,0.074301
864.7424,0.074726
866.6060,0.075122
868.4697,0.075873
870.3334,0.076818
872.1971,0.077808
874.0607,0.078797
875.9244,0.079841
877.7881,0.081362
879.6517,0.083185
881.5154,0.085242
883.3791,0.087821
885.2427,0.090822
887.1064,0.094605
888.9701,0.099159
890.8337,0.103296
892.6974,0.104577
894.5611,0.100529
896.4247,0.093976
898.2884,0.090253
900.1521,0.090405
902.0158,0.092623
903.8794,0.095981
905.7431,0.100258
907.6068,0.105235
909.4704,0.110972
911.3341,0.117604
913.1978,0.124659
915.0614,0.127872
916.9251,0.121075
918.7888,0.108002
920.6524,0.098461
922.5161,0.094979
924.3798,0.094753
926.2435,0.095715
928.1071,0.097106
929.9708,0.098815
931.8345,0.100659
933.6981,0.102563
935.5618,0.104467
937.4255,0.106216
939.2891,0.108006
941.1528,0.109902
943.0165,0.111846
944.8801,0.113911
946.7438,0.116364
948.6075,0.119173
950.4711,0.122108
952.3348,0.125451
954.1985,0.129297
956.0622,0.133212
957.9258,0.136791
959.7895,0.139267
961.6532,0.139503
963.5168,0.137806
965.3805,0.135973
967.2442,0.135730
969.1078,0.137520
970.9715,0.140792
972.8352,0.145422
974.6988,0.152257
976.5625,0.162640
978.4262,0.178907
980.2899,0.200549
982.1535,0.209647
984.0172,0.187926
985.8809,0.159103
987.7445,0.147664
989.6082,0.148204
991.4719,0.151295
993.3355,0.154659
995.1992,0.157912
997.0629,0.161165
998.9265,0.164450
1000.7902,0.167723
1002.6539,0.171063
1004.5175,0.174454
1006.3812,0.177674
1008.2449,0.180735
1010.1086,0.183315
1011.9722,0.185094
1013.8359,0.186379
1015.6996,0.187366
1017.5632,0.187682
1019.4269,0.187171
1021.2906,0.186399
1023.1542,0.185813
1025.0179,0.185368
1026.8816,0.185182
1028.7452,0.185329
1030.6089,0.185732
1032.4726,0.186119
1034.3362,0.185408
1036.1999,0.181581
1038.0636,0.174221
1039.9273,0.166348
1041.7909,0.161658
1043.6546,0.160798
1045.5183,0.160375
1047.3819,0.156658
1049.2456,0.148871
1051.1093,0.137943
1052.9729,0.126269
1054.8366,0.117026
1056.7003,0.111699
1058.5639,0.109622
1060.4276,0.109349
1062.2913,0.109876
1064.1550,0.110886
1066.0186,0.112391
1067.8823,0.114323
1069.7460,0.116483
1071.6096,0.118952
1073.4733,0.121595
1075.3370,0.124168
1077.2006,0.126614
1079.0643,0.129089
1080.9280,0.131806
1082.7916,0.134684
1084.6553,0.137930
1086.5190,0.141772
1088.3826,0.145970
1090.2463,0.150507
1092.1100,0.155792
1093.9737,0.161745
1095.8373,0.167772
1097.7010,0.173423
1099.5647,0.178214
1101.4283,0.181733
1103.2920,0.183995
1105.1557,0.184899
1107.0193,0.183563
1108.8830,0.178294
1110.7467,0.168014
1112.6103,0.154154
1114.4740,0.139412
1116.3377,0.125840
1118.2014,0.114791
1120.0650,0.106771
1121.9287,0.101505
1123.7924,0.098399
1125.6560,0.096539
1127.5197,0.094973
1129.3834,0.093435
1131.2470,0.092198
1133.1107,0.091321
1134.9744,0.090803
1136.8380,0.090840
1138.7017,0.091314
1140.5654,0.092070
1142.4290,0.093046
1144.2927,0.094063
1146.1564,0.095081
1148.0201,0.096067
1149.8837,0.097080
1151.7474,0.098273
1153.6111,0.099609
1155.4747,0.101007
1157.3384,0.102623
1159.2021,0.104400
1161.0657,0.106183
1162.9294,0.108344
1164.7931,0.111124
1166.6567,0.114394
1168.5204,0.118088
1170.3841,0.121722
1172.2477,0.123948
1174.1114,0.123357
1175.9751,0.119814
1177.8388,0.114959
1179.7024,0.110760
1181.5661,0.108129
1183.4298,0.106738
1185.2934,0.105893
1187.1571,0.105272
1189.0208,0.104691
1190.8844,0.104059
1192.7481,0.103441
1194.6118,0.102955
1196.4754,0.102807
1198.3391,0.103051
1200.2028,0.103468
1202.0665,0.103815
1203.9301,0.103872
1205.7938,0.103441
1207.6575,0.102653
1209.5211,0.101735
1211.3848,0.100595
1213.2485,0.099101
1215.1121,0.097400
1216.9758,0.095683
1218.8395,0.093899
1220.7031,0.092018
1222.5668,0.090146
1224.4305,0.088371
1226.2941,0.086666
1228.1578,0.084989
1230.0215,0.083338
1231.8852,0.081557
1233.7488,0.079570
1235.6125,0.077480
1237.4762,0.075616
1239.3398,0.074338
1241.2035,0.073942
1243.0672,0.074641
1244.9308,0.076011
1246.7945,0.077391
1248.6582,0.078288
1250.5218,0.078134
1252.3855,0.076748
1254.2492,0.074964
1256.1129,0.073723
1257.9765,0.073327
1259.8402,0.073680
1261.7039,0.074323
1263.5675,0.074915
1265.4312,0.075546
1267.2949,0.075973
1269.1585,0.075953
1271.0222,0.075718
1272.8859,0.075617
1274.7495,0.075871
1276.6132,0.076445
1278.4769,0.077315
1280.3405,0.078489
1282.2042,0.079823
1284.0679,0.081359
1285.9316,0.083266
1287.7952,0.085794
1289.6589,0.088822
1291.5226,0.092279
1293.3862,0.096617
1295.2499,0.102076
1297.1136,0.108934
1298.9772,0.117424
1300.8409,0.126965
1302.7046,0.135175
1304.5682,0.138080
1306.4319,0.132605
1308.2956,0.118086
1310.1592,0.097652
1312.0229,0.078630
1313.8866,0.066825
1315.7503,0.062560
1317.6139,0.062581
1319.4776,0.064407
1321.3413,0.066552
1323.2049,0.068805
1325.0686,0.071162
1326.9323,0.073322
1328.7959,0.075513
1330.6596,0.077654
1332.5233,0.079439
1334.3869,0.080665
1336.2506,0.081802
1338.1143,0.083954
1339.9780,0.087450
1341.8416,0.090103
1343.7053,0.090802
1345.5690,0.090070
1347.4326,0.088589
1349.2963,0.088071
1351.1600,0.088743
1353.0236,0.090099
1354.8873,0.091991
1356.7510,0.093895
1358.6146,0.095519
1360.4783,0.097844
1362.3420,0.101874
1364.2056,0.105434
1366.0693,0.107088
1367.9330,0.109761
1369.7967,0.113018
1371.6603,0.115642
1373.5240,0.119843
1375.3877,0.124844
1377.2513,0.128048
1379.1150,0.132278
1380.9787,0.138107
1382.8423,0.144729
1384.7060,0.152779
1386.5697,0.162984
1388.4333,0.171480
1390.2970,0.172450
1392.1607,0.171540
1394.0244,0.171063
1395.8880,0.167000
1397.7517,0.159335
1399.6154,0.150474
1401.4790,0.141985
1403.3427,0.134407
1405.2064,0.123609
1407.0700,0.108804
1408.9337,0.093949
1410.7974,0.080542
1412.6610,0.071360
1414.5247,0.067588
1416.3884,0.068311
1418.2520,0.074139
1420.1157,0.083741
1421.9794,0.088013
1423.8431,0.086663
1425.7067,0.079298
1427.5704,0.070196
1429.4341,0.063786
1431.2977,0.060248
1433.1614,0.058960
1435.0251,0.059660
1436.8887,0.062914
1438.7524,0.064860
1440.6161,0.065275
1442.4797,0.066733
1444.3434,0.068114
1446.2071,0.069326
1448.0707,0.070480
1449.9344,0.069862
1451.7981,0.067916
1453.6618,0.066463
1455.5254,0.067749
1457.3891,0.073726
1459.2528,0.073428
1461.1164,0.068931
1462.9801,0.067100
1464.8438,0.067761
1466.7074,0.067461
1468.5711,0.065539
1470.4348,0.064699
1472.2984,0.066028
1474.1621,0.067664
1476.0258,0.067430
1477.8895,0.067332
1479.7531,0.067441
1481.6168,0.068300
1483.4805,0.068763
1485.3441,0.069026
1487.2078,0.070473
1489.0715,0.073801
1490.9351,0.077063
1492.7988,0.077078
1494.6625,0.077337
1496.5261,0.081114
1498.3898,0.085049
1500.2535,0.086121
1502.1171,0.085669
1503.9808,0.085258
1505.8445,0.088510
1507.7082,0.097108
1509.5718,0.095791
1511.4355,0.093635
1513.2992,0.092244
1515.1628,0.091128
1517.0265,0.091003
1518.8902,0.090485
1520.7538,0.091431
1522.6175,0.094469
1524.4812,0.094178
1526.3448,0.094335
1528.2085,0.093984
1530.0722,0.092502
1531.9359,0.092396
1533.7995,0.094282
1535.6632,0.093540
1537.5269,0.092307
1539.3905,0.095965
1541.2542,0.103210
1543.1179,0.103899
1544.9815,0.104979
1546.8452,0.105796
1548.7089,0.106926
1550.5725,0.109676
1552.4362,0.111214
1554.2999,0.112273
1556.1635,0.114133
1558.0272,0.119694
1559.8909,0.134515
1561.7546,0.131493
1563.6182,0.129732
1565.4819,0.132273
1567.3456,0.135414
1569.2092,0.140238
1571.0729,0.145419
1572.9366,0.145778
1574.8002,0.148994
1576.6639,0.157196
1578.5276,0.160700
1580.3912,0.160800
1582.2549,0.163028
1584.1186,0.164726
1585.9822,0.165543
1587.8459,0.165442
1589.7096,0.164767
1591.5733,0.163236
1593.4369,0.161653
1595.3006,0.160154
1597.1643,0.158618
1599.0279,0.156686
1600.8916,0.155115
1602.7553,0.153947
1604.6189,0.153097
1606.4826,0.152348
1608.3463,0.152101
1610.2099,0.151184
1612.0736,0.148689
1613.9373,0.144987
1615.8010,0.140208
1617.6646,0.131833
1619.5283,0.122981
1621.3920,0.116075
1623.2556,0.108464
1625.1193,0.100666
1626.9830,0.093894
1628.8466,0.086036
1630.7103,0.078171
1632.5740,0.071698
1634.4376,0.065462
1636.3013,0.058461
1638.1650,0.054140
1640.0286,0.052980
1641.8923,0.052028
1643.7560,0.052169
1645.6197,0.053750
1647.4833,0.056356
1649.3470,0.057291
1651.2107,0.058727
1653.0743,0.063380
1654.9380,0.067701
1656.8017,0.066841
1658.6653,0.067083
1660.5290,0.067600
1662.3927,0.068075
1664.2563,0.067190
1666.1200,0.065469
1667.9837,0.064290
1669.8474,0.064053
1671.7110,0.063633
1673.5747,0.063832
1675.4384,0.065864
1677.3020,0.068338
1679.1657,0.070035
1681.0294,0.073086
1682.8930,0.076862
1684.7567,0.083286
1686.6204,0.084734
1688.4840,0.083288
1690.3477,0.081920
1692.2114,0.079406
1694.0750,0.076410
1695.9387,0.073439
1697.8024,0.070025
1699.6661,0.067472
1701.5297,0.061866
1703.3934,0.056613
1705.2571,0.050491
1707.1207,0.042892
1708.9844,0.037493
1710.8481,0.033589
1712.7117,0.030253
1714.5754,0.028120
1716.4391,0.026376
1718.3027,0.025576
1720.1664,0.024602
1722.0301,0.023717
1723.8937,0.022278
1725.7574,0.020597
1727.6211,0.018920
1729.4848,0.017704
1731.3484,0.016604
1733.2121,0.016048
1735.0758,0.015020
1736.9394,0.014499
1738.8031,0.014391
1740.6668,0.014298
1742.5304,0.013889
1744.3941,0.013775
1746.2578,0.013338
1748.1214,0.013063
1749.9851,0.012899
1751.8488,0.012856
1753.7125,0.012513
1755.5761,0.012501
1757.4398,0.012424
1759.3035,0.012403
1761.1671,0.012440
1763.0308,0.012413
1764.8945,0.012106
1766.7581,0.012231
1768.6218,0.012169
1770.4855,0.012174
1772.3491,0.012309
1774.2128,0.012160
1776.0765,0.011947
1777.9401,0.012195
1779.8038,0.012262
1781.6675,0.012365
1783.5312,0.012476
1785.3948,0.012640
1787.2585,0.012445
1789.1222,0.012384
1790.9858,0.012430
1792.8495,0.012651
1794.7132,0.012413
1796.5768,0.012379
1798.4405,0.012544
1800.3042,0.012879
1802.1678,0.012891
1804.0315,0.012850
1805.8952,0.012814
1807.7589,0.013091
1809.6225,0.013228
1811.4862,0.013303
1813.3499,0.012970
1815.2135,0.012729
1817.0772,0.012617
1818.9409,0.012932
1820.8045,0.013090
1822.6682,0.013068
1824.5319,0.012927
1826.3955,0.012986
1828.2592,0.012887
1830.1229,0.012899
1831.9865,0.012528
1833.8502,0.012573
1835.7139,0.012786
1837.5776,0.013049
1839.4412,0.012925
1841.3049,0.012570
1843.1686,0.012384
1845.0322,0.012592
1846.8959,0.012622
1848.7596,0.012933
1850.6232,0.012994
1852.4869,0.012991
1854.3506,0.013135
1856.2142,0.013428
1858.0779,0.013059
1859.9416,0.012752
1861.8052,0.012775
1863.6689,0.012855
1865.5326,0.012530
1867.3963,0.012607
1869.2599,0.013127
1871.1236,0.013094
1872.9873,0.012611
1874.8509,0.012617
1876.7146,0.013061
1878.5783,0.013447
1880.4419,0.013229
1882.3056,0.013242
1884.1693,0.013025
1886.0329,0.013115
1887.8966,0.013376
1889.7603,0.013452
1891.6240,0.012766
1893.4876,0.012598
1895.3513,0.012990
1897.2150,0.013468
1899.0786,0.013377
1900.9423,0.013391
1902.8060,0.013378
1904.6696,0.013652
1906.5333,0.013660
1908.3970,0.013578
1910.2606,0.013249
1912.1243,0.013396
1913.9880,0.013396
1915.8516,0.013298
1917.7153,0.013023
1919.5790,0.013016
1921.4427,0.012757
1923.3063,0.012984
1925.1700,0.012461
1927.0337,0.012396
1928.8973,0.012702
1930.7610,0.012839
1932.6247,0.012717
1934.4883,0.012604
1936.3520,0.012110
1938.2157,0.011908
1940.0793,0.012026
1941.9430,0.012329
1943.8067,0.011339
1945.6704,0.010645
1947.5340,0.010463
1949.3977,0.010713
1951.2614,0.010437
1953.1250,0.009977
1954.9887,0.008854
1956.8524,0.008926
1958.7160,0.008233
1960.5797,0.007404
1962.4434,0.006774
1964.3070,0.007053
1966.1707,0.006540
1968.0344,0.005581
1969.8980,0.004937
1971.7617,0.005972
1973.6254,0.006572
1975.4891,0.005898
1977.3527,0.004347
1979.2164,0.005117
1981.0801,0.005418
1982.9437,0.006874
1984.8074,0.007569
1986.6711,0.007854
1988.5347,0.007453
1990.3984,0.007220
1992.2621,0.007686
1994.1257,0.007977
1995.9894,0.007378
1997.8531,0.007677
1999.7167,0.007418
2001.5804,0.007114
2003.4441,0.006608
2005.3078,0.006376
2007.1714,0.005676
2009.0351,0.005458
2010.8988,0.005825
2012.7624,0.006920
2014.6261,0.006009
2016.4898,0.004648
2018.3534,0.003398
2020.2171,0.004037
2022.0808,0.004010
2023.9444,0.003534
2025.8081,0.003569
2027.6718,0.004627
2029.5355,0.003988
2031.3991,0.004881
2033.2628,0.005156
2035.1265,0.005050
2036.9901,0.005355
2038.8538,0.005388
2040.7175,0.005550
2042.5811,0.006834
2044.4448,0.006769
2046.3085,0.007944
2048.1721,0.008535
2050.0358,0.008776
2051.8995,0.009950
2053.7631,0.010794
2055.6268,0.011003
2057.4905,0.011501
2059.3542,0.012235
2061.2178,0.012330
2063.0815,0.011906
2064.9452,0.012248
2066.8088,0.012876
2068.6725,0.013332
2070.5362,0.013113
2072.3998,0.013429
2074.2635,0.013402
2076.1272,0.012883
2077.9908,0.012606
2079.8545,0.013686
2081.7182,0.014042
2083.5819,0.013981
2085.4455,0.014238
2087.3092,0.014816
2089.1729,0.015022
2091.0365,0.014636
2092.9002,0.013887
2094.7639,0.014792
2096.6275,0.014889
2098.4912,0.014502
2100.3549,0.014594
2102.2185,0.014850
2104.0822,0.014918
2105.9459,0.015141
2107.8095,0.015440
2109.6732,0.015965
2111.5369,0.016044
2113.4006,0.016174
2115.2642,0.015835
2117.1279,0.015845
2118.9916,0.015541
2120.8552,0.015436
2122.7189,0.015527
2124.5826,0.015534
2126.4462,0.015198
2128.3099,0.014520
2130.1736,0.014261
2132.0372,0.014451
2133.9009,0.013992
2135.7646,0.013773
2137.6282,0.012237
2139.4919,0.011649
2141.3556,0.011186
2143.2193,0.010593
2145.0829,0.010456
2146.9466,0.010745
2148.8103,0.010399
2150.6739,0.010680
2152.5376,0.008797
2154.4013,0.007662
2156.2649,0.007129
2158.1286,0.004865
2159.9923,0.004199
2161.8559,0.005920
2163.7196,0.006120
2165.5833,0.007607
2167.4470,0.008343
2169.3106,0.008989
2171.1743,0.008260
2173.0380,0.008542
2174.9016,0.008763
2176.7653,0.009272
2178.6290,0.008602
2180.4926,0.008183
2182.3563,0.009691
2184.2200,0.012272
2186.0836,0.011249
2187.9473,0.010456
2189.8110,0.010797
2191.6746,0.010659
2193.5383,0.010977
2195.4020,0.011954
2197.2657,0.012477
2199.1293,0.013117
2200.9930,0.013390
2202.8567,0.013103
2204.7203,0.013216
2206.5840,0.013631
2208.4477,0.013349
2210.3113,0.013865
2212.1750,0.014205
2214.0387,0.014357
2215.9023,0.014558
2217.7660,0.015375
2219.6297,0.015629
2221.4934,0.015323
2223.3570,0.014747
2225.2207,0.015024
2227.0844,0.015741
2228.9480,0.015599
2230.8117,0.015296
2232.6754,0.016675
2234.5390,0.016414
2236.4027,0.015804
2238.2664,0.016824
2240.1300,0.017708
2241.9937,0.017758
2243.8574,0.017401
2245.7210,0.016748
2247.5847,0.016781
2249.4484,0.017314
2251.3121,0.018289
2253.1757,0.018618
2255.0394,0.019135
2256.9031,0.019192
2258.7667,0.019011
2260.6304,0.018778
2262.4941,0.018899
2264.3577,0.018869
2266.2214,0.018841
2268.0851,0.019021
2269.9487,0.019870
2271.8124,0.020887
2273.6761,0.021091
2275.5397,0.020931
2277.4034,0.021341
2279.2671,0.021398
2281.1308,0.021299
2282.9944,0.021729
2284.8581,0.022268
2286.7218,0.022588
2288.5854,0.022572
2290.4491,0.022007
2292.3128,0.022054
2294.1764,0.022453
2296.0401,0.022385
2297.9038,0.022410
2299.7674,0.022577
2301.6311,0.022601
2303.4948,0.022550
2305.3585,0.022734
2307.2221,0.022989
2309.0858,0.023036
2310.9495,0.022951
2312.8131,0.022732
2314.6768,0.022802
2316.5405,0.022660
2318.4041,0.022883
2320.2678,0.023159
2322.1315,0.023293
2323.9951,0.023273
2325.8588,0.022763
2327.7225,0.022060
2329.5861,0.021842
2331.4498,0.022117
2333.3135,0.022444
2335.1772,0.022175
2337.0408,0.022082
2338.9045,0.022268
2340.7682,0.022299
2342.6318,0.022300
2344.4955,0.022516
2346.3592,0.022570
2348.2228,0.022456
2350.0865,0.022315
2351.9502,0.022144
2353.8138,0.022121
2355.6775,0.022161
2357.5412,0.021838
2359.4049,0.021368
2361.2685,0.021340
2363.1322,0.021919
2364.9959,0.022169
2366.8595,0.022271
2368.7232,0.022482
2370.5869,0.022701
2372.4505,0.022909
2374.3142,0.022905
2376.1779,0.023249
2378.0415,0.023340
2379.9052,0.022870
2381.7689,0.022925
2383.6325,0.023229
2385.4962,0.023271
2387.3599,0.023308
2389.2236,0.023301
2391.0872,0.023312
2392.9509,0.023301
2394.8146,0.023190
2396.6782,0.023363
2398.5419,0.023470
2400.4056,0.023645
2402.2692,0.023674
2404.1329,0.023747
2405.9966,0.023679
2407.8602,0.023816
2409.7239,0.023982
2411.5876,0.023946
2413.4512,0.024092
2415.3149,0.024029
2417.1786,0.023919
2419.0423,0.024110
2420.9059,0.024311
2422.7696,0.024286
2424.6333,0.024241
2426.4969,0.024217
2428.3606,0.024344
2430.2243,0.024606
2432.0879,0.024333
2433.9516,0.024255
2435.8153,0.024521
2437.6789,0.024435
2439.5426,0.024350
2441.4063,0.024494
2443.2700,0.024457
2445.1336,0.024765
2446.9973,0.024965
2448.8610,0.024661
2450.7246,0.024755
2452.5883,0.024808
2454.4520,0.024666
2456.3156,0.024584
2458.1793,0.024363
2460.0430,0.024562
2461.9066,0.024662
2463.7703,0.024443
2465.6340,0.024576
2467.4976,0.024936
2469.3613,0.025048
2471.2250,0.025004
2473.0887,0.025068
2474.9523,0.025273
2476.8160,0.025167
2478.6797,0.025156
2480.5433,0.025558
2482.4070,0.025275
2484.2707,0.024885
2486.1343,0.025035
2487.9980,0.025198
2489.8617,0.025606
2491.7253,0.025800
2493.5890,0.025512
2495.4527,0.025730
2497.3164,0.026394
2499.1800,0.026298
2501.0437,0.025980
2502.9074,0.025766
2504.7710,0.025682
2506.6347,0.025978
2508.4984,0.026280
2510.3620,0.026032
2512.2257,0.025988
2514.0894,0.026226
2515.9530,0.026525
2517.8167,0.026545
2519.6804,0.026868
2521.5440,0.027171
2523.4077,0.027055
2525.2714,0.026825
2527.1351,0.026719
2528.9987,0.026971
2530.8624,0.027256
2532.7261,0.027041
2534.5897,0.026919
2536.4534,0.027172
2538.3171,0.027397
2540.1807,0.027953
2542.0444,0.028113
2543.9081,0.027855
2545.7717,0.027949
2547.6354,0.028033
2549.4991,0.027954
2551.3627,0.027927
2553.2264,0.028310
2555.0901,0.028519
2556.9538,0.028528
2558.8174,0.028644
2560.6811,0.028577
2562.5448,0.028477
2564.4084,0.028815
2566.2721,0.029100
2568.1358,0.029016
2569.9994,0.029159
2571.8631,0.029028
2573.7268,0.029029
2575.5904,0.029312
2577.4541,0.029250
2579.3178,0.029568
2581.1815,0.029693
2583.0451,0.029653
2584.9088,0.029661
2586.7725,0.029678
2588.6361,0.029893
2590.4998,0.030369
2592.3635,0.030565
2594.2271,0.030294
2596.0908,0.030268
2597.9545,0.030889
2599.8181,0.031593
2601.6818,0.031764
2603.5455,0.031900
2605.4091,0.032276
2607.2728,0.032398
2609.1365,0.032541
2611.0002,0.032951
2612.8638,0.032878
2614.7275,0.032775
2616.5912,0.033085
2618.4548,0.033606
2620.3185,0.033804
2622.1822,0.033628
2624.0458,0.033451
2625.9095,0.033668
2627.7732,0.033950
2629.6368,0.034259
2631.5005,0.034427
2633.3642,0.034304
2635.2279,0.034545
2637.0915,0.034889
2638.9552,0.034993
2640.8189,0.035162
2642.6825,0.035189
2644.5462,0.035250
2646.4099,0.035557
2648.2735,0.035816
2650.1372,0.035826
2652.0009,0.035846
2653.8645,0.036076
2655.7282,0.036183
2657.5919,0.036267
2659.4555,0.036429
2661.3192,0.036528
2663.1829,0.036616
2665.0466,0.036522
2666.9102,0.036671
2668.7739,0.036896
2670.6376,0.036944
2672.5012,0.037196
2674.3649,0.037445
2676.2286,0.037746
2678.0922,0.038263
2679.9559,0.038405
2681.8196,0.038492
2683.6832,0.038846
2685.5469,0.038959
2687.4106,0.038928
2689.2742,0.039221
2691.1379,0.039608
2693.0016,0.039735
2694.8653,0.039744
2696.7289,0.039960
2698.5926,0.040336
2700.4563,0.040748
2702.3199,0.040994
2704.1836,0.041125
2706.0473,0.041336
2707.9109,0.041425
2709.7746,0.041505
2711.6383,0.041863
2713.5019,0.041892
2715.3656,0.041951
2717.2293,0.042252
2719.0930,0.042538
2720.9566,0.042811
2722.8203,0.042980
2724.6840,0.043227
2726.5476,0.043623
2728.4113,0.044073
2730.2750,0.044166
2732.1386,0.044551
2734.0023,0.045254
2735.8660,0.045687
2737.7296,0.046063
2739.5933,0.046539
2741.4570,0.046909
2743.3206,0.047211
2745.1843,0.047803
2747.0480,0.048453
2748.9117,0.048937
2750.7753,0.049612
2752.6390,0.050272
2754.5027,0.050744
2756.3663,0.051070
2758.2300,0.051634
2760.0937,0.052289
2761.9573,0.052514
2763.8210,0.052787
2765.6847,0.053135
2767.5483,0.053462
2769.4120,0.053802
2771.2757,0.054060
2773.1394,0.054522
2775.0030,0.055167
2776.8667,0.055628
2778.7304,0.056020
2780.5940,0.056229
2782.4577,0.056383
2784.3214,0.056383
2786.1850,0.056290
2788.0487,0.056132
2789.9124,0.056081
2791.7760,0.055820
2793.6397,0.055213
2795.5034,0.054617
2797.3670,0.054283
2799.2307,0.054197
2801.0944,0.054292
2802.9581,0.054232
2804.8217,0.053734
2806.6854,0.053175
2808.5491,0.052892
2810.4127,0.052903
2812.2764,0.053034
2814.1401,0.053198
2816.0037,0.053399
2817.8674,0.053400
2819.7311,0.053400
2821.5947,0.053437
2823.4584,0.053648
2825.3221,0.053730
2827.1857,0.053487
2829.0494,0.053262
2830.9131,0.053380
2832.7768,0.053456
2834.6404,0.053500
2836.5041,0.053694
2838.3678,0.053931
2840.2314,0.054386
2842.0951,0.054976
2843.9588,0.055334
2845.8224,0.055849
2847.6861,0.056617
2849.5498,0.057578
2851.4134,0.058199
2853.2771,0.058428
2855.1408,0.058770
2857.0045,0.059278
2858.8681,0.059281
2860.7318,0.059316
2862.5955,0.059900
2864.4591,0.060317
2866.3228,0.060452
2868.1865,0.060625
2870.0501,0.060785
2871.9138,0.061141
2873.7775,0.061455
2875.6411,0.061900
2877.5048,0.062494
2879.3685,0.062767
2881.2321,0.063332
2883.0958,0.064191
2884.9595,0.064904
2886.8232,0.065430
2888.6868,0.065790
2890.5505,0.066451
2892.4142,0.067053
2894.2778,0.067712
2896.1415,0.068277
2898.0052,0.068736
2899.8688,0.069124
2901.7325,0.069040
2903.5962,0.068728
2905.4598,0.068870
2907.3235,0.069277
2909.1872,0.069687
2911.0509,0.070204
2912.9145,0.071130
2914.7782,0.071860
2916.6419,0.072323
2918.5055,0.073258
2920.3692,0.074062
2922.2329,0.074288
2924.0965,0.074744
2925.9602,0.075385
2927.8239,0.076261
2929.6875,0.077245
2931.5512,0.077803
2933.4149,0.078413
2935.2785,0.079016
2937.1422,0.079230
2939.0059,0.079355
2940.8696,0.079207
2942.7332,0.079003
2944.5969,0.079440
2946.4606,0.080053
2948.3242,0.080060
2950.1879,0.080228
2952.0516,0.080488
2953.9152,0.080761
2955.7789,0.081055
2957.6426,0.081398
2959.5062,0.081926
2961.3699,0.082752
2963.2336,0.083368
2965.0972,0.083983
2966.9609,0.084973
2968.8246,0.085865
2970.6883,0.086459
2972.5519,0.086670
2974.4156,0.086190
2976.2793,0.085710
2978.1429,0.085894
2980.0066,0.086551
2981.8703,0.087140
2983.7339,0.087235
2985.5976,0.086809
2987.4613,0.086824
2989.3249,0.086974
2991.1886,0.086912
2993.0523,0.087388
2994.9160,0.088174
2996.7796,0.088756
2998.6433,0.089391
3000.5070,0.089770
3002.3706,0.090154
3004.2343,0.090907
3006.0980,0.091992
3007.9616,0.092882
3009.8253,0.093770
3011.6890,0.094689
3013.5526,0.095663
3015.4163,0.096405
3017.2800,0.096910
3019.1436,0.097271
3021.0073,0.097651
3022.8710,0.098025
3024.7347,0.098389
3026.5983,0.098907
3028.4620,0.099479
3030.3257,0.099780
3032.1893,0.099850
3034.0530,0.099899
3035.9167,0.100460
3037.7803,0.100910
3039.6440,0.101031
3041.5077,0.101034
3043.3713,0.101056
3045.2350,0.100891
3047.0987,0.100794
3048.9624,0.100954
3050.8260,0.101141
3052.6897,0.101099
3054.5534,0.101092
3056.4170,0.101147
3058.2807,0.101050
3060.1444,0.100776
3062.0080,0.100448
3063.8717,0.100102
3065.7354,0.100116
3067.5990,0.100382
3069.4627,0.100279
3071.3264,0.099809
3073.1900,0.099566
3075.0537,0.099370
3076.9174,0.098835
3078.7811,0.098296
3080.6447,0.097950
3082.5084,0.097669
3084.3721,0.097503
3086.2357,0.096865
3088.0994,0.096220
3089.9631,0.096099
3091.8267,0.095702
3093.6904,0.094546
3095.5541,0.093526
3097.4177,0.092979
3099.2814,0.092475
3101.1451,0.091894
3103.0087,0.090974
3104.8724,0.089856
3106.7361,0.089202
3108.5998,0.088669
3110.4634,0.087883
3112.3271,0.086622
3114.1908,0.085447
3116.0544,0.084590
3117.9181,0.084390
3119.7818,0.084311
3121.6454,0.083990
3123.5091,0.083227
3125.3728,0.082258
3127.2364,0.081194
3129.1001,0.080526
3130.9638,0.080317
3132.8275,0.079935
3134.6911,0.079423
3136.5548,0.079039
3138.4185,0.078332
3140.2821,0.078452
3142.1458,0.078957
3144.0095,0.078391
3145.8731,0.077479
3147.7368,0.076863
3149.6005,0.076036
3151.4641,0.075591
3153.3278,0.075980
3155.1915,0.076170
3157.0551,0.075439
3158.9188,0.074798
3160.7825,0.074119
3162.6462,0.073170
3164.5098,0.072793
3166.3735,0.072677
3168.2372,0.072038
3170.1008,0.071534
3171.9645,0.071851
3173.8282,0.071944
3175.6918,0.071364
3177.5555,0.070795
3179.4192,0.070797
3181.2828,0.070879
3183.1465,0.070227
3185.0102,0.069835
3186.8739,0.070219
3188.7375,0.070621
3190.6012,0.070641
3192.4649,0.070063
3194.3285,0.069901
3196.1922,0.070225
3198.0559,0.069833
3199.9195,0.069282
3201.7832,0.069541
3203.6469,0.070138
3205.5105,0.069740
3207.3742,0.069229
3209.2379,0.069108
3211.1015,0.068812
3212.9652,0.068340
3214.8289,0.067959
3216.6926,0.067854
3218.5562,0.067685
3220.4199,0.067491
3222.2836,0.066973
3224.1472,0.066173
3226.0109,0.065947
3227.8746,0.065735
3229.7382,0.065383
3231.6019,0.065123
3233.4656,0.064949
3235.3292,0.065253
3237.1929,0.065353
3239.0566,0.064524
3240.9202,0.064213
3242.7839,0.064582
3244.6476,0.065145
3246.5113,0.065773
3248.3749,0.065756
3250.2386,0.065538
3252.1023,0.065245
3253.9659,0.064929
3255.8296,0.065125
3257.6933,0.065486
3259.5569,0.065762
3261.4206,0.066239
3263.2843,0.066684
3265.1479,0.066446
3267.0116,0.066210
3268.8753,0.066450
3270.7390,0.066497
3272.6026,0.065994
3274.4663,0.066068
3276.3300,0.066252
3278.1936,0.065436
3280.0573,0.064992
3281.9210,0.065095
3283.7846,0.064357
3285.6483,0.063332
3287.5120,0.063103
3289.3756,0.062992
3291.2393,0.062314
3293.1030,0.061598
3294.9666,0.061097
3296.8303,0.060838
3298.6940,0.060291
3300.5577,0.059456
3302.4213,0.058467
3304.2850,0.058069
3306.1487,0.058066
3308.0123,0.057100
3309.8760,0.056758
3311.7397,0.056906
3313.6033,0.056129
3315.4670,0.055712
3317.3307,0.056373
3319.1943,0.056541
3321.0580,0.055966
3322.9217,0.055888
3324.7854,0.056592
3326.6490,0.057021
3328.5127,0.056378
3330.3764,0.056432
3332.2400,0.056882
3334.1037,0.056788
3335.9674,0.057272
3337.8310,0.056778
3339.6947,0.055160
3341.5584,0.054323
3343.4220,0.053953
3345.2857,0.053533
3347.1494,0.052355
3349.0130,0.050998
3350.8767,0.050178
3352.7404,0.049432
3354.6041,0.048276
3356.4677,0.046670
3358.3314,0.045892
3360.1951,0.046121
3362.0587,0.045293
3363.9224,0.043335
3365.7861,0.042510
3367.6497,0.043352
3369.5134,0.044175
3371.3771,0.044186
3373.2407,0.043934
3375.1044,0.043347
3376.9681,0.043379
3378.8317,0.043831
3380.6954,0.043969
3382.5591,0.044276
3384.4228,0.044374
3386.2864,0.044551
3388.1501,0.044665
3390.0138,0.044815
3391.8774,0.045704
3393.7411,0.046661
3395.6048,0.046803
3397.4684,0.045997
3399.3321,0.045723
3401.1958,0.045472
3403.0594,0.044302
3404.9231,0.043953
3406.7868,0.043346
3408.6505,0.041266
3410.5141,0.039771
3412.3778,0.038739
3414.2415,0.037301
3416.1051,0.036174
3417.9688,0.035418
3419.8325,0.034494
3421.6961,0.033445
3423.5598,0.032653
3425.4235,0.032096
3427.2871,0.031347
3429.1508,0.029619
3431.0145,0.028188
3432.8781,0.027760
3434.7418,0.027229
3436.6055,0.027284
3438.4692,0.026861
3440.3328,0.025856
3442.1965,0.025230
3444.0602,0.024043
3445.9238,0.024003
3447.7875,0.024135
3449.6512,0.023098
3451.5148,0.022570
3453.3785,0.022411
3455.2422,0.022562
3457.1058,0.022017
3458.9695,0.021150
3460.8332,0.021125
3462.6969,0.020331
3464.5605,0.019146
3466.4242,0.019595
3468.2879,0.020016
3470.1515,0.019572
3472.0152,0.019329
3473.8789,0.018996
3475.7425,0.018449
3477.6062,0.018607
3479.4699,0.018475
3481.3335,0.017611
3483.1972,0.017280
3485.0609,0.018339
3486.9245,0.018701
3488.7882,0.017700
3490.6519,0.017120
3492.5156,0.016384
3494.3792,0.015261
3496.2429,0.015328
3498.1066,0.015668
3499.9702,0.015443
3501.8339,0.015146
3503.6976,0.015142
3505.5612,0.014362
3507.4249,0.012743
3509.2886,0.012678
3511.1522,0.013872
3513.0159,0.014111
3514.8796,0.013723
3516.7432,0.013524
3518.6069,0.013438
3520.4706,0.013079
3522.3343,0.012732
3524.1979,0.012686
3526.0616,0.011840
3527.9253,0.011134
3529.7889,0.011161
3531.6526,0.010921
3533.5163,0.010581
3535.3799,0.011010
3537.2436,0.011263
3539.1073,0.010931
3540.9709,0.010798
3542.8346,0.010667
3544.6983,0.010874
3546.5620,0.011104
3548.4256,0.010606
3550.2893,0.010244
3552.1530,0.009880
3554.0166,0.009822
3555.8803,0.009765
3557.7440,0.009378
3559.6076,0.009259
3561.4713,0.009093
3563.3350,0.009456
3565.1986,0.009662
3567.0623,0.008894
3568.9260,0.008256
3570.7896,0.008467
3572.6533,0.008708
3574.5170,0.009189
3576.3807,0.009774
3578.2443,0.010284
3580.1080,0.009981
3581.9717,0.008986
3583.8353,0.008583
3585.6990,0.008588
3587.5627,0.008567
3589.4263,0.007748
3591.2900,0.007958
3593.1537,0.009089
3595.0173,0.009755
3596.8810,0.009540
3598.7447,0.008258
3600.6084,0.008201
3602.4720,0.009540
3604.3357,0.009154
3606.1994,0.008262
3608.0630,0.008498
3609.9267,0.008680
3611.7904,0.008486
3613.6540,0.008497
3615.5177,0.008504
3617.3814,0.008088
3619.2450,0.008115
3621.1087,0.008823
3622.9724,0.009043
3624.8360,0.008879
3626.6997,0.008795
3628.5634,0.009260
3630.4271,0.009810
3632.2907,0.009165
3634.1544,0.009166
3636.0181,0.009847
3637.8817,0.010150
3639.7454,0.010146
3641.6091,0.009697
3643.4727,0.009722
3645.3364,0.009968
3647.2001,0.009334
3649.0637,0.008370
3650.9274,0.007249
3652.7911,0.007863
3654.6547,0.009225
3656.5184,0.009907
3658.3821,0.010910
3660.2458,0.011572
3662.1094,0.011429
3663.9731,0.011296
3665.8368,0.011590
3667.7004,0.012505
3669.5641,0.013287
3671.4278,0.013456
3673.2914,0.013878
3675.1551,0.014702
3677.0188,0.013902
3678.8824,0.010431
3680.7461,0.008665
3682.6098,0.008183
3684.4735,0.008616
3686.3371,0.009015
3688.2008,0.009008
3690.0645,0.009162
3691.9281,0.009517
3693.7918,0.009746
3695.6555,0.010204
3697.5191,0.010534
3699.3828,0.010099
3701.2465,0.009504
3703.1101,0.008810
3704.9738,0.009024
3706.8375,0.009961
3708.7011,0.009802
3710.5648,0.009148
3712.4285,0.008986
3714.2922,0.009856
3716.1558,0.010281
3718.0195,0.009590
3719.8832,0.009311
3721.7468,0.009866
3723.6105,0.009988
3725.4742,0.010020
3727.3378,0.009648
3729.2015,0.009477
3731.0652,0.010311
3732.9288,0.010431
3734.7925,0.008610
3736.6562,0.007510
3738.5199,0.008120
3740.3835,0.009145
3742.2472,0.010253
3744.1109,0.010858
3745.9745,0.010055
3747.8382,0.008160
3749.7019,0.007622
3751.5655,0.007612
3753.4292,0.009105
3755.2929,0.010536
3757.1565,0.010171
3759.0202,0.010059
3760.8839,0.010858
3762.7475,0.011274
3764.6112,0.011186
3766.4749,0.011099
3768.3386,0.011025
3770.2022,0.011316
3772.0659,0.011054
3773.9296,0.010903
3775.7932,0.011191
3777.6569,0.011784
3779.5206,0.012529
3781.3842,0.012414
3783.2479,0.011974
3785.1116,0.011366
3786.9752,0.010976
3788.8389,0.011443
3790.7026,0.011517
3792.5662,0.011264
3794.4299,0.011161
3796.2936,0.011023
3798.1573,0.010914
3800.0209,0.011080
3801.8846,0.011034
3803.7483,0.011122
3805.6119,0.011470
3807.4756,0.011604
3809.3393,0.011548
3811.2029,0.011379
3813.0666,0.011250
3814.9303,0.011367
3816.7939,0.011516
3818.6576,0.010949
3820.5213,0.010815
3822.3850,0.011358
3824.2486,0.011752
3826.1123,0.011626
3827.9760,0.011762
3829.8396,0.011221
3831.7033,0.010565
3833.5670,0.010712
3835.4306,0.010995
3837.2943,0.011464
3839.1580,0.011526
3841.0216,0.011435
3842.8853,0.011696
3844.7490,0.011852
3846.6126,0.011887
3848.4763,0.012237
3850.3400,0.012209
3852.2037,0.011499
3854.0673,0.010744
3855.9310,0.010411
3857.7947,0.011569
3859.6583,0.012340
3861.5220,0.012129
3863.3857,0.011412
3865.2493,0.011262
3867.1130,0.012168
3868.9767,0.012612
3870.8403,0.012108
3872.7040,0.011960
3874.5677,0.012456
3876.4314,0.012354
3878.2950,0.011729
3880.1587,0.011565
3882.0224,0.011653
3883.8860,0.012453
3885.7497,0.012741
3887.6134,0.012258
3889.4770,0.012075
3891.3407,0.012250
3893.2044,0.012173
3895.0680,0.012214
3896.9317,0.012496
3898.7954,0.012420
3900.6590,0.012795
3902.5227,0.012964
3904.3864,0.012549
3906.2501,0.012334
3908.1137,0.012493
3909.9774,0.012778
3911.8411,0.012707
3913.7047,0.012549
3915.5684,0.012375
3917.4321,0.012656
3919.2957,0.013123
3921.1594,0.012917
3923.0231,0.013228
3924.8867,0.013632
3926.7504,0.013150
3928.6141,0.012931
3930.4777,0.013048
3932.3414,0.013063
3934.2051,0.013334
3936.0688,0.013291
3937.9324,0.013006
3939.7961,0.012898
3941.6598,0.012877
3943.5234,0.013380
3945.3871,0.013529
3947.2508,0.013198
3949.1144,0.013463
3950.9781,0.013690
3952.8418,0.013555
3954.7054,0.013299
3956.5691,0.013363
3958.4328,0.013380
3960.2965,0.013142
3962.1601,0.013346
3964.0238,0.013739
3965.8875,0.013595
3967.7511,0.013427
3969.6148,0.013079
3971.4785,0.013126
3973.3421,0.013314
3975.2058,0.013316
3977.0695,0.013871
3978.9331,0.013971
3980.7968,0.013397
3982.6605,0.013318
3984.5241,0.013916
3986.3878,0.014366
3988.2515,0.013874
3990.1152,0.013470
3991.9788,0.013481
3993.8425,0.013335
3995.7062,0.013206
3997.5698,0.013340
3999.4335,0.013383
