Wavenumber,Intensity
650.4205,0.204808
652.2841,0.217783
654.1478,0.233361
656.0115,0.246330
657.8751,0.262415
659.7388,0.280468
661.6025,0.300603
663.4661,0.319153
665.3298,0.335939
667.1935,0.350552
669.0571,0.344256
670.9208,0.315462
672.7845,0.290497
674.6481,0.266984
676.5118,0.251031
678.3755,0.241436
680.2392,0.235706
682.1028,0.227289
683.9665,0.213941
685.8302,0.196269
687.6938,0.181682
689.5575,0.170312
691.4212,0.159348
693.2848,0.148511
695.1485,0.139721
697.0122,0.132824
698.8758,0.128480
700.7395,0.127896
702.6032,0.128385
704.4669,0.126683
706.3305,0.124810
708.1942,0.121198
710.0579,0.116358
711.9215,0.111149
713.7852,0.107403
715.6489,0.104881
717.5125,0.103292
719.3762,0.102730
721.2399,0.103106
723.1035,0.103050
724.9672,0.104269
726.8309,0.107251
728.6945,0.110620
730.5582,0.115291
732.4219,0.122999
734.2856,0.136121
736.1492,0.160574
738.0129,0.196614
739.8766,0.232743
741.7402,0.256668
743.6039,0.243747
745.4676,0.180993
747.3312,0.128297
749.1949,0.109982
751.0586,0.102380
752.9222,0.100620
754.7859,0.095154
756.6496,0.081255
758.5132,0.073637
760.3769,0.073799
762.2406,0.076698
764.1043,0.081796
765.9679,0.087845
767.8316,0.089417
769.6953,0.085574
771.5589,0.083145
773.4226,0.084455
775.2863,0.087543
777.1499,0.091627
779.0136,0.094620
780.8773,0.095267
782.7409,0.095372
784.6046,0.096157
786.4683,0.097925
788.3320,0.100171
790.1956,0.102508
792.0593,0.104715
793.9230,0.106842
795.7866,0.109563
797.6503,0.113355
799.5140,0.118519
801.3776,0.124027
803.2413,0.125883
805.1050,0.123353
806.9686,0.120559
808.8323,0.119387
810.6960,0.119334
812.5596,0.119291
814.4233,0.119345
816.2870,0.119401
818.1507,0.119958
820.0143,0.120993
821.8780,0.122135
823.7417,0.123846
825.6053,0.126870
827.4690,0.130607
829.3327,0.133840
831.1963,0.134173
833.0600,0.131553
834.9237,0.129937
836.7873,0.131272
838.6510,0.132869
840.5147,0.133538
842.3784,0.135628
844.2420,0.141518
846.1057,0.150336
847.9694,0.157915
849.8330,0.158933
851.6967,0.154125
853.5604,0.153903
855.4240,0.160642
857.2877,0.165073
859.1514,0.164476
861.0150,0.164725
862.8787,0.168789
864.7424,0.172076
866.6060,0.170068
868.4697,0.165066
870.3334,0.162873
872.1971,0.165222
874.0607,0.169759
875.9244,0.172850
877.7881,0.173053
879.6517,0.172537
881.5154,0.174150
883.3791,0.176786
885.2427,0.178802
887.1064,0.180397
888.9701,0.182892
890.8337,0.185368
892.6974,0.187808
894.5611,0.190648
896.4247,0.194065
898.2884,0.197592
900.1521,0.201201
902.0158,0.205251
903.8794,0.209865
905.7431,0.215003
907.6068,0.221147
909.4704,0.228078
911.3341,0.236263
913.1978,0.245990
915.0614,0.254362
916.9251,0.255690
918.7888,0.250593
920.6524,0.243805
922.5161,0.238692
924.3798,0.236630
926.2435,0.237470
928.1071,0.239058
929.9708,0.239852
931.8345,0.240154
933.6981,0.241755
935.5618,0.244956
937.4255,0.248799
939.2891,0.252390
941.1528,0.255771
943.0165,0.259071
944.8801,0.262585
946.7438,0.265934
948.6075,0.269241
950.4711,0.272586
952.3348,0.276034
954.1985,0.279757
956.0622,0.283868
957.9258,0.287917
959.7895,0.292266
961.6532,0.296825
963.5168,0.301030
965.3805,0.304439
967.2442,0.308475
969.1078,0.313491
970.9715,0.319401
972.8352,0.325923
974.6988,0.334247
976.5625,0.345178
978.4262,0.359788
980.2899,0.376123
982.1535,0.380852
984.0172,0.363512
985.8809,0.344876
987.7445,0.338717
989.6082,0.338415
991.4719,0.338735
993.3355,0.340435
995.1992,0.343459
997.0629,0.347293
998.9265,0.351528
1000.7902,0.356070
1002.6539,0.360792
1004.5175,0.366105
1006.3812,0.368629
1008.2449,0.364632
1010.1086,0.356957
1011.9722,0.349744
1013.8359,0.342852
1015.6996,0.334809
1017.5632,0.324498
1019.4269,0.312129
1021.2906,0.297943
1023.1542,0.282987
1025.0179,0.268087
1026.8816,0.254050
1028.7452,0.240958
1030.6089,0.228880
1032.4726,0.217717
1034.3362,0.207533
1036.1999,0.198201
1038.0636,0.189686
1039.9273,0.181664
1041.7909,0.174252
1043.6546,0.167419
1045.5183,0.161052
1047.3819,0.154989
1049.2456,0.148881
1051.1093,0.142190
1052.9729,0.135204
1054.8366,0.129322
1056.7003,0.125524
1058.5639,0.123574
1060.4276,0.122322
1062.2913,0.120821
1064.1550,0.119649
1066.0186,0.119185
1067.8823,0.118233
1069.7460,0.117031
1071.6096,0.117497
1073.4733,0.119917
1075.3370,0.122343
1077.2006,0.121679
1079.0643,0.118199
1080.9280,0.115327
1082.7916,0.114492
1084.6553,0.115025
1086.5190,0.116424
1088.3826,0.118503
1090.2463,0.121181
1092.1100,0.124478
1093.9737,0.128111
1095.8373,0.131645
1097.7010,0.133970
1099.5647,0.133994
1101.4283,0.132377
1103.2920,0.129218
1105.1557,0.124711
1107.0193,0.120106
1108.8830,0.116002
1110.7467,0.112091
1112.6103,0.107914
1114.4740,0.103286
1116.3377,0.098016
1118.2014,0.092307
1120.0650,0.087165
1121.9287,0.083239
1123.7924,0.080796
1125.6560,0.079594
1127.5197,0.079092
1129.3834,0.078589
1131.2470,0.077383
1133.1107,0.075445
1134.9744,0.073758
1136.8380,0.072907
1138.7017,0.073235
1140.5654,0.074739
1142.4290,0.076234
1144.2927,0.075971
1146.1564,0.073642
1148.0201,0.070209
1149.8837,0.067213
1151.7474,0.066588
1153.6111,0.068724
1155.4747,0.071016
1157.3384,0.070338
1159.2021,0.066760
1161.0657,0.062619
1162.9294,0.059140
1164.7931,0.056469
1166.6567,0.055026
1168.5204,0.054807
1170.3841,0.055302
1172.2477,0.055849
1174.1114,0.055759
1175.9751,0.054626
1177.8388,0.052900
1179.7024,0.051470
1181.5661,0.050556
1183.4298,0.050081
1185.2934,0.050138
1187.1571,0.050521
1189.0208,0.050889
1190.8844,0.051133
1192.7481,0.051235
1194.6118,0.051194
1196.4754,0.051214
1198.3391,0.051542
1200.2028,0.052237
1202.0665,0.053033
1203.9301,0.053648
1205.7938,0.054084
1207.6575,0.054402
1209.5211,0.054565
1211.3848,0.054707
1213.2485,0.055058
1215.1121,0.055744
1216.9758,0.056811
1218.8395,0.058107
1220.7031,0.059407
1222.5668,0.061337
1224.4305,0.064738
1226.2941,0.069543
1228.1578,0.073937
1230.0215,0.075022
1231.8852,0.070521
1233.7488,0.062228
1235.6125,0.055906
1237.4762,0.053963
1239.3398,0.054416
1241.2035,0.055586
1243.0672,0.057007
1244.9308,0.058407
1246.7945,0.059599
1248.6582,0.060767
1250.5218,0.061611
1252.3855,0.061410
1254.2492,0.060581
1256.1129,0.059972
1257.9765,0.059608
1259.8402,0.059657
1261.7039,0.060067
1263.5675,0.060582
1265.4312,0.061293
1267.2949,0.062125
1269.1585,0.062968
1271.0222,0.064066
1272.8859,0.065398
1274.7495,0.066723
1276.6132,0.067928
1278.4769,0.068606
1280.3405,0.068598
1282.2042,0.068462
1284.0679,0.068819
1285.9316,0.069997
1287.7952,0.072161
1289.6589,0.075098
1291.5226,0.078658
1293.3862,0.081551
1295.2499,0.082643
1297.1136,0.083659
1298.9772,0.086148
1300.8409,0.090017
1302.7046,0.094427
1304.5682,0.097912
1306.4319,0.099190
1308.2956,0.097003
1310.1592,0.091837
1312.0229,0.087663
1313.8866,0.086671
1315.7503,0.085786
1317.6139,0.081840
1319.4776,0.077039
1321.3413,0.075393
1323.2049,0.077217
1325.0686,0.080839
1326.9323,0.084651
1328.7959,0.088187
1330.6596,0.092250
1332.5233,0.097399
1334.3869,0.103007
1336.2506,0.107750
1338.1143,0.110586
1339.9780,0.110983
1341.8416,0.108917
1343.7053,0.109399
1345.5690,0.115108
1347.4326,0.124685
1349.2963,0.134309
1351.1600,0.137910
1353.0236,0.137036
1354.8873,0.139750
1356.7510,0.141131
1358.6146,0.128787
1360.4783,0.106880
1362.3420,0.088717
1364.2056,0.079558
1366.0693,0.077418
1367.9330,0.078814
1369.7967,0.081378
1371.6603,0.083946
1373.5240,0.088537
1375.3877,0.093875
1377.2513,0.097252
1379.1150,0.101357
1380.9787,0.106313
1382.8423,0.111269
1384.7060,0.116451
1386.5697,0.124061
1388.4333,0.133197
1390.2970,0.138253
1392.1607,0.142327
1394.0244,0.148299
1395.8880,0.153502
1397.7517,0.154688
1399.6154,0.154561
1401.4790,0.152760
1403.3427,0.151593
1405.2064,0.149383
1407.0700,0.143244
1408.9337,0.135584
1410.7974,0.128123
1412.6610,0.121261
1414.5247,0.114861
1416.3884,0.108264
1418.2520,0.102385
1420.1157,0.096872
1421.9794,0.091470
1423.8431,0.082821
1425.7067,0.069787
1427.5704,0.060779
1429.4341,0.055460
1431.2977,0.052443
1433.1614,0.051723
1435.0251,0.053061
1436.8887,0.056490
1438.7524,0.057971
1440.6161,0.059001
1442.4797,0.061632
1444.3434,0.065714
1446.2071,0.071796
1448.0707,0.079066
1449.9344,0.081622
1451.7981,0.081294
1453.6618,0.085514
1455.5254,0.096730
1457.3891,0.099893
1459.2528,0.075051
1461.1164,0.060657
1462.9801,0.055552
1464.8438,0.054903
1466.7074,0.054273
1468.5711,0.053092
1470.4348,0.053008
1472.2984,0.055337
1474.1621,0.057192
1476.0258,0.057769
1477.8895,0.057881
1479.7531,0.058523
1481.6168,0.060411
1483.4805,0.061995
1485.3441,0.063542
1487.2078,0.065273
1489.0715,0.066729
1490.9351,0.067047
1492.7988,0.065122
1494.6625,0.065148
1496.5261,0.068261
1498.3898,0.071396
1500.2535,0.071589
1502.1171,0.070457
1503.9808,0.070152
1505.8445,0.074742
1507.7082,0.085595
1509.5718,0.083850
1511.4355,0.082252
1513.2992,0.082103
1515.1628,0.082789
1517.0265,0.084965
1518.8902,0.085346
1520.7538,0.088183
1522.6175,0.091570
1524.4812,0.091245
1526.3448,0.093173
1528.2085,0.094605
1530.0722,0.093919
1531.9359,0.095259
1533.7995,0.099135
1535.6632,0.098205
1537.5269,0.097062
1539.3905,0.101711
1541.2542,0.111190
1543.1179,0.113131
1544.9815,0.114969
1546.8452,0.115624
1548.7089,0.117702
1550.5725,0.122376
1552.4362,0.125198
1554.2999,0.127274
1556.1635,0.129204
1558.0272,0.136632
1559.8909,0.152996
1561.7546,0.147531
1563.6182,0.146360
1565.4819,0.149951
1567.3456,0.153603
1569.2092,0.159306
1571.0729,0.164271
1572.9366,0.164495
1574.8002,0.167191
1576.6639,0.174057
1578.5276,0.175803
1580.3912,0.175421
1582.2549,0.176168
1584.1186,0.175953
1585.9822,0.174447
1587.8459,0.172118
1589.7096,0.169099
1591.5733,0.165189
1593.4369,0.161061
1595.3006,0.156758
1597.1643,0.152064
1599.0279,0.147479
1600.8916,0.143584
1602.7553,0.139576
1604.6189,0.135401
1606.4826,0.131573
1608.3463,0.128271
1610.2099,0.124496
1612.0736,0.120479
1613.9373,0.116723
1615.8010,0.113792
1617.6646,0.107116
1619.5283,0.100063
1621.3920,0.096465
1623.2556,0.093044
1625.1193,0.088568
1626.9830,0.085589
1628.8466,0.081813
1630.7103,0.077569
1632.5740,0.074646
1634.4376,0.073324
1636.3013,0.072480
1638.1650,0.071466
1640.0286,0.072099
1641.8923,0.073238
1643.7560,0.074933
1645.6197,0.078737
1647.4833,0.084282
1649.3470,0.086044
1651.2107,0.087911
1653.0743,0.095239
1654.9380,0.102217
1656.8017,0.101945
1658.6653,0.102658
1660.5290,0.103260
1662.3927,0.102692
1664.2563,0.098955
1666.1200,0.094288
1667.9837,0.089433
1669.8474,0.080727
1671.7110,0.070406
1673.5747,0.064196
1675.4384,0.058634
1677.3020,0.052986
1679.1657,0.051557
1681.0294,0.051120
1682.8930,0.051728
1684.7567,0.053169
1686.6204,0.051630
1688.4840,0.051527
1690.3477,0.050887
1692.2114,0.049313
1694.0750,0.048396
1695.9387,0.047211
1697.8024,0.044109
1699.6661,0.043416
1701.5297,0.039498
1703.3934,0.036649
1705.2571,0.034924
1707.1207,0.031092
1708.9844,0.028285
1710.8481,0.026395
1712.7117,0.024820
1714.5754,0.023811
1716.4391,0.022860
1718.3027,0.021709
1720.1664,0.020252
1722.0301,0.020213
1723.8937,0.019862
1725.7574,0.018958
1727.6211,0.018297
1729.4848,0.017735
1731.3484,0.017022
1733.2121,0.017126
1735.0758,0.015924
1736.9394,0.014866
1738.8031,0.015619
1740.6668,0.015281
1742.5304,0.014834
1744.3941,0.014775
1746.2578,0.014625
1748.1214,0.014653
1749.9851,0.014629
1751.8488,0.014428
1753.7125,0.013985
1755.5761,0.014394
1757.4398,0.014578
1759.3035,0.014373
1761.1671,0.014837
1763.0308,0.014667
1764.8945,0.014480
1766.7581,0.014891
1768.6218,0.014698
1770.4855,0.014462
1772.3491,0.014790
1774.2128,0.014051
1776.0765,0.014048
1777.9401,0.014128
1779.8038,0.014328
1781.6675,0.014250
1783.5312,0.014264
1785.3948,0.014339
1787.2585,0.014161
1789.1222,0.014432
1790.9858,0.015054
1792.8495,0.015050
1794.7132,0.014513
1796.5768,0.014658
1798.4405,0.015015
1800.3042,0.015466
1802.1678,0.015674
1804.0315,0.015636
1805.8952,0.015608
1807.7589,0.015711
1809.6225,0.015786
1811.4862,0.015634
1813.3499,0.015258
1815.2135,0.015211
1817.0772,0.015387
1818.9409,0.015394
1820.8045,0.015370
1822.6682,0.015510
1824.5319,0.015699
1826.3955,0.015229
1828.2592,0.015244
1830.1229,0.015750
1831.9865,0.015206
1833.8502,0.015131
1835.7139,0.015161
1837.5776,0.015212
1839.4412,0.015123
1841.3049,0.015253
1843.1686,0.015793
1845.0322,0.015782
1846.8959,0.015264
1848.7596,0.015270
1850.6232,0.015314
1852.4869,0.015621
1854.3506,0.015745
1856.2142,0.015771
1858.0779,0.015663
1859.9416,0.015667
1861.8052,0.015457
1863.6689,0.015431
1865.5326,0.015449
1867.3963,0.015494
1869.2599,0.015219
1871.1236,0.014933
1872.9873,0.015330
1874.8509,0.015643
1876.7146,0.015771
1878.5783,0.015808
1880.4419,0.015770
1882.3056,0.016157
1884.1693,0.016239
1886.0329,0.016008
1887.8966,0.016033
1889.7603,0.015591
1891.6240,0.014682
1893.4876,0.015076
1895.3513,0.015418
1897.2150,0.015177
1899.0786,0.015185
1900.9423,0.015509
1902.8060,0.015567
1904.6696,0.015503
1906.5333,0.015311
1908.3970,0.015398
1910.2606,0.015616
1912.1243,0.015819
1913.9880,0.016247
1915.8516,0.016677
1917.7153,0.016567
1919.5790,0.015618
1921.4427,0.015493
1923.3063,0.016011
1925.1700,0.015716
1927.0337,0.015338
1928.8973,0.014726
1930.7610,0.014423
1932.6247,0.014213
1934.4883,0.013998
1936.3520,0.014240
1938.2157,0.014553
1940.0793,0.014217
1941.9430,0.013794
1943.8067,0.013100
1945.6704,0.012677
1947.5340,0.012380
1949.3977,0.012844
1951.2614,0.013478
1953.1250,0.013079
1954.9887,0.011488
1956.8524,0.010286
1958.7160,0.010189
1960.5797,0.010613
1962.4434,0.011008
1964.3070,0.010606
1966.1707,0.009244
1968.0344,0.007502
1969.8980,0.006804
1971.7617,0.007780
1973.6254,0.008041
1975.4891,0.007751
1977.3527,0.006752
1979.2164,0.006610
1981.0801,0.007217
1982.9437,0.007838
1984.8074,0.008909
1986.6711,0.010134
1988.5347,0.010478
1990.3984,0.010560
1992.2621,0.010005
1994.1257,0.009605
1995.9894,0.010382
1997.8531,0.011405
1999.7167,0.010905
2001.5804,0.010102
2003.4441,0.010209
2005.3078,0.010556
2007.1714,0.009627
2009.0351,0.007641
2010.8988,0.007066
2012.7624,0.008243
2014.6261,0.008475
2016.4898,0.007955
2018.3534,0.007152
2020.2171,0.007548
2022.0808,0.008068
2023.9444,0.007744
2025.8081,0.007839
2027.6718,0.007759
2029.5355,0.007817
2031.3991,0.008779
2033.2628,0.008621
2035.1265,0.008034
2036.9901,0.008874
2038.8538,0.010899
2040.7175,0.011964
2042.5811,0.011948
2044.4448,0.012659
2046.3085,0.014250
2048.1721,0.014931
2050.0358,0.015262
2051.8995,0.016190
2053.7631,0.017092
2055.6268,0.017229
2057.4905,0.017298
2059.3542,0.017508
2061.2178,0.017827
2063.0815,0.018570
2064.9452,0.019323
2066.8088,0.019083
2068.6725,0.019010
2070.5362,0.019618
2072.3998,0.020222
2074.2635,0.020324
2076.1272,0.020758
2077.9908,0.020956
2079.8545,0.020779
2081.7182,0.021066
2083.5819,0.021352
2085.4455,0.021349
2087.3092,0.021482
2089.1729,0.021116
2091.0365,0.020886
2092.9002,0.020982
2094.7639,0.020982
2096.6275,0.020949
2098.4912,0.020971
2100.3549,0.020352
2102.2185,0.019904
2104.0822,0.020378
2105.9459,0.020689
2107.8095,0.020249
2109.6732,0.020171
2111.5369,0.020321
2113.4006,0.020551
2115.2642,0.020500
2117.1279,0.019849
2118.9916,0.019221
2120.8552,0.019760
2122.7189,0.020277
2124.5826,0.019620
2126.4462,0.018953
2128.3099,0.019011
2130.1736,0.018295
2132.0372,0.017357
2133.9009,0.017048
2135.7646,0.017030
2137.6282,0.017070
2139.4919,0.016701
2141.3556,0.015163
2143.2193,0.014024
2145.0829,0.013378
2146.9466,0.013829
2148.8103,0.013316
2150.6739,0.010833
2152.5376,0.010554
2154.4013,0.011443
2156.2649,0.008883
2158.1286,0.005545
2159.9923,0.005066
2161.8559,0.007604
2163.7196,0.009231
2165.5833,0.009231
2167.4470,0.009462
2169.3106,0.010907
2171.1743,0.012390
2173.0380,0.013287
2174.9016,0.013293
2176.7653,0.012902
2178.6290,0.013097
2180.4926,0.013575
2182.3563,0.013558
2184.2200,0.013915
2186.0836,0.014591
2187.9473,0.014036
2189.8110,0.013983
2191.6746,0.015620
2193.5383,0.015672
2195.4020,0.015641
2197.2657,0.016405
2199.1293,0.016456
2200.9930,0.016806
2202.8567,0.017375
2204.7203,0.017221
2206.5840,0.017742
2208.4477,0.017458
2210.3113,0.017271
2212.1750,0.018566
2214.0387,0.019183
2215.9023,0.018961
2217.7660,0.018741
2219.6297,0.019234
2221.4934,0.020822
2223.3570,0.020993
2225.2207,0.020433
2227.0844,0.020041
2228.9480,0.019840
2230.8117,0.019972
2232.6754,0.020456
2234.5390,0.021087
2236.4027,0.021090
2238.2664,0.021495
2240.1300,0.022461
2241.9937,0.022543
2243.8574,0.022332
2245.7210,0.022659
2247.5847,0.023095
2249.4484,0.023136
2251.3121,0.023505
2253.1757,0.023996
2255.0394,0.024751
2256.9031,0.025193
2258.7667,0.024780
2260.6304,0.024617
2262.4941,0.024922
2264.3577,0.025159
2266.2214,0.025781
2268.0851,0.026386
2269.9487,0.026871
2271.8124,0.027134
2273.6761,0.026874
2275.5397,0.027326
2277.4034,0.028438
2279.2671,0.028786
2281.1308,0.028637
2282.9944,0.028829
2284.8581,0.029479
2286.7218,0.029822
2288.5854,0.029571
2290.4491,0.029423
2292.3128,0.029792
2294.1764,0.030240
2296.0401,0.030448
2297.9038,0.030467
2299.7674,0.030805
2301.6311,0.030983
2303.4948,0.030910
2305.3585,0.031082
2307.2221,0.031483
2309.0858,0.031627
2310.9495,0.031549
2312.8131,0.031612
2314.6768,0.031657
2316.5405,0.031565
2318.4041,0.031963
2320.2678,0.032327
2322.1315,0.032317
2323.9951,0.032674
2325.8588,0.032534
2327.7225,0.031616
2329.5861,0.031304
2331.4498,0.031625
2333.3135,0.031861
2335.1772,0.031989
2337.0408,0.032412
2338.9045,0.032760
2340.7682,0.032879
2342.6318,0.033154
2344.4955,0.033439
2346.3592,0.033293
2348.2228,0.032663
2350.0865,0.032087
2351.9502,0.031987
2353.8138,0.032153
2355.6775,0.032478
2357.5412,0.032912
2359.4049,0.033044
2361.2685,0.033052
2363.1322,0.033344
2364.9959,0.033669
2366.8595,0.034270
2368.7232,0.034706
2370.5869,0.034844
2372.4505,0.035066
2374.3142,0.035372
2376.1779,0.035318
2378.0415,0.034944
2379.9052,0.034935
2381.7689,0.035217
2383.6325,0.035465
2385.4962,0.035496
2387.3599,0.035460
2389.2236,0.035458
2391.0872,0.035591
2392.9509,0.035740
2394.8146,0.035659
2396.6782,0.035508
2398.5419,0.035606
2400.4056,0.035952
2402.2692,0.036027
2404.1329,0.035951
2405.9966,0.035998
2407.8602,0.036144
2409.7239,0.036373
2411.5876,0.036383
2413.4512,0.036097
2415.3149,0.036068
2417.1786,0.036222
2419.0423,0.036311
2420.9059,0.036562
2422.7696,0.036592
2424.6333,0.036474
2426.4969,0.036746
2428.3606,0.036869
2430.2243,0.036486
2432.0879,0.036615
2433.9516,0.037035
2435.8153,0.036918
2437.6789,0.036907
2439.5426,0.037106
2441.4063,0.037058
2443.2700,0.037079
2445.1336,0.037242
2446.9973,0.037359
2448.8610,0.037710
2450.7246,0.037757
2452.5883,0.037586
2454.4520,0.037874
2456.3156,0.038124
2458.1793,0.037991
2460.0430,0.038219
2461.9066,0.038231
2463.7703,0.037929
2465.6340,0.038011
2467.4976,0.038140
2469.3613,0.038443
2471.2250,0.038588
2473.0887,0.038540
2474.9523,0.038638
2476.8160,0.038741
2478.6797,0.039000
2480.5433,0.039290
2482.4070,0.039208
2484.2707,0.039098
2486.1343,0.039256
2487.9980,0.039189
2489.8617,0.038790
2491.7253,0.038700
2493.5890,0.039241
2495.4527,0.039528
2497.3164,0.039413
2499.1800,0.039509
2501.0437,0.039411
2502.9074,0.039534
2504.7710,0.039730
2506.6347,0.039374
2508.4984,0.039488
2510.3620,0.039804
2512.2257,0.039785
2514.0894,0.039940
2515.9530,0.040166
2517.8167,0.040603
2519.6804,0.040650
2521.5440,0.040165
2523.4077,0.040073
2525.2714,0.040226
2527.1351,0.040334
2528.9987,0.040256
2530.8624,0.040278
2532.7261,0.040534
2534.5897,0.040422
2536.4534,0.039932
2538.3171,0.039786
2540.1807,0.040057
2542.0444,0.040223
2543.9081,0.040344
2545.7717,0.040527
2547.6354,0.040715
2549.4991,0.040954
2551.3627,0.041014
2553.2264,0.041019
2555.0901,0.040694
2556.9538,0.040512
2558.8174,0.041137
2560.6811,0.041161
2562.5448,0.040608
2564.4084,0.040743
2566.2721,0.041194
2568.1358,0.041310
2569.9994,0.041416
2571.8631,0.041626
2573.7268,0.041756
2575.5904,0.041452
2577.4541,0.041372
2579.3178,0.041341
2581.1815,0.041056
2583.0451,0.041062
2584.9088,0.041371
2586.7725,0.041237
2588.6361,0.040724
2590.4998,0.040802
2592.3635,0.041087
2594.2271,0.041069
2596.0908,0.041096
2597.9545,0.041198
2599.8181,0.041173
2601.6818,0.041402
2603.5455,0.041824
2605.4091,0.041608
2607.2728,0.041262
2609.1365,0.041089
2611.0002,0.041097
2612.8638,0.041392
2614.7275,0.041556
2616.5912,0.041704
2618.4548,0.041879
2620.3185,0.041864
2622.1822,0.041923
2624.0458,0.041687
2625.9095,0.041512
2627.7732,0.041525
2629.6368,0.041452
2631.5005,0.041410
2633.3642,0.041502
2635.2279,0.041670
2637.0915,0.041489
2638.9552,0.041418
2640.8189,0.041675
2642.6825,0.041585
2644.5462,0.041266
2646.4099,0.041149
2648.2735,0.041533
2650.1372,0.041813
2652.0009,0.041764
2653.8645,0.041639
2655.7282,0.041482
2657.5919,0.041497
2659.4555,0.041511
2661.3192,0.041514
2663.1829,0.041575
2665.0466,0.041581
2666.9102,0.041769
2668.7739,0.041915
2670.6376,0.041721
2672.5012,0.041835
2674.3649,0.042173
2676.2286,0.042265
2678.0922,0.042302
2679.9559,0.042393
2681.8196,0.042607
2683.6832,0.042918
2685.5469,0.043102
2687.4106,0.043231
2689.2742,0.043459
2691.1379,0.043821
2693.0016,0.044174
2694.8653,0.044370
2696.7289,0.044635
2698.5926,0.044842
2700.4563,0.044974
2702.3199,0.045255
2704.1836,0.045557
2706.0473,0.045904
2707.9109,0.046385
2709.7746,0.046576
2711.6383,0.046622
2713.5019,0.046856
2715.3656,0.047165
2717.2293,0.047197
2719.0930,0.047463
2720.9566,0.047679
2722.8203,0.047588
2724.6840,0.047788
2726.5476,0.048259
2728.4113,0.048582
2730.2750,0.048737
2732.1386,0.048703
2734.0023,0.048775
2735.8660,0.049048
2737.7296,0.049218
2739.5933,0.049161
2741.4570,0.049174
2743.3206,0.049177
2745.1843,0.049243
2747.0480,0.049685
2748.9117,0.050063
2750.7753,0.050066
2752.6390,0.050057
2754.5027,0.050071
2756.3663,0.050304
2758.2300,0.050508
2760.0937,0.050511
2761.9573,0.050893
2763.8210,0.051509
2765.6847,0.051637
2767.5483,0.051535
2769.4120,0.051816
2771.2757,0.051969
2773.1394,0.052157
2775.0030,0.052703
2776.8667,0.053121
2778.7304,0.053275
2780.5940,0.053505
2782.4577,0.053931
2784.3214,0.054001
2786.1850,0.053882
2788.0487,0.053893
2789.9124,0.053850
2791.7760,0.053833
2793.6397,0.053632
2795.5034,0.053225
2797.3670,0.053316
2799.2307,0.053347
2801.0944,0.053199
2802.9581,0.053077
2804.8217,0.053029
2806.6854,0.053025
2808.5491,0.053056
2810.4127,0.052895
2812.2764,0.053053
2814.1401,0.053166
2816.0037,0.052887
2817.8674,0.052902
2819.7311,0.053438
2821.5947,0.053652
2823.4584,0.053567
2825.3221,0.053612
2827.1857,0.053714
2829.0494,0.053515
2830.9131,0.053339
2832.7768,0.053265
2834.6404,0.053087
2836.5041,0.053472
2838.3678,0.054224
2840.2314,0.054678
2842.0951,0.054774
2843.9588,0.054733
2845.8224,0.054965
2847.6861,0.055507
2849.5498,0.055971
2851.4134,0.056137
2853.2771,0.056331
2855.1408,0.056584
2857.0045,0.056803
2858.8681,0.057314
2860.7318,0.057578
2862.5955,0.057376
2864.4591,0.057335
2866.3228,0.057293
2868.1865,0.057305
2870.0501,0.057541
2871.9138,0.057797
2873.7775,0.057777
2875.6411,0.057929
2877.5048,0.058305
2879.3685,0.058494
2881.2321,0.058900
2883.0958,0.059367
2884.9595,0.059616
2886.8232,0.059911
2888.6868,0.059999
2890.5505,0.060392
2892.4142,0.060954
2894.2778,0.061562
2896.1415,0.062144
2898.0052,0.062439
2899.8688,0.062533
2901.7325,0.062568
2903.5962,0.062856
2905.4598,0.063314
2907.3235,0.063355
2909.1872,0.063298
2911.0509,0.063311
2912.9145,0.063651
2914.7782,0.064164
2916.6419,0.064618
2918.5055,0.065188
2920.3692,0.065778
2922.2329,0.066034
2924.0965,0.066672
2925.9602,0.067791
2927.8239,0.068658
2929.6875,0.069168
2931.5512,0.069333
2933.4149,0.069435
2935.2785,0.069835
2937.1422,0.070317
2939.0059,0.070894
2940.8696,0.071211
2942.7332,0.071603
2944.5969,0.071825
2946.4606,0.072063
2948.3242,0.072365
2950.1879,0.072735
2952.0516,0.073272
2953.9152,0.073823
2955.7789,0.074274
2957.6426,0.074754
2959.5062,0.075116
2961.3699,0.075186
2963.2336,0.075493
2965.0972,0.076304
2966.9609,0.076996
2968.8246,0.077836
2970.6883,0.078393
2972.5519,0.078825
2974.4156,0.079216
2976.2793,0.079568
2978.1429,0.079567
2980.0066,0.079322
2981.8703,0.079188
2983.7339,0.079495
2985.5976,0.079739
2987.4613,0.079972
2989.3249,0.080412
2991.1886,0.081429
2993.0523,0.082620
2994.9160,0.083385
2996.7796,0.084024
2998.6433,0.084872
3000.5070,0.085330
3002.3706,0.085717
3004.2343,0.086356
3006.0980,0.087119
3007.9616,0.087156
3009.8253,0.087118
3011.6890,0.087876
3013.5526,0.088141
3015.4163,0.087661
3017.2800,0.087574
3019.1436,0.087548
3021.0073,0.087291
3022.8710,0.087147
3024.7347,0.086728
3026.5983,0.086410
3028.4620,0.086563
3030.3257,0.086378
3032.1893,0.086272
3034.0530,0.085893
3035.9167,0.085871
3037.7803,0.085809
3039.6440,0.085558
3041.5077,0.085337
3043.3713,0.085225
3045.2350,0.084650
3047.0987,0.084205
3048.9624,0.084310
3050.8260,0.083822
3052.6897,0.082982
3054.5534,0.082412
3056.4170,0.081575
3058.2807,0.081002
3060.1444,0.080807
3062.0080,0.080284
3063.8717,0.079286
3065.7354,0.078881
3067.5990,0.079360
3069.4627,0.079854
3071.3264,0.079697
3073.1900,0.079306
3075.0537,0.079708
3076.9174,0.080207
3078.7811,0.079499
3080.6447,0.078188
3082.5084,0.076567
3084.3721,0.075133
3086.2357,0.073242
3088.0994,0.070989
3089.9631,0.069378
3091.8267,0.068630
3093.6904,0.067592
3095.5541,0.066201
3097.4177,0.065318
3099.2814,0.064919
3101.1451,0.064574
3103.0087,0.064106
3104.8724,0.062697
3106.7361,0.061744
3108.5998,0.061770
3110.4634,0.061444
3112.3271,0.060548
3114.1908,0.059768
3116.0544,0.059121
3117.9181,0.059361
3119.7818,0.059411
3121.6454,0.058671
3123.5091,0.057924
3125.3728,0.056747
3127.2364,0.055492
3129.1001,0.054952
3130.9638,0.054545
3132.8275,0.054232
3134.6911,0.053680
3136.5548,0.053180
3138.4185,0.052574
3140.2821,0.052651
3142.1458,0.052640
3144.0095,0.051823
3145.8731,0.051012
3147.7368,0.050757
3149.6005,0.050731
3151.4641,0.050656
3153.3278,0.050816
3155.1915,0.050914
3157.0551,0.050180
3158.9188,0.049249
3160.7825,0.048278
3162.6462,0.047862
3164.5098,0.047806
3166.3735,0.047635
3168.2372,0.047260
3170.1008,0.047060
3171.9645,0.046813
3173.8282,0.046291
3175.6918,0.045488
3177.5555,0.045593
3179.4192,0.045412
3181.2828,0.045016
3183.1465,0.045575
3185.0102,0.045634
3186.8739,0.044989
3188.7375,0.044736
3190.6012,0.044620
3192.4649,0.045003
3194.3285,0.044940
3196.1922,0.044651
3198.0559,0.044340
3199.9195,0.044142
3201.7832,0.043760
3203.6469,0.043437
3205.5105,0.043811
3207.3742,0.044690
3209.2379,0.044570
3211.1015,0.044239
3212.9652,0.044502
3214.8289,0.044289
3216.6926,0.043719
3218.5562,0.044561
3220.4199,0.045550
3222.2836,0.045239
3224.1472,0.044566
3226.0109,0.044387
3227.8746,0.044220
3229.7382,0.044396
3231.6019,0.044332
3233.4656,0.044583
3235.3292,0.045280
3237.1929,0.045540
3239.0566,0.045895
3240.9202,0.045909
3242.7839,0.045129
3244.6476,0.045208
3246.5113,0.046093
3248.3749,0.046373
3250.2386,0.045849
3252.1023,0.046058
3253.9659,0.046603
3255.8296,0.046563
3257.6933,0.046562
3259.5569,0.046698
3261.4206,0.045748
3263.2843,0.045931
3265.1479,0.046794
3267.0116,0.046868
3268.8753,0.046625
3270.7390,0.046688
3272.6026,0.047059
3274.4663,0.047184
3276.3300,0.046911
3278.1936,0.047202
3280.0573,0.047660
3281.9210,0.047545
3283.7846,0.046747
3285.6483,0.045918
3287.5120,0.045767
3289.3756,0.045611
3291.2393,0.045373
3293.1030,0.045200
3294.9666,0.045249
3296.8303,0.045543
3298.6940,0.044643
3300.5577,0.043883
3302.4213,0.043891
3304.2850,0.044481
3306.1487,0.044240
3308.0123,0.044233
3309.8760,0.043975
3311.7397,0.043859
3313.6033,0.043596
3315.4670,0.043320
3317.3307,0.043256
3319.1943,0.043348
3321.0580,0.043039
3322.9217,0.042990
3324.7854,0.043469
3326.6490,0.044429
3328.5127,0.044955
3330.3764,0.044387
3332.2400,0.043598
3334.1037,0.044097
3335.9674,0.044069
3337.8310,0.043600
3339.6947,0.043759
3341.5584,0.043795
3343.4220,0.043713
3345.2857,0.043543
3347.1494,0.043020
3349.0130,0.042981
3350.8767,0.043311
3352.7404,0.043023
3354.6041,0.041675
3356.4677,0.041472
3358.3314,0.041919
3360.1951,0.041872
3362.0587,0.042058
3363.9224,0.042069
3365.7861,0.041582
3367.6497,0.042623
3369.5134,0.044179
3371.3771,0.044400
3373.2407,0.045012
3375.1044,0.045886
3376.9681,0.046421
3378.8317,0.047616
3380.6954,0.049126
3382.5591,0.050735
3384.4228,0.051742
3386.2864,0.053025
3388.1501,0.055263
3390.0138,0.058847
3391.8774,0.062876
3393.7411,0.066515
3395.6048,0.070254
3397.4684,0.074564
3399.3321,0.077406
3401.1958,0.079379
3403.0594,0.079471
3404.9231,0.076606
3406.7868,0.070658
3408.6505,0.064621
3410.5141,0.058399
3412.3778,0.052605
3414.2415,0.047258
3416.1051,0.042548
3417.9688,0.038611
3419.8325,0.035623
3421.6961,0.033017
3423.5598,0.031134
3425.4235,0.028804
3427.2871,0.027485
3429.1508,0.027285
3431.0145,0.027050
3432.8781,0.026352
3434.7418,0.026020
3436.6055,0.025775
3438.4692,0.025434
3440.3328,0.025438
3442.1965,0.025580
3444.0602,0.024810
3445.9238,0.023916
3447.7875,0.023222
3449.6512,0.024278
3451.5148,0.024008
3453.3785,0.022321
3455.2422,0.021944
3457.1058,0.022390
3458.9695,0.022845
3460.8332,0.022526
3462.6969,0.022086
3464.5605,0.021956
3466.4242,0.021182
3468.2879,0.020895
3470.1515,0.020975
3472.0152,0.020611
3473.8789,0.020455
3475.7425,0.020395
3477.6062,0.020018
3479.4699,0.019869
3481.3335,0.019806
3483.1972,0.019680
3485.0609,0.019352
3486.9245,0.019712
3488.7882,0.019515
3490.6519,0.019646
3492.5156,0.019888
3494.3792,0.018949
3496.2429,0.018223
3498.1066,0.018408
3499.9702,0.018905
3501.8339,0.018969
3503.6976,0.018468
3505.5612,0.018627
3507.4249,0.019090
3509.2886,0.019771
3511.1522,0.018961
3513.0159,0.017541
3514.8796,0.017973
3516.7432,0.018261
3518.6069,0.018554
3520.4706,0.018991
3522.3343,0.018027
3524.1979,0.018368
3526.0616,0.017642
3527.9253,0.017059
3529.7889,0.017720
3531.6526,0.017123
3533.5163,0.016431
3535.3799,0.016838
3537.2436,0.016957
3539.1073,0.016526
3540.9709,0.016467
3542.8346,0.016756
3544.6983,0.016532
3546.5620,0.016593
3548.4256,0.016728
3550.2893,0.016671
3552.1530,0.017053
3554.0166,0.017688
3555.8803,0.016592
3557.7440,0.016257
3559.6076,0.016235
3561.4713,0.016216
3563.3350,0.016260
3565.1986,0.016644
3567.0623,0.016279
3568.9260,0.016129
3570.7896,0.015961
3572.6533,0.016868
3574.5170,0.017363
3576.3807,0.017231
3578.2443,0.017272
3580.1080,0.017223
3581.9717,0.016270
3583.8353,0.016498
3585.6990,0.016398
3587.5627,0.016572
3589.4263,0.015770
3591.2900,0.015252
3593.1537,0.016360
3595.0173,0.017382
3596.8810,0.017869
3598.7447,0.017281
3600.6084,0.016629
3602.4720,0.016830
3604.3357,0.016914
3606.1994,0.017084
3608.0630,0.017746
3609.9267,0.016977
3611.7904,0.016003
3613.6540,0.016697
3615.5177,0.017546
3617.3814,0.016821
3619.2450,0.016329
3621.1087,0.016305
3622.9724,0.016515
3624.8360,0.016443
3626.6997,0.016739
3628.5634,0.018114
3630.4271,0.018735
3632.2907,0.018267
3634.1544,0.017966
3636.0181,0.017460
3637.8817,0.017225
3639.7454,0.018119
3641.6091,0.017811
3643.4727,0.017935
3645.3364,0.018607
3647.2001,0.018343
3649.0637,0.016914
3650.9274,0.017466
3652.7911,0.018206
3654.6547,0.018954
3656.5184,0.020428
3658.3821,0.021719
3660.2458,0.021742
3662.1094,0.022078
3663.9731,0.022110
3665.8368,0.022297
3667.7004,0.024242
3669.5641,0.027461
3671.4278,0.032760
3673.2914,0.038231
3675.1551,0.040696
3677.0188,0.037076
3678.8824,0.024568
3680.7461,0.018429
3682.6098,0.015863
3684.4735,0.014846
3686.3371,0.015079
3688.2008,0.015815
3690.0645,0.017108
3691.9281,0.017427
3693.7918,0.016710
3695.6555,0.017181
3697.5191,0.017317
3699.3828,0.017497
3701.2465,0.017623
3703.1101,0.017098
3704.9738,0.016656
3706.8375,0.017511
3708.7011,0.017494
3710.5648,0.017171
3712.4285,0.017293
3714.2922,0.016824
3716.1558,0.016588
3718.0195,0.017237
3719.8832,0.017309
3721.7468,0.017485
3723.6105,0.017329
3725.4742,0.016703
3727.3378,0.016748
3729.2015,0.016821
3731.0652,0.016522
3732.9288,0.016783
3734.7925,0.016723
3736.6562,0.015346
3738.5199,0.015629
3740.3835,0.016279
3742.2472,0.016760
3744.1109,0.016781
3745.9745,0.016158
3747.8382,0.015201
3749.7019,0.016512
3751.5655,0.018427
3753.4292,0.017611
3755.2929,0.017114
3757.1565,0.017858
3759.0202,0.019098
3760.8839,0.019031
3762.7475,0.018950
3764.6112,0.018682
3766.4749,0.018822
3768.3386,0.018420
3770.2022,0.018703
3772.0659,0.019026
3773.9296,0.018453
3775.7932,0.018284
3777.6569,0.018846
3779.5206,0.019024
3781.3842,0.019329
3783.2479,0.018898
3785.1116,0.019077
3786.9752,0.019512
3788.8389,0.019393
3790.7026,0.019419
3792.5662,0.019064
3794.4299,0.018014
3796.2936,0.017981
3798.1573,0.018507
3800.0209,0.018433
3801.8846,0.019080
3803.7483,0.019726
3805.6119,0.018383
3807.4756,0.018781
3809.3393,0.019599
3811.2029,0.018969
3813.0666,0.018449
3814.9303,0.018862
3816.7939,0.019283
3818.6576,0.019061
3820.5213,0.018931
3822.3850,0.019532
3824.2486,0.019274
3826.1123,0.018661
3827.9760,0.018862
3829.8396,0.018928
3831.7033,0.018890
3833.5670,0.018992
3835.4306,0.018944
3837.2943,0.019094
3839.1580,0.018919
3841.0216,0.019459
3842.8853,0.019460
3844.7490,0.019463
3846.6126,0.019238
3848.4763,0.019004
3850.3400,0.019002
3852.2037,0.018822
3854.0673,0.018980
3855.9310,0.019108
3857.7947,0.018642
3859.6583,0.018889
3861.5220,0.018900
3863.3857,0.018477
3865.2493,0.017848
3867.1130,0.017797
3868.9767,0.018571
3870.8403,0.019534
3872.7040,0.020317
3874.5677,0.019864
3876.4314,0.019684
3878.2950,0.019787
3880.1587,0.020060
3882.0224,0.020545
3883.8860,0.020059
3885.7497,0.020457
3887.6134,0.020306
3889.4770,0.019897
3891.3407,0.019990
3893.2044,0.019729
3895.0680,0.019008
3896.9317,0.019658
3898.7954,0.019210
3900.6590,0.019026
3902.5227,0.019792
3904.3864,0.020850
3906.2501,0.021350
3908.1137,0.020549
3909.9774,0.020027
3911.8411,0.019856
3913.7047,0.019708
3915.5684,0.020006
3917.4321,0.020256
3919.2957,0.020821
3921.1594,0.020781
3923.0231,0.020627
3924.8867,0.020008
3926.7504,0.019802
3928.6141,0.020354
3930.4777,0.020659
3932.3414,0.021130
3934.2051,0.021735
3936.0688,0.020484
3937.9324,0.019247
3939.7961,0.019606
3941.6598,0.020923
3943.5234,0.021493
3945.3871,0.021126
3947.2508,0.020683
3949.1144,0.020868
3950.9781,0.020312
3952.8418,0.019947
3954.7054,0.020370
3956.5691,0.021226
3958.4328,0.021573
3960.2965,0.021106
3962.1601,0.020667
3964.0238,0.021028
3965.8875,0.021002
3967.7511,0.020838
3969.6148,0.020768
3971.4785,0.020443
3973.3421,0.020326
3975.2058,0.020709
3977.0695,0.021308
3978.9331,0.021442
3980.7968,0.020620
3982.6605,0.020503
3984.5241,0.020126
3986.3878,0.020075
3988.2515,0.020681
3990.1152,0.020714
3991.9788,0.020645
3993.8425,0.020636
3995.7062,0.020932
3997.5698,0.021167
3999.4335,0.020767
