Wavenumber,Intensity
650.4205,0.178232
652.2841,0.177495
654.1478,0.178162
656.0115,0.178439
657.8751,0.178057
659.7388,0.177497
661.6025,0.178720
663.4661,0.180318
665.3298,0.181045
667.1935,0.180030
669.0571,0.179367
670.9208,0.175296
672.7845,0.171804
674.6481,0.167733
676.5118,0.164579
678.3755,0.160637
680.2392,0.159024
682.1028,0.159021
683.9665,0.158666
685.8302,0.155606
687.6938,0.152915
689.5575,0.151373
691.4212,0.148893
693.2848,0.146405
695.1485,0.146256
697.0122,0.145702
698.8758,0.144884
700.7395,0.144095
702.6032,0.142754
704.4669,0.140316
706.3305,0.136861
708.1942,0.131138
710.0579,0.125317
711.9215,0.119418
713.7852,0.113853
715.6489,0.108496
717.5125,0.103314
719.3762,0.099242
721.2399,0.096121
723.1035,0.092776
724.9672,0.089347
726.8309,0.085918
728.6945,0.082977
730.5582,0.080728
732.4219,0.078221
734.2856,0.075668
736.1492,0.074608
738.0129,0.074418
739.8766,0.075600
741.7402,0.078223
743.6039,0.081104
745.4676,0.083179
747.3312,0.083798
749.1949,0.083392
751.0586,0.082658
752.9222,0.081788
754.7859,0.080737
756.6496,0.079893
758.5132,0.079405
760.3769,0.078562
762.2406,0.077829
764.1043,0.077431
765.9679,0.077333
767.8316,0.077364
769.6953,0.077456
771.5589,0.077690
773.4226,0.078268
775.2863,0.078960
777.1499,0.079807
779.0136,0.080950
780.8773,0.082313
782.7409,0.083614
784.6046,0.084642
786.4683,0.085842
788.3320,0.087388
790.1956,0.089294
792.0593,0.091340
793.9230,0.092604
795.7866,0.093303
797.6503,0.093850
799.5140,0.094065
801.3776,0.093889
803.2413,0.093903
805.1050,0.093508
806.9686,0.092644
808.8323,0.091047
810.6960,0.088701
812.5596,0.086544
814.4233,0.084346
816.2870,0.081712
818.1507,0.079255
820.0143,0.077372
821.8780,0.075931
823.7417,0.075137
825.6053,0.075288
827.4690,0.076271
829.3327,0.076585
831.1963,0.072795
833.0600,0.065174
834.9237,0.058699
836.7873,0.055617
838.6510,0.054686
840.5147,0.054388
842.3784,0.054310
844.2420,0.054496
846.1057,0.054955
847.9694,0.055260
849.8330,0.055006
851.6967,0.054518
853.5604,0.053913
855.4240,0.053184
857.2877,0.052599
859.1514,0.052193
861.0150,0.051787
862.8787,0.051686
864.7424,0.051703
866.6060,0.051712
868.4697,0.051842
870.3334,0.052070
872.1971,0.052355
874.0607,0.052636
875.9244,0.052836
877.7881,0.053218
879.6517,0.053796
881.5154,0.054111
883.3791,0.054378
885.2427,0.054647
887.1064,0.054873
888.9701,0.055348
890.8337,0.055962
892.6974,0.056511
894.5611,0.057245
896.4247,0.058140
898.2884,0.059197
900.1521,0.060343
902.0158,0.061684
903.8794,0.063511
905.7431,0.066050
907.6068,0.069244
909.4704,0.072958
911.3341,0.077098
913.1978,0.081936
915.0614,0.084720
916.9251,0.080388
918.7888,0.071082
920.6524,0.063886
922.5161,0.060934
924.3798,0.060412
926.2435,0.060757
928.1071,0.061294
929.9708,0.061820
931.8345,0.062361
933.6981,0.063059
935.5618,0.064052
937.4255,0.064985
939.2891,0.065736
941.1528,0.066652
943.0165,0.067550
944.8801,0.068511
946.7438,0.069654
948.6075,0.070692
950.4711,0.071874
952.3348,0.073212
954.1985,0.074465
956.0622,0.075671
957.9258,0.076811
959.7895,0.078241
961.6532,0.079916
963.5168,0.081586
965.3805,0.083419
967.2442,0.085553
969.1078,0.088004
970.9715,0.090614
972.8352,0.093292
974.6988,0.097303
976.5625,0.103906
978.4262,0.114653
980.2899,0.129295
982.1535,0.135470
984.0172,0.119760
985.8809,0.098713
987.7445,0.089354
989.6082,0.088422
991.4719,0.089623
993.3355,0.091094
995.1992,0.092722
997.0629,0.094390
998.9265,0.095893
1000.7902,0.097312
1002.6539,0.098775
1004.5175,0.100313
1006.3812,0.101601
1008.2449,0.102621
1010.1086,0.103275
1011.9722,0.103511
1013.8359,0.103386
1015.6996,0.103016
1017.5632,0.102277
1019.4269,0.101071
1021.2906,0.099562
1023.1542,0.097997
1025.0179,0.096508
1026.8816,0.095147
1028.7452,0.094058
1030.6089,0.093409
1032.4726,0.093208
1034.3362,0.093239
1036.1999,0.093099
1038.0636,0.092977
1039.9273,0.093356
1041.7909,0.094284
1043.6546,0.095495
1045.5183,0.096744
1047.3819,0.097400
1049.2456,0.096219
1051.1093,0.092341
1052.9729,0.086636
1054.8366,0.081178
1056.7003,0.077558
1058.5639,0.075847
1060.4276,0.075434
1062.2913,0.075673
1064.1550,0.076087
1066.0186,0.076717
1067.8823,0.077793
1069.7460,0.079222
1071.6096,0.080789
1073.4733,0.082515
1075.3370,0.084072
1077.2006,0.085308
1079.0643,0.086457
1080.9280,0.087581
1082.7916,0.088829
1084.6553,0.090431
1086.5190,0.092421
1088.3826,0.094720
1090.2463,0.097148
1092.1100,0.099905
1093.9737,0.103250
1095.8373,0.106984
1097.7010,0.110882
1099.5647,0.114868
1101.4283,0.119020
1103.2920,0.122845
1105.1557,0.125473
1107.0193,0.126020
1108.8830,0.123612
1110.7467,0.117894
1112.6103,0.110079
1114.4740,0.101766
1116.3377,0.094035
1118.2014,0.087386
1120.0650,0.082062
1121.9287,0.078138
1123.7924,0.075435
1125.6560,0.073538
1127.5197,0.072041
1129.3834,0.070680
1131.2470,0.069405
1133.1107,0.067952
1134.9744,0.066205
1136.8380,0.064481
1138.7017,0.062962
1140.5654,0.061599
1142.4290,0.060455
1144.2927,0.059556
1146.1564,0.058694
1148.0201,0.058094
1149.8837,0.057829
1151.7474,0.057759
1153.6111,0.057950
1155.4747,0.058379
1157.3384,0.058945
1159.2021,0.059716
1161.0657,0.060728
1162.9294,0.061999
1164.7931,0.063576
1166.6567,0.065509
1168.5204,0.067731
1170.3841,0.070182
1172.2477,0.072225
1174.1114,0.072466
1175.9751,0.070432
1177.8388,0.067296
1179.7024,0.064673
1181.5661,0.063063
1183.4298,0.062195
1185.2934,0.061670
1187.1571,0.061085
1189.0208,0.060349
1190.8844,0.059598
1192.7481,0.058921
1194.6118,0.058325
1196.4754,0.057841
1198.3391,0.057621
1200.2028,0.057685
1202.0665,0.057627
1203.9301,0.057277
1205.7938,0.056882
1207.6575,0.056586
1209.5211,0.056398
1211.3848,0.056486
1213.2485,0.056680
1215.1121,0.056880
1216.9758,0.057118
1218.8395,0.057260
1220.7031,0.057235
1222.5668,0.057205
1224.4305,0.057240
1226.2941,0.057278
1228.1578,0.057398
1230.0215,0.057599
1231.8852,0.057794
1233.7488,0.057984
1235.6125,0.058181
1237.4762,0.058325
1239.3398,0.058432
1241.2035,0.058592
1243.0672,0.058943
1244.9308,0.059320
1246.7945,0.059541
1248.6582,0.059914
1250.5218,0.060347
1252.3855,0.060703
1254.2492,0.061157
1256.1129,0.061675
1257.9765,0.062179
1259.8402,0.062849
1261.7039,0.063651
1263.5675,0.064288
1265.4312,0.064752
1267.2949,0.064926
1269.1585,0.064755
1271.0222,0.064598
1272.8859,0.064762
1274.7495,0.065165
1276.6132,0.065724
1278.4769,0.066601
1280.3405,0.067844
1282.2042,0.069134
1284.0679,0.070326
1285.9316,0.071517
1287.7952,0.072962
1289.6589,0.074746
1291.5226,0.076788
1293.3862,0.079320
1295.2499,0.082602
1297.1136,0.086506
1298.9772,0.091041
1300.8409,0.096530
1302.7046,0.102778
1304.5682,0.108046
1306.4319,0.108987
1308.2956,0.102495
1310.1592,0.089470
1312.0229,0.075771
1313.8866,0.066966
1315.7503,0.063975
1317.6139,0.064427
1319.4776,0.066550
1321.3413,0.069110
1323.2049,0.071752
1325.0686,0.074615
1326.9323,0.077180
1328.7959,0.078723
1330.6596,0.078829
1332.5233,0.077582
1334.3869,0.075424
1336.2506,0.073151
1338.1143,0.071846
1339.9780,0.071913
1341.8416,0.071905
1343.7053,0.071590
1345.5690,0.071985
1347.4326,0.072962
1349.2963,0.074235
1351.1600,0.075744
1353.0236,0.077393
1354.8873,0.079601
1356.7510,0.081918
1358.6146,0.083379
1360.4783,0.084382
1362.3420,0.086384
1364.2056,0.088609
1366.0693,0.089779
1367.9330,0.091875
1369.7967,0.095030
1371.6603,0.097614
1373.5240,0.101295
1375.3877,0.105992
1377.2513,0.108713
1379.1150,0.111124
1380.9787,0.113976
1382.8423,0.116686
1384.7060,0.120185
1386.5697,0.125356
1388.4333,0.131981
1390.2970,0.135840
1392.1607,0.138002
1394.0244,0.139262
1395.8880,0.137209
1397.7517,0.132290
1399.6154,0.126629
1401.4790,0.121093
1403.3427,0.116114
1405.2064,0.108812
1407.0700,0.097823
1408.9337,0.086399
1410.7974,0.075948
1412.6610,0.068395
1414.5247,0.064440
1416.3884,0.063617
1418.2520,0.066364
1420.1157,0.072793
1421.9794,0.075316
1423.8431,0.073261
1425.7067,0.066935
1427.5704,0.059694
1429.4341,0.054712
1431.2977,0.052569
1433.1614,0.052147
1435.0251,0.053008
1436.8887,0.056903
1438.7524,0.060299
1440.6161,0.060484
1442.4797,0.060950
1444.3434,0.061554
1446.2071,0.062260
1448.0707,0.063265
1449.9344,0.062818
1451.7981,0.060181
1453.6618,0.057034
1455.5254,0.055206
1457.3891,0.058205
1459.2528,0.061277
1461.1164,0.060413
1462.9801,0.060109
1464.8438,0.061259
1466.7074,0.061708
1468.5711,0.060316
1470.4348,0.059065
1472.2984,0.059406
1474.1621,0.060846
1476.0258,0.060186
1477.8895,0.059073
1479.7531,0.058316
1481.6168,0.058534
1483.4805,0.058937
1485.3441,0.058723
1487.2078,0.059325
1489.0715,0.061473
1490.9351,0.063879
1492.7988,0.063604
1494.6625,0.062691
1496.5261,0.064007
1498.3898,0.066548
1500.2535,0.066982
1502.1171,0.066191
1503.9808,0.065181
1505.8445,0.066372
1507.7082,0.074312
1509.5718,0.075497
1511.4355,0.074519
1513.2992,0.074791
1515.1628,0.075159
1517.0265,0.076596
1518.8902,0.077656
1520.7538,0.078398
1522.6175,0.081158
1524.4812,0.081569
1526.3448,0.082351
1528.2085,0.083622
1530.0722,0.083506
1531.9359,0.083973
1533.7995,0.086644
1535.6632,0.087817
1537.5269,0.086531
1539.3905,0.088676
1541.2542,0.096786
1543.1179,0.098838
1544.9815,0.100103
1546.8452,0.101430
1548.7089,0.102225
1550.5725,0.104570
1552.4362,0.106376
1554.2999,0.107161
1556.1635,0.108512
1558.0272,0.111050
1559.8909,0.121328
1561.7546,0.120189
1563.6182,0.117980
1565.4819,0.118526
1567.3456,0.119750
1569.2092,0.121563
1571.0729,0.123996
1572.9366,0.124097
1574.8002,0.125035
1576.6639,0.129078
1578.5276,0.131308
1580.3912,0.131207
1582.2549,0.132221
1584.1186,0.133593
1585.9822,0.134687
1587.8459,0.135339
1589.7096,0.135590
1591.5733,0.135762
1593.4369,0.135803
1595.3006,0.135288
1597.1643,0.134182
1599.0279,0.132638
1600.8916,0.131128
1602.7553,0.129513
1604.6189,0.127689
1606.4826,0.125939
1608.3463,0.124297
1610.2099,0.122364
1612.0736,0.120180
1613.9373,0.117881
1615.8010,0.115377
1617.6646,0.111099
1619.5283,0.106282
1621.3920,0.102335
1623.2556,0.097847
1625.1193,0.092803
1626.9830,0.087847
1628.8466,0.081948
1630.7103,0.076052
1632.5740,0.070791
1634.4376,0.065961
1636.3013,0.061210
1638.1650,0.058447
1640.0286,0.056674
1641.8923,0.055205
1643.7560,0.054050
1645.6197,0.053267
1647.4833,0.054086
1649.3470,0.055262
1651.2107,0.054601
1653.0743,0.055568
1654.9380,0.060496
1656.8017,0.060601
1658.6653,0.060810
1660.5290,0.061483
1662.3927,0.062090
1664.2563,0.062707
1666.1200,0.061846
1667.9837,0.060726
1669.8474,0.061155
1671.7110,0.062177
1673.5747,0.062188
1675.4384,0.063330
1677.3020,0.065557
1679.1657,0.066165
1681.0294,0.067202
1682.8930,0.068279
1684.7567,0.070437
1686.6204,0.071956
1688.4840,0.070277
1690.3477,0.068249
1692.2114,0.065699
1694.0750,0.063112
1695.9387,0.059987
1697.8024,0.057104
1699.6661,0.054332
1701.5297,0.050555
1703.3934,0.046355
1705.2571,0.041597
1707.1207,0.035891
1708.9844,0.031423
1710.8481,0.027752
1712.7117,0.024553
1714.5754,0.021863
1716.4391,0.019943
1718.3027,0.019029
1720.1664,0.018754
1722.0301,0.017650
1723.8937,0.016406
1725.7574,0.015037
1727.6211,0.013577
1729.4848,0.012024
1731.3484,0.010778
1733.2121,0.009691
1735.0758,0.009792
1736.9394,0.009857
1738.8031,0.008871
1740.6668,0.008655
1742.5304,0.008544
1744.3941,0.008281
1746.2578,0.008026
1748.1214,0.007573
1749.9851,0.007340
1751.8488,0.007555
1753.7125,0.007766
1755.5761,0.007244
1757.4398,0.007214
1759.3035,0.007428
1761.1671,0.007021
1763.0308,0.007323
1764.8945,0.007528
1766.7581,0.007120
1768.6218,0.007033
1770.4855,0.006914
1772.3491,0.006776
1774.2128,0.007441
1776.0765,0.007161
1777.9401,0.006945
1779.8038,0.006801
1781.6675,0.007116
1783.5312,0.007328
1785.3948,0.007322
1787.2585,0.007388
1789.1222,0.007145
1790.9858,0.006834
1792.8495,0.007233
1794.7132,0.007636
1796.5768,0.007412
1798.4405,0.007216
1800.3042,0.007143
1802.1678,0.007562
1804.0315,0.007725
1805.8952,0.007614
1807.7589,0.007687
1809.6225,0.007607
1811.4862,0.007418
1813.3499,0.007503
1815.2135,0.007347
1817.0772,0.007313
1818.9409,0.007549
1820.8045,0.007665
1822.6682,0.007634
1824.5319,0.007488
1826.3955,0.007635
1828.2592,0.007373
1830.1229,0.007113
1831.9865,0.007573
1833.8502,0.007439
1835.7139,0.007373
1837.5776,0.007407
1839.4412,0.007290
1841.3049,0.006925
1843.1686,0.006703
1845.0322,0.007133
1846.8959,0.007423
1848.7596,0.007099
1850.6232,0.007261
1852.4869,0.007396
1854.3506,0.007548
1856.2142,0.007637
1858.0779,0.007747
1859.9416,0.007532
1861.8052,0.007492
1863.6689,0.007777
1865.5326,0.007844
1867.3963,0.007283
1869.2599,0.007091
1871.1236,0.007569
1872.9873,0.007480
1874.8509,0.007348
1876.7146,0.007443
1878.5783,0.007254
1880.4419,0.007274
1882.3056,0.007408
1884.1693,0.007509
1886.0329,0.007325
1887.8966,0.007153
1889.7603,0.007143
1891.6240,0.007214
1893.4876,0.007167
1895.3513,0.007358
1897.2150,0.007351
1899.0786,0.007247
1900.9423,0.007620
1902.8060,0.007934
1904.6696,0.007677
1906.5333,0.007591
1908.3970,0.007782
1910.2606,0.007899
1912.1243,0.007860
1913.9880,0.007577
1915.8516,0.007112
1917.7153,0.007361
1919.5790,0.007615
1921.4427,0.006969
1923.3063,0.007032
1925.1700,0.007359
1927.0337,0.006895
1928.8973,0.006995
1930.7610,0.006997
1932.6247,0.006878
1934.4883,0.007075
1936.3520,0.007350
1938.2157,0.007263
1940.0793,0.006584
1941.9430,0.005941
1943.8067,0.006351
1945.6704,0.006275
1947.5340,0.005719
1949.3977,0.005606
1951.2614,0.006176
1953.1250,0.006264
1954.9887,0.005495
1956.8524,0.005002
1958.7160,0.004718
1960.5797,0.003988
1962.4434,0.003757
1964.3070,0.003087
1966.1707,0.002976
1968.0344,0.003746
1969.8980,0.003420
1971.7617,0.002827
1973.6254,0.003047
1975.4891,0.003185
1977.3527,0.002928
1979.2164,0.002362
1981.0801,0.003035
1982.9437,0.003324
1984.8074,0.003562
1986.6711,0.004778
1988.5347,0.005435
1990.3984,0.004299
1992.2621,0.003824
1994.1257,0.004737
1995.9894,0.004527
1997.8531,0.004094
1999.7167,0.004715
2001.5804,0.004757
2003.4441,0.004232
2005.3078,0.003396
2007.1714,0.002764
2009.0351,0.002919
2010.8988,0.002021
2012.7624,0.001736
2014.6261,0.003213
2016.4898,0.003468
2018.3534,0.002517
2020.2171,0.002471
2022.0808,0.003794
2023.9444,0.003908
2025.8081,0.002579
2027.6718,0.002089
2029.5355,0.002484
2031.3991,0.002887
2033.2628,0.002819
2035.1265,0.002536
2036.9901,0.004293
2038.8538,0.005642
2040.7175,0.005004
2042.5811,0.005141
2044.4448,0.005685
2046.3085,0.005927
2048.1721,0.006614
2050.0358,0.006710
2051.8995,0.006880
2053.7631,0.007400
2055.6268,0.007360
2057.4905,0.007026
2059.3542,0.007511
2061.2178,0.008168
2063.0815,0.008388
2064.9452,0.008005
2066.8088,0.007969
2068.6725,0.008441
2070.5362,0.008954
2072.3998,0.009071
2074.2635,0.009371
2076.1272,0.009955
2077.9908,0.010266
2079.8545,0.010372
2081.7182,0.010217
2083.5819,0.009995
2085.4455,0.009911
2087.3092,0.009869
2089.1729,0.009773
2091.0365,0.009497
2092.9002,0.009833
2094.7639,0.010265
2096.6275,0.010096
2098.4912,0.009661
2100.3549,0.009422
2102.2185,0.009771
2104.0822,0.009891
2105.9459,0.009630
2107.8095,0.010205
2109.6732,0.010570
2111.5369,0.010697
2113.4006,0.010744
2115.2642,0.010348
2117.1279,0.009918
2118.9916,0.009844
2120.8552,0.009859
2122.7189,0.009412
2124.5826,0.009206
2126.4462,0.009202
2128.3099,0.008964
2130.1736,0.009296
2132.0372,0.009003
2133.9009,0.008537
2135.7646,0.008674
2137.6282,0.008445
2139.4919,0.008052
2141.3556,0.007893
2143.2193,0.007150
2145.0829,0.006714
2146.9466,0.006072
2148.8103,0.005130
2150.6739,0.004143
2152.5376,0.002688
2154.4013,0.001862
2156.2649,0.001676
2158.1286,0.001974
2159.9923,0.003406
2161.8559,0.004068
2163.7196,0.004592
2165.5833,0.005713
2167.4470,0.005905
2169.3106,0.005958
2171.1743,0.006145
2173.0380,0.006146
2174.9016,0.006609
2176.7653,0.006177
2178.6290,0.005602
2180.4926,0.006201
2182.3563,0.006274
2184.2200,0.006593
2186.0836,0.007294
2187.9473,0.007530
2189.8110,0.008379
2191.6746,0.008805
2193.5383,0.007923
2195.4020,0.007409
2197.2657,0.008189
2199.1293,0.008788
2200.9930,0.009110
2202.8567,0.008514
2204.7203,0.008674
2206.5840,0.008904
2208.4477,0.008731
2210.3113,0.009927
2212.1750,0.010423
2214.0387,0.010021
2215.9023,0.010425
2217.7660,0.010429
2219.6297,0.010033
2221.4934,0.009727
2223.3570,0.010032
2225.2207,0.010559
2227.0844,0.010471
2228.9480,0.010477
2230.8117,0.010999
2232.6754,0.011401
2234.5390,0.011442
2236.4027,0.011671
2238.2664,0.012186
2240.1300,0.012271
2241.9937,0.011903
2243.8574,0.011613
2245.7210,0.011955
2247.5847,0.012556
2249.4484,0.012615
2251.3121,0.012259
2253.1757,0.012085
2255.0394,0.012187
2256.9031,0.013121
2258.7667,0.013625
2260.6304,0.013498
2262.4941,0.013133
2264.3577,0.013160
2266.2214,0.013761
2268.0851,0.014121
2269.9487,0.014302
2271.8124,0.014340
2273.6761,0.014370
2275.5397,0.014675
2277.4034,0.014721
2279.2671,0.015201
2281.1308,0.015511
2282.9944,0.015226
2284.8581,0.015786
2286.7218,0.016043
2288.5854,0.015518
2290.4491,0.015538
2292.3128,0.015717
2294.1764,0.015609
2296.0401,0.015678
2297.9038,0.015982
2299.7674,0.016036
2301.6311,0.015896
2303.4948,0.015765
2305.3585,0.015890
2307.2221,0.016377
2309.0858,0.016656
2310.9495,0.016443
2312.8131,0.016190
2314.6768,0.016004
2316.5405,0.016045
2318.4041,0.016061
2320.2678,0.016155
2322.1315,0.016453
2323.9951,0.016674
2325.8588,0.016389
2327.7225,0.015658
2329.5861,0.015169
2331.4498,0.015337
2333.3135,0.015670
2335.1772,0.015758
2337.0408,0.015644
2338.9045,0.015739
2340.7682,0.015683
2342.6318,0.015501
2344.4955,0.015600
2346.3592,0.015824
2348.2228,0.015759
2350.0865,0.015410
2351.9502,0.015050
2353.8138,0.014884
2355.6775,0.014860
2357.5412,0.015054
2359.4049,0.015012
2361.2685,0.014724
2363.1322,0.014825
2364.9959,0.015539
2366.8595,0.015535
2368.7232,0.015285
2370.5869,0.015713
2372.4505,0.016077
2374.3142,0.016213
2376.1779,0.016289
2378.0415,0.016039
2379.9052,0.015884
2381.7689,0.015929
2383.6325,0.016029
2385.4962,0.016104
2387.3599,0.016193
2389.2236,0.016218
2391.0872,0.016004
2392.9509,0.015991
2394.8146,0.016044
2396.6782,0.015993
2398.5419,0.016185
2400.4056,0.016164
2402.2692,0.016082
2404.1329,0.016300
2405.9966,0.016594
2407.8602,0.016777
2409.7239,0.016605
2411.5876,0.016174
2413.4512,0.016104
2415.3149,0.016441
2417.1786,0.016570
2419.0423,0.016601
2420.9059,0.016732
2422.7696,0.016729
2424.6333,0.017238
2426.4969,0.017373
2428.3606,0.016976
2430.2243,0.016830
2432.0879,0.016597
2433.9516,0.016533
2435.8153,0.016775
2437.6789,0.017104
2439.5426,0.017539
2441.4063,0.017745
2443.2700,0.017670
2445.1336,0.017240
2446.9973,0.017025
2448.8610,0.017199
2450.7246,0.017026
2452.5883,0.017066
2454.4520,0.017674
2456.3156,0.017681
2458.1793,0.017193
2460.0430,0.016877
2461.9066,0.016879
2463.7703,0.016937
2465.6340,0.017195
2467.4976,0.017253
2469.3613,0.017240
2471.2250,0.017341
2473.0887,0.017347
2474.9523,0.017493
2476.8160,0.017726
2478.6797,0.017666
2480.5433,0.017520
2482.4070,0.017433
2484.2707,0.017661
2486.1343,0.017828
2487.9980,0.017829
2489.8617,0.017871
2491.7253,0.017799
2493.5890,0.017958
2495.4527,0.018505
2497.3164,0.018747
2499.1800,0.018499
2501.0437,0.018236
2502.9074,0.018239
2504.7710,0.018265
2506.6347,0.018858
2508.4984,0.019119
2510.3620,0.018739
2512.2257,0.018689
2514.0894,0.018833
2515.9530,0.019216
2517.8167,0.019343
2519.6804,0.019049
2521.5440,0.019020
2523.4077,0.018814
2525.2714,0.019031
2527.1351,0.019537
2528.9987,0.019851
2530.8624,0.019571
2532.7261,0.019288
2534.5897,0.019625
2536.4534,0.019890
2538.3171,0.019334
2540.1807,0.019473
2542.0444,0.019944
2543.9081,0.020264
2545.7717,0.020310
2547.6354,0.020044
2549.4991,0.019966
2551.3627,0.020142
2553.2264,0.020227
2555.0901,0.020523
2556.9538,0.020497
2558.8174,0.020242
2560.6811,0.020230
2562.5448,0.020355
2564.4084,0.020298
2566.2721,0.020289
2568.1358,0.020797
2569.9994,0.021454
2571.8631,0.021376
2573.7268,0.021096
2575.5904,0.021103
2577.4541,0.021383
2579.3178,0.021285
2581.1815,0.021184
2583.0451,0.021525
2584.9088,0.022017
2586.7725,0.021846
2588.6361,0.021686
2590.4998,0.021873
2592.3635,0.022289
2594.2271,0.022488
2596.0908,0.022463
2597.9545,0.022994
2599.8181,0.023472
2601.6818,0.023378
2603.5455,0.023385
2605.4091,0.023397
2607.2728,0.023365
2609.1365,0.023382
2611.0002,0.023537
2612.8638,0.023508
2614.7275,0.023730
2616.5912,0.024181
2618.4548,0.024401
2620.3185,0.024299
2622.1822,0.024267
2624.0458,0.024395
2625.9095,0.024819
2627.7732,0.025303
2629.6368,0.025406
2631.5005,0.025547
2633.3642,0.025866
2635.2279,0.025816
2637.0915,0.025697
2638.9552,0.025981
2640.8189,0.026526
2642.6825,0.026559
2644.5462,0.026596
2646.4099,0.026861
2648.2735,0.026960
2650.1372,0.026959
2652.0009,0.027179
2653.8645,0.027340
2655.7282,0.027385
2657.5919,0.027472
2659.4555,0.027543
2661.3192,0.027441
2663.1829,0.027460
2665.0466,0.027482
2666.9102,0.027654
2668.7739,0.027796
2670.6376,0.027866
2672.5012,0.027988
2674.3649,0.028333
2676.2286,0.028510
2678.0922,0.028571
2679.9559,0.028906
2681.8196,0.029028
2683.6832,0.029057
2685.5469,0.029359
2687.4106,0.029507
2689.2742,0.029572
2691.1379,0.029645
2693.0016,0.029801
2694.8653,0.029958
2696.7289,0.030150
2698.5926,0.030370
2700.4563,0.030684
2702.3199,0.030842
2704.1836,0.031080
2706.0473,0.031593
2707.9109,0.031929
2709.7746,0.032114
2711.6383,0.032494
2713.5019,0.032712
2715.3656,0.032701
2717.2293,0.032996
2719.0930,0.033455
2720.9566,0.033599
2722.8203,0.033730
2724.6840,0.033846
2726.5476,0.034270
2728.4113,0.034834
2730.2750,0.035239
2732.1386,0.035494
2734.0023,0.035777
2735.8660,0.036068
2737.7296,0.036473
2739.5933,0.036936
2741.4570,0.037227
2743.3206,0.037366
2745.1843,0.037796
2747.0480,0.038067
2748.9117,0.038337
2750.7753,0.038976
2752.6390,0.039467
2754.5027,0.039670
2756.3663,0.040076
2758.2300,0.040690
2760.0937,0.041051
2761.9573,0.041332
2763.8210,0.041838
2765.6847,0.042096
2767.5483,0.042563
2769.4120,0.043197
2771.2757,0.043571
2773.1394,0.043781
2775.0030,0.044239
2776.8667,0.044772
2778.7304,0.045325
2780.5940,0.045776
2782.4577,0.046009
2784.3214,0.046073
2786.1850,0.046053
2788.0487,0.045923
2789.9124,0.045793
2791.7760,0.045632
2793.6397,0.045489
2795.5034,0.045155
2797.3670,0.044924
2799.2307,0.044683
2801.0944,0.044452
2802.9581,0.044077
2804.8217,0.043776
2806.6854,0.043629
2808.5491,0.043566
2810.4127,0.043329
2812.2764,0.043248
2814.1401,0.043351
2816.0037,0.043339
2817.8674,0.043143
2819.7311,0.043165
2821.5947,0.043348
2823.4584,0.043555
2825.3221,0.043601
2827.1857,0.043869
2829.0494,0.043621
2830.9131,0.043188
2832.7768,0.043173
2834.6404,0.043522
2836.5041,0.043549
2838.3678,0.043782
2840.2314,0.044168
2842.0951,0.044293
2843.9588,0.044227
2845.8224,0.044649
2847.6861,0.045380
2849.5498,0.045643
2851.4134,0.045883
2853.2771,0.046646
2855.1408,0.047284
2857.0045,0.048072
2858.8681,0.048535
2860.7318,0.048920
2862.5955,0.049127
2864.4591,0.049228
2866.3228,0.049401
2868.1865,0.049571
2870.0501,0.049489
2871.9138,0.049356
2873.7775,0.049194
2875.6411,0.049327
2877.5048,0.049541
2879.3685,0.049917
2881.2321,0.050159
2883.0958,0.050341
2884.9595,0.050790
2886.8232,0.051394
2888.6868,0.051453
2890.5505,0.051061
2892.4142,0.051311
2894.2778,0.052009
2896.1415,0.052455
2898.0052,0.052833
2899.8688,0.052729
2901.7325,0.052475
2903.5962,0.052389
2905.4598,0.052755
2907.3235,0.053193
2909.1872,0.053338
2911.0509,0.053570
2912.9145,0.054215
2914.7782,0.054921
2916.6419,0.055633
2918.5055,0.056139
2920.3692,0.056688
2922.2329,0.057159
2924.0965,0.057512
2925.9602,0.057857
2927.8239,0.058466
2929.6875,0.059064
2931.5512,0.059756
2933.4149,0.059906
2935.2785,0.059833
2937.1422,0.060093
2939.0059,0.060263
2940.8696,0.060487
2942.7332,0.061047
2944.5969,0.060823
2946.4606,0.060758
2948.3242,0.061144
2950.1879,0.061560
2952.0516,0.061835
2953.9152,0.061847
2955.7789,0.061740
2957.6426,0.061555
2959.5062,0.061548
2961.3699,0.062147
2963.2336,0.062740
2965.0972,0.063403
2966.9609,0.063787
2968.8246,0.064146
2970.6883,0.064582
2972.5519,0.065261
2974.4156,0.065960
2976.2793,0.066577
2978.1429,0.066778
2980.0066,0.066951
2981.8703,0.067521
2983.7339,0.067730
2985.5976,0.067755
2987.4613,0.068069
2989.3249,0.068418
2991.1886,0.068859
2993.0523,0.069413
2994.9160,0.070098
2996.7796,0.070564
2998.6433,0.070962
3000.5070,0.071459
3002.3706,0.071927
3004.2343,0.072524
3006.0980,0.073110
3007.9616,0.073362
3009.8253,0.074090
3011.6890,0.074756
3013.5526,0.075130
3015.4163,0.075708
3017.2800,0.076021
3019.1436,0.076059
3021.0073,0.076452
3022.8710,0.076874
3024.7347,0.077224
3026.5983,0.077080
3028.4620,0.077088
3030.3257,0.077469
3032.1893,0.077804
3034.0530,0.077969
3035.9167,0.078123
3037.7803,0.078658
3039.6440,0.078985
3041.5077,0.079340
3043.3713,0.079969
3045.2350,0.079880
3047.0987,0.079619
3048.9624,0.079811
3050.8260,0.080239
3052.6897,0.080148
3054.5534,0.080518
3056.4170,0.080726
3058.2807,0.080475
3060.1444,0.080128
3062.0080,0.080199
3063.8717,0.080738
3065.7354,0.081103
3067.5990,0.080889
3069.4627,0.081249
3071.3264,0.080745
3073.1900,0.080087
3075.0537,0.079986
3076.9174,0.080053
3078.7811,0.079773
3080.6447,0.079765
3082.5084,0.079724
3084.3721,0.079309
3086.2357,0.078979
3088.0994,0.078699
3089.9631,0.078047
3091.8267,0.077373
3093.6904,0.076386
3095.5541,0.076037
3097.4177,0.076087
3099.2814,0.075792
3101.1451,0.075384
3103.0087,0.074741
3104.8724,0.073210
3106.7361,0.072136
3108.5998,0.071666
3110.4634,0.071533
3112.3271,0.071169
3114.1908,0.070502
3116.0544,0.070136
3117.9181,0.069962
3119.7818,0.069564
3121.6454,0.068844
3123.5091,0.068057
3125.3728,0.067806
3127.2364,0.067136
3129.1001,0.066512
3130.9638,0.065795
3132.8275,0.065258
3134.6911,0.064487
3136.5548,0.064171
3138.4185,0.064047
3140.2821,0.063885
3142.1458,0.063660
3144.0095,0.063256
3145.8731,0.062330
3147.7368,0.061564
3149.6005,0.060732
3151.4641,0.060837
3153.3278,0.061245
3155.1915,0.061091
3157.0551,0.060775
3158.9188,0.059956
3160.7825,0.059263
3162.6462,0.059491
3164.5098,0.059599
3166.3735,0.059190
3168.2372,0.058316
3170.1008,0.057890
3171.9645,0.057606
3173.8282,0.057521
3175.6918,0.057368
3177.5555,0.056656
3179.4192,0.055898
3181.2828,0.056082
3183.1465,0.055835
3185.0102,0.055317
3186.8739,0.054871
3188.7375,0.055062
3190.6012,0.055038
3192.4649,0.055056
3194.3285,0.055202
3196.1922,0.055720
3198.0559,0.055090
3199.9195,0.054793
3201.7832,0.055336
3203.6469,0.055477
3205.5105,0.055283
3207.3742,0.055154
3209.2379,0.055552
3211.1015,0.055661
3212.9652,0.055307
3214.8289,0.055168
3216.6926,0.055099
3218.5562,0.055002
3220.4199,0.054951
3222.2836,0.055288
3224.1472,0.055286
3226.0109,0.055575
3227.8746,0.055378
3229.7382,0.055211
3231.6019,0.055498
3233.4656,0.056504
3235.3292,0.056709
3237.1929,0.056293
3239.0566,0.056147
3240.9202,0.056603
3242.7839,0.057248
3244.6476,0.057617
3246.5113,0.057178
3248.3749,0.056879
3250.2386,0.057076
3252.1023,0.057181
3253.9659,0.057472
3255.8296,0.058379
3257.6933,0.058613
3259.5569,0.058315
3261.4206,0.058161
3263.2843,0.059434
3265.1479,0.059373
3267.0116,0.058994
3268.8753,0.059173
3270.7390,0.059217
3272.6026,0.058876
3274.4663,0.058718
3276.3300,0.059129
3278.1936,0.059489
3280.0573,0.058679
3281.9210,0.058303
3283.7846,0.058000
3285.6483,0.057378
3287.5120,0.057146
3289.3756,0.056675
3291.2393,0.056255
3293.1030,0.055573
3294.9666,0.054826
3296.8303,0.054550
3298.6940,0.053947
3300.5577,0.053958
3302.4213,0.053159
3304.2850,0.052975
3306.1487,0.052763
3308.0123,0.051990
3309.8760,0.051441
3311.7397,0.051164
3313.6033,0.050672
3315.4670,0.050166
3317.3307,0.049399
3319.1943,0.049523
3321.0580,0.050188
3322.9217,0.050587
3324.7854,0.050393
3326.6490,0.049952
3328.5127,0.050956
3330.3764,0.051435
3332.2400,0.050415
3334.1037,0.049891
3335.9674,0.049685
3337.8310,0.049686
3339.6947,0.049461
3341.5584,0.048975
3343.4220,0.048161
3345.2857,0.047855
3347.1494,0.047048
3349.0130,0.044831
3350.8767,0.043049
3352.7404,0.043295
3354.6041,0.043042
3356.4677,0.042781
3358.3314,0.041338
3360.1951,0.040170
3362.0587,0.039437
3363.9224,0.037846
3365.7861,0.037598
3367.6497,0.038409
3369.5134,0.037494
3371.3771,0.037289
3373.2407,0.037595
3375.1044,0.037787
3376.9681,0.037906
3378.8317,0.036813
3380.6954,0.035581
3382.5591,0.036836
3384.4228,0.037895
3386.2864,0.037672
3388.1501,0.038212
3390.0138,0.039022
3391.8774,0.038735
3393.7411,0.038902
3395.6048,0.039410
3397.4684,0.038814
3399.3321,0.038347
3401.1958,0.038644
3403.0594,0.038425
3404.9231,0.037654
3406.7868,0.036473
3408.6505,0.035518
3410.5141,0.034109
3412.3778,0.034420
3414.2415,0.033218
3416.1051,0.030939
3417.9688,0.030202
3419.8325,0.029242
3421.6961,0.027924
3423.5598,0.028033
3425.4235,0.027796
3427.2871,0.026384
3429.1508,0.024480
3431.0145,0.023223
3432.8781,0.022886
3434.7418,0.022849
3436.6055,0.021555
3438.4692,0.021234
3440.3328,0.021197
3442.1965,0.020987
3444.0602,0.021191
3445.9238,0.020715
3447.7875,0.019730
3449.6512,0.019097
3451.5148,0.019451
3453.3785,0.020254
3455.2422,0.019087
3457.1058,0.017712
3458.9695,0.017911
3460.8332,0.018017
3462.6969,0.017130
3464.5605,0.016274
3466.4242,0.016192
3468.2879,0.016350
3470.1515,0.015877
3472.0152,0.015717
3473.8789,0.015357
3475.7425,0.014964
3477.6062,0.014965
3479.4699,0.014665
3481.3335,0.014759
3483.1972,0.015198
3485.0609,0.015210
3486.9245,0.014661
3488.7882,0.013199
3490.6519,0.012927
3492.5156,0.013109
3494.3792,0.013180
3496.2429,0.011873
3498.1066,0.011403
3499.9702,0.011313
3501.8339,0.012475
3503.6976,0.013252
3505.5612,0.012665
3507.4249,0.012023
3509.2886,0.011174
3511.1522,0.010791
3513.0159,0.010710
3514.8796,0.009840
3516.7432,0.010059
3518.6069,0.010163
3520.4706,0.010357
3522.3343,0.009583
3524.1979,0.007958
3526.0616,0.008433
3527.9253,0.009031
3529.7889,0.009134
3531.6526,0.008561
3533.5163,0.008417
3535.3799,0.009983
3537.2436,0.008978
3539.1073,0.007833
3540.9709,0.008647
3542.8346,0.008316
3544.6983,0.006892
3546.5620,0.005831
3548.4256,0.005394
3550.2893,0.006607
3552.1530,0.006999
3554.0166,0.006630
3555.8803,0.007292
3557.7440,0.007346
3559.6076,0.006405
3561.4713,0.006193
3563.3350,0.006718
3565.1986,0.007058
3567.0623,0.006664
3568.9260,0.005834
3570.7896,0.006318
3572.6533,0.006669
3574.5170,0.006433
3576.3807,0.006299
3578.2443,0.006611
3580.1080,0.006162
3581.9717,0.005201
3583.8353,0.004984
3585.6990,0.004528
3587.5627,0.004614
3589.4263,0.004885
3591.2900,0.006008
3593.1537,0.006026
3595.0173,0.005815
3596.8810,0.006385
3598.7447,0.006558
3600.6084,0.005840
3602.4720,0.005421
3604.3357,0.005279
3606.1994,0.005967
3608.0630,0.006221
3609.9267,0.005330
3611.7904,0.005423
3613.6540,0.006083
3615.5177,0.004770
3617.3814,0.003945
3619.2450,0.003539
3621.1087,0.004425
3622.9724,0.005759
3624.8360,0.006088
3626.6997,0.005397
3628.5634,0.004321
3630.4271,0.004600
3632.2907,0.005611
3634.1544,0.005686
3636.0181,0.005746
3637.8817,0.006620
3639.7454,0.007030
3641.6091,0.006288
3643.4727,0.005164
3645.3364,0.004089
3647.2001,0.003442
3649.0637,0.003453
3650.9274,0.005430
3652.7911,0.006808
3654.6547,0.006888
3656.5184,0.006004
3658.3821,0.005936
3660.2458,0.006316
3662.1094,0.006664
3663.9731,0.006820
3665.8368,0.006847
3667.7004,0.007063
3669.5641,0.006800
3671.4278,0.006854
3673.2914,0.009628
3675.1551,0.010259
3677.0188,0.008663
3678.8824,0.007284
3680.7461,0.006445
3682.6098,0.004965
3684.4735,0.004781
3686.3371,0.004346
3688.2008,0.003321
3690.0645,0.003074
3691.9281,0.004581
3693.7918,0.005473
3695.6555,0.006016
3697.5191,0.006433
3699.3828,0.006310
3701.2465,0.005246
3703.1101,0.004501
3704.9738,0.005077
3706.8375,0.004911
3708.7011,0.004621
3710.5648,0.004216
3712.4285,0.003777
3714.2922,0.005305
3716.1558,0.006087
3718.0195,0.005716
3719.8832,0.005908
3721.7468,0.005942
3723.6105,0.005074
3725.4742,0.004978
3727.3378,0.005152
3729.2015,0.004906
3731.0652,0.004956
3732.9288,0.004563
3734.7925,0.003733
3736.6562,0.003484
3738.5199,0.004122
3740.3835,0.005298
3742.2472,0.005200
3744.1109,0.004493
3745.9745,0.003517
3747.8382,0.004800
3749.7019,0.004993
3751.5655,0.003439
3753.4292,0.005004
3755.2929,0.007467
3757.1565,0.006344
3759.0202,0.005757
3760.8839,0.006331
3762.7475,0.006654
3764.6112,0.006468
3766.4749,0.005959
3768.3386,0.005667
3770.2022,0.006146
3772.0659,0.006371
3773.9296,0.006986
3775.7932,0.006793
3777.6569,0.006354
3779.5206,0.006066
3781.3842,0.006090
3783.2479,0.006691
3785.1116,0.006814
3786.9752,0.007003
3788.8389,0.007142
3790.7026,0.006636
3792.5662,0.006719
3794.4299,0.006620
3796.2936,0.005751
3798.1573,0.005993
3800.0209,0.006408
3801.8846,0.005897
3803.7483,0.006785
3805.6119,0.007197
3807.4756,0.005664
3809.3393,0.005686
3811.2029,0.006998
3813.0666,0.006583
3814.9303,0.005688
3816.7939,0.005333
3818.6576,0.005745
3820.5213,0.006347
3822.3850,0.006416
3824.2486,0.007169
3826.1123,0.006914
3827.9760,0.006584
3829.8396,0.006905
3831.7033,0.006294
3833.5670,0.005674
3835.4306,0.006004
3837.2943,0.005754
3839.1580,0.005180
3841.0216,0.006027
3842.8853,0.006827
3844.7490,0.007532
3846.6126,0.007123
3848.4763,0.006624
3850.3400,0.006001
3852.2037,0.005272
3854.0673,0.004648
3855.9310,0.006098
3857.7947,0.007872
3859.6583,0.007712
3861.5220,0.006706
3863.3857,0.006111
3865.2493,0.005834
3867.1130,0.006309
3868.9767,0.006744
3870.8403,0.006641
3872.7040,0.006711
3874.5677,0.006853
3876.4314,0.006897
3878.2950,0.007716
3880.1587,0.007402
3882.0224,0.007085
3883.8860,0.006980
3885.7497,0.006508
3887.6134,0.006395
3889.4770,0.006929
3891.3407,0.006643
3893.2044,0.006142
3895.0680,0.006722
3896.9317,0.007162
3898.7954,0.006740
3900.6590,0.006372
3902.5227,0.007541
3904.3864,0.008237
3906.2501,0.007842
3908.1137,0.008364
3909.9774,0.007883
3911.8411,0.007285
3913.7047,0.007627
3915.5684,0.007445
3917.4321,0.006476
3919.2957,0.007056
3921.1594,0.007589
3923.0231,0.007422
3924.8867,0.006972
3926.7504,0.006960
3928.6141,0.007746
3930.4777,0.007816
3932.3414,0.007189
3934.2051,0.007133
3936.0688,0.007323
3937.9324,0.007637
3939.7961,0.007774
3941.6598,0.008292
3943.5234,0.008156
3945.3871,0.007876
3947.2508,0.007527
3949.1144,0.007557
3950.9781,0.007974
3952.8418,0.008443
3954.7054,0.008521
3956.5691,0.008222
3958.4328,0.008023
3960.2965,0.007427
3962.1601,0.006808
3964.0238,0.007525
3965.8875,0.007510
3967.7511,0.007882
3969.6148,0.009034
3971.4785,0.009095
3973.3421,0.008480
3975.2058,0.008102
3977.0695,0.007775
3978.9331,0.008065
3980.7968,0.008340
3982.6605,0.008181
3984.5241,0.008037
3986.3878,0.007948
3988.2515,0.007883
3990.1152,0.008532
3991.9788,0.008832
3993.8425,0.008416
3995.7062,0.008142
3997.5698,0.008492
3999.4335,0.008674
