Wavenumber,Intensity
650.4205,0.163012
652.2841,0.162011
654.1478,0.162451
656.0115,0.162949
657.8751,0.164703
659.7388,0.166576
661.6025,0.167033
663.4661,0.167993
665.3298,0.171466
667.1935,0.174563
669.0571,0.175440
670.9208,0.168853
672.7845,0.162411
674.6481,0.157480
676.5118,0.155773
678.3755,0.153439
680.2392,0.150998
682.1028,0.149311
683.9665,0.148404
685.8302,0.145007
687.6938,0.144188
689.5575,0.143087
691.4212,0.140921
693.2848,0.139928
695.1485,0.140008
697.0122,0.139634
698.8758,0.139917
700.7395,0.140118
702.6032,0.138257
704.4669,0.135047
706.3305,0.131718
708.1942,0.126655
710.0579,0.120611
711.9215,0.114550
713.7852,0.109787
715.6489,0.105310
717.5125,0.100891
719.3762,0.096608
721.2399,0.093384
723.1035,0.090653
724.9672,0.087155
726.8309,0.083687
728.6945,0.081176
730.5582,0.078369
732.4219,0.075942
734.2856,0.073605
736.1492,0.071845
738.0129,0.071411
739.8766,0.072598
741.7402,0.074874
743.6039,0.077440
745.4676,0.079791
747.3312,0.080916
749.1949,0.079730
751.0586,0.077776
752.9222,0.076276
754.7859,0.075601
756.6496,0.075404
758.5132,0.075139
760.3769,0.074042
762.2406,0.073246
764.1043,0.072545
765.9679,0.072088
767.8316,0.072591
769.6953,0.072678
771.5589,0.072591
773.4226,0.073156
775.2863,0.074065
777.1499,0.075039
779.0136,0.075969
780.8773,0.077119
782.7409,0.078194
784.6046,0.079303
786.4683,0.080972
788.3320,0.082956
790.1956,0.084635
792.0593,0.086143
793.9230,0.086762
795.7866,0.087296
797.6503,0.087591
799.5140,0.087604
801.3776,0.087770
803.2413,0.087813
805.1050,0.087718
806.9686,0.087581
808.8323,0.086093
810.6960,0.084314
812.5596,0.082512
814.4233,0.080274
816.2870,0.078128
818.1507,0.076476
820.0143,0.074996
821.8780,0.073831
823.7417,0.073343
825.6053,0.073781
827.4690,0.075241
829.3327,0.076361
831.1963,0.073479
833.0600,0.066542
834.9237,0.060441
836.7873,0.057665
838.6510,0.056719
840.5147,0.056472
842.3784,0.056816
844.2420,0.057730
846.1057,0.059031
847.9694,0.059701
849.8330,0.058539
851.6967,0.057128
853.5604,0.056753
855.4240,0.056871
857.2877,0.056356
859.1514,0.055156
861.0150,0.054086
862.8787,0.053672
864.7424,0.053571
866.6060,0.053352
868.4697,0.053314
870.3334,0.053700
872.1971,0.054285
874.0607,0.054762
875.9244,0.055193
877.7881,0.055733
879.6517,0.056359
881.5154,0.056891
883.3791,0.057326
885.2427,0.057784
887.1064,0.058452
888.9701,0.059058
890.8337,0.059785
892.6974,0.060756
894.5611,0.061985
896.4247,0.063210
898.2884,0.064046
900.1521,0.064833
902.0158,0.065947
903.8794,0.067578
905.7431,0.069987
907.6068,0.073102
909.4704,0.076702
911.3341,0.080985
913.1978,0.086228
915.0614,0.089818
916.9251,0.086420
918.7888,0.077168
920.6524,0.069229
922.5161,0.065570
924.3798,0.064700
926.2435,0.064935
928.1071,0.065221
929.9708,0.065846
931.8345,0.066769
933.6981,0.067583
935.5618,0.068395
937.4255,0.069284
939.2891,0.070132
941.1528,0.070950
943.0165,0.071828
944.8801,0.072895
946.7438,0.074108
948.6075,0.075520
950.4711,0.076876
952.3348,0.078008
954.1985,0.079167
956.0622,0.080572
957.9258,0.082056
959.7895,0.083608
961.6532,0.085133
963.5168,0.086783
965.3805,0.088777
967.2442,0.091180
969.1078,0.093700
970.9715,0.096116
972.8352,0.098872
974.6988,0.103023
976.5625,0.109700
978.4262,0.120554
980.2899,0.135152
982.1535,0.141727
984.0172,0.127329
985.8809,0.106933
987.7445,0.097395
989.6082,0.096311
991.4719,0.097672
993.3355,0.099531
995.1992,0.101181
997.0629,0.102217
998.9265,0.103074
1000.7902,0.104280
1002.6539,0.105786
1004.5175,0.107448
1006.3812,0.109134
1008.2449,0.110597
1010.1086,0.111693
1011.9722,0.112362
1013.8359,0.112467
1015.6996,0.111894
1017.5632,0.110959
1019.4269,0.109746
1021.2906,0.108011
1023.1542,0.105879
1025.0179,0.103604
1026.8816,0.101466
1028.7452,0.099679
1030.6089,0.098349
1032.4726,0.097532
1034.3362,0.097141
1036.1999,0.096902
1038.0636,0.096788
1039.9273,0.097057
1041.7909,0.097857
1043.6546,0.098874
1045.5183,0.099791
1047.3819,0.100066
1049.2456,0.098462
1051.1093,0.094078
1052.9729,0.087879
1054.8366,0.082118
1056.7003,0.078256
1058.5639,0.076372
1060.4276,0.075584
1062.2913,0.075242
1064.1550,0.075232
1066.0186,0.075688
1067.8823,0.076504
1069.7460,0.077384
1071.6096,0.078345
1073.4733,0.079545
1075.3370,0.080841
1077.2006,0.081963
1079.0643,0.083101
1080.9280,0.084322
1082.7916,0.085711
1084.6553,0.087302
1086.5190,0.089085
1088.3826,0.091074
1090.2463,0.093460
1092.1100,0.096332
1093.9737,0.099486
1095.8373,0.102943
1097.7010,0.106731
1099.5647,0.110482
1101.4283,0.114265
1103.2920,0.117881
1105.1557,0.120582
1107.0193,0.121229
1108.8830,0.118906
1110.7467,0.113676
1112.6103,0.106696
1114.4740,0.099239
1116.3377,0.092144
1118.2014,0.086066
1120.0650,0.081429
1121.9287,0.078049
1123.7924,0.075615
1125.6560,0.073870
1127.5197,0.072386
1129.3834,0.070830
1131.2470,0.069089
1133.1107,0.067100
1134.9744,0.064883
1136.8380,0.062554
1138.7017,0.060503
1140.5654,0.058960
1142.4290,0.057917
1144.2927,0.057319
1146.1564,0.056691
1148.0201,0.056107
1149.8837,0.055777
1151.7474,0.055662
1153.6111,0.055941
1155.4747,0.056483
1157.3384,0.057200
1159.2021,0.058159
1161.0657,0.059257
1162.9294,0.060517
1164.7931,0.062057
1166.6567,0.063877
1168.5204,0.066010
1170.3841,0.068415
1172.2477,0.070479
1174.1114,0.070992
1175.9751,0.069079
1177.8388,0.065569
1179.7024,0.062469
1181.5661,0.060642
1183.4298,0.059630
1185.2934,0.058991
1187.1571,0.058512
1189.0208,0.057926
1190.8844,0.057163
1192.7481,0.056492
1194.6118,0.055979
1196.4754,0.055657
1198.3391,0.055588
1200.2028,0.055649
1202.0665,0.055716
1203.9301,0.055522
1205.7938,0.055252
1207.6575,0.055099
1209.5211,0.055111
1211.3848,0.055443
1213.2485,0.055875
1215.1121,0.056219
1216.9758,0.056498
1218.8395,0.056353
1220.7031,0.055757
1222.5668,0.055232
1224.4305,0.055050
1226.2941,0.055192
1228.1578,0.055347
1230.0215,0.055483
1231.8852,0.055665
1233.7488,0.055867
1235.6125,0.056105
1237.4762,0.056349
1239.3398,0.056583
1241.2035,0.056843
1243.0672,0.057128
1244.9308,0.057539
1246.7945,0.057950
1248.6582,0.058261
1250.5218,0.058673
1252.3855,0.059233
1254.2492,0.059827
1256.1129,0.060319
1257.9765,0.060876
1259.8402,0.061854
1261.7039,0.063072
1263.5675,0.064114
1265.4312,0.064769
1267.2949,0.064701
1269.1585,0.064032
1271.0222,0.063619
1272.8859,0.063741
1274.7495,0.064093
1276.6132,0.064765
1278.4769,0.065829
1280.3405,0.067226
1282.2042,0.068693
1284.0679,0.069897
1285.9316,0.071008
1287.7952,0.072316
1289.6589,0.073772
1291.5226,0.075502
1293.3862,0.077945
1295.2499,0.081239
1297.1136,0.085314
1298.9772,0.090206
1300.8409,0.096174
1302.7046,0.102862
1304.5682,0.108133
1306.4319,0.108887
1308.2956,0.102629
1310.1592,0.090019
1312.0229,0.076803
1313.8866,0.067972
1315.7503,0.064280
1317.6139,0.064148
1319.4776,0.065933
1321.3413,0.067993
1323.2049,0.070230
1325.0686,0.072986
1326.9323,0.075366
1328.7959,0.076220
1330.6596,0.075553
1332.5233,0.074368
1334.3869,0.073152
1336.2506,0.072030
1338.1143,0.071862
1339.9780,0.072938
1341.8416,0.072793
1343.7053,0.071922
1345.5690,0.072174
1347.4326,0.073253
1349.2963,0.074992
1351.1600,0.077276
1353.0236,0.079755
1354.8873,0.082509
1356.7510,0.084201
1358.6146,0.084050
1360.4783,0.083690
1362.3420,0.085383
1364.2056,0.087208
1366.0693,0.087336
1367.9330,0.088964
1369.7967,0.092004
1371.6603,0.094312
1373.5240,0.098382
1375.3877,0.103478
1377.2513,0.105812
1379.1150,0.108398
1380.9787,0.111993
1382.8423,0.115216
1384.7060,0.118818
1386.5697,0.124743
1388.4333,0.131718
1390.2970,0.133779
1392.1607,0.134132
1394.0244,0.135401
1395.8880,0.134511
1397.7517,0.130186
1399.6154,0.125322
1401.4790,0.120046
1403.3427,0.116076
1405.2064,0.111393
1407.0700,0.102010
1408.9337,0.090607
1410.7974,0.079736
1412.6610,0.071066
1414.5247,0.065582
1416.3884,0.063784
1418.2520,0.066696
1420.1157,0.073111
1421.9794,0.074505
1423.8431,0.072355
1425.7067,0.066444
1427.5704,0.059462
1429.4341,0.055300
1431.2977,0.053760
1433.1614,0.052835
1435.0251,0.053592
1436.8887,0.058182
1438.7524,0.060870
1440.6161,0.060426
1442.4797,0.061232
1444.3434,0.062195
1446.2071,0.063195
1448.0707,0.064637
1449.9344,0.063981
1451.7981,0.061227
1453.6618,0.058524
1455.5254,0.057893
1457.3891,0.063963
1459.2528,0.066945
1461.1164,0.064492
1462.9801,0.063770
1464.8438,0.064698
1466.7074,0.063228
1468.5711,0.059520
1470.4348,0.057381
1472.2984,0.059077
1474.1621,0.062001
1476.0258,0.061373
1477.8895,0.060242
1479.7531,0.059626
1481.6168,0.060292
1483.4805,0.060858
1485.3441,0.060664
1487.2078,0.061967
1489.0715,0.065714
1490.9351,0.068996
1492.7988,0.067384
1494.6625,0.065780
1496.5261,0.068061
1498.3898,0.071242
1500.2535,0.070927
1502.1171,0.069231
1503.9808,0.067725
1505.8445,0.070811
1507.7082,0.084554
1509.5718,0.084012
1511.4355,0.081087
1513.2992,0.080461
1515.1628,0.080245
1517.0265,0.081576
1518.8902,0.081680
1520.7538,0.081934
1522.6175,0.084500
1524.4812,0.083139
1526.3448,0.082608
1528.2085,0.082690
1530.0722,0.081078
1531.9359,0.080973
1533.7995,0.083981
1535.6632,0.083756
1537.5269,0.081497
1539.3905,0.085826
1541.2542,0.096944
1543.1179,0.097290
1544.9815,0.097878
1546.8452,0.098349
1548.7089,0.098993
1550.5725,0.102142
1552.4362,0.103783
1554.2999,0.104670
1556.1635,0.106691
1558.0272,0.112783
1559.8909,0.130043
1561.7546,0.123134
1563.6182,0.118376
1565.4819,0.118928
1567.3456,0.120161
1569.2092,0.123335
1571.0729,0.126588
1572.9366,0.124704
1574.8002,0.125481
1576.6639,0.131498
1578.5276,0.131872
1580.3912,0.129327
1582.2549,0.129271
1584.1186,0.129944
1585.9822,0.130390
1587.8459,0.130656
1589.7096,0.130734
1591.5733,0.130372
1593.4369,0.129802
1595.3006,0.129097
1597.1643,0.127705
1599.0279,0.125814
1600.8916,0.124240
1602.7553,0.122905
1604.6189,0.121555
1606.4826,0.120241
1608.3463,0.119364
1610.2099,0.118190
1612.0736,0.116125
1613.9373,0.113788
1615.8010,0.113086
1617.6646,0.111352
1619.5283,0.105466
1621.3920,0.101281
1623.2556,0.099195
1625.1193,0.095208
1626.9830,0.090259
1628.8466,0.085343
1630.7103,0.079508
1632.5740,0.073829
1634.4376,0.069958
1636.3013,0.067728
1638.1650,0.064241
1640.0286,0.060611
1641.8923,0.058137
1643.7560,0.056686
1645.6197,0.057317
1647.4833,0.060582
1649.3470,0.060652
1651.2107,0.059571
1653.0743,0.065178
1654.9380,0.071743
1656.8017,0.068212
1658.6653,0.067179
1660.5290,0.067933
1662.3927,0.069197
1664.2563,0.069629
1666.1200,0.067980
1667.9837,0.067201
1669.8474,0.069090
1671.7110,0.070016
1673.5747,0.069334
1675.4384,0.070807
1677.3020,0.072148
1679.1657,0.071084
1681.0294,0.071024
1682.8930,0.072349
1684.7567,0.076545
1686.6204,0.076219
1688.4840,0.072468
1690.3477,0.069488
1692.2114,0.065644
1694.0750,0.061833
1695.9387,0.058460
1697.8024,0.055298
1699.6661,0.052468
1701.5297,0.048906
1703.3934,0.043955
1705.2571,0.039205
1707.1207,0.034005
1708.9844,0.029537
1710.8481,0.025868
1712.7117,0.022887
1714.5754,0.020603
1716.4391,0.019319
1718.3027,0.019010
1720.1664,0.018677
1722.0301,0.017297
1723.8937,0.015995
1725.7574,0.014658
1727.6211,0.013043
1729.4848,0.011435
1731.3484,0.010402
1733.2121,0.009491
1735.0758,0.009664
1736.9394,0.009510
1738.8031,0.008321
1740.6668,0.008020
1742.5304,0.007844
1744.3941,0.007568
1746.2578,0.007319
1748.1214,0.007070
1749.9851,0.007188
1751.8488,0.007413
1753.7125,0.007390
1755.5761,0.006617
1757.4398,0.006455
1759.3035,0.006577
1761.1671,0.006210
1763.0308,0.006587
1764.8945,0.006576
1766.7581,0.006001
1768.6218,0.005920
1770.4855,0.005976
1772.3491,0.005929
1774.2128,0.006509
1776.0765,0.006168
1777.9401,0.005986
1779.8038,0.005994
1781.6675,0.006331
1783.5312,0.006320
1785.3948,0.006046
1787.2585,0.006028
1789.1222,0.005895
1790.9858,0.005661
1792.8495,0.005921
1794.7132,0.006333
1796.5768,0.006044
1798.4405,0.005971
1800.3042,0.005966
1802.1678,0.006151
1804.0315,0.006360
1805.8952,0.006247
1807.7589,0.006052
1809.6225,0.006019
1811.4862,0.006213
1813.3499,0.006327
1815.2135,0.006006
1817.0772,0.005974
1818.9409,0.006167
1820.8045,0.005978
1822.6682,0.005724
1824.5319,0.005801
1826.3955,0.005948
1828.2592,0.005447
1830.1229,0.005379
1831.9865,0.006279
1833.8502,0.006084
1835.7139,0.005773
1837.5776,0.005750
1839.4412,0.005859
1841.3049,0.005530
1843.1686,0.004916
1845.0322,0.005205
1846.8959,0.005873
1848.7596,0.005975
1850.6232,0.005922
1852.4869,0.005402
1854.3506,0.005611
1856.2142,0.005770
1858.0779,0.005696
1859.9416,0.005754
1861.8052,0.005789
1863.6689,0.005754
1865.5326,0.005671
1867.3963,0.005216
1869.2599,0.005178
1871.1236,0.005566
1872.9873,0.005716
1874.8509,0.005560
1876.7146,0.005409
1878.5783,0.005351
1880.4419,0.005417
1882.3056,0.005440
1884.1693,0.005404
1886.0329,0.005368
1887.8966,0.005157
1889.7603,0.004821
1891.6240,0.005149
1893.4876,0.005409
1895.3513,0.005703
1897.2150,0.005601
1899.0786,0.005224
1900.9423,0.005244
1902.8060,0.005472
1904.6696,0.005560
1906.5333,0.005611
1908.3970,0.005259
1910.2606,0.005019
1912.1243,0.005093
1913.9880,0.005040
1915.8516,0.004921
1917.7153,0.004897
1919.5790,0.005227
1921.4427,0.004876
1923.3063,0.004077
1925.1700,0.004311
1927.0337,0.004823
1928.8973,0.004882
1930.7610,0.004736
1932.6247,0.005118
1934.4883,0.004756
1936.3520,0.004055
1938.2157,0.004324
1940.0793,0.004643
1941.9430,0.003605
1943.8067,0.002908
1945.6704,0.003687
1947.5340,0.004182
1949.3977,0.003158
1951.2614,0.002802
1953.1250,0.003215
1954.9887,0.003148
1956.8524,0.002448
1958.7160,0.001224
1960.5797,0.000205
1962.4434,0.000748
1964.3070,0.001584
1966.1707,0.000577
1968.0344,-0.001235
1969.8980,-0.000389
1971.7617,0.000596
1973.6254,-0.000245
1975.4891,-0.000450
1977.3527,0.000531
1979.2164,0.001466
1981.0801,0.002244
1982.9437,0.001970
1984.8074,0.001511
1986.6711,0.000875
1988.5347,0.000624
1990.3984,0.001344
1992.2621,0.002251
1994.1257,0.002591
1995.9894,0.002229
1997.8531,0.001982
1999.7167,0.002112
2001.5804,0.001513
2003.4441,0.001197
2005.3078,0.000548
2007.1714,-0.000186
2009.0351,0.000176
2010.8988,0.000036
2012.7624,0.000167
2014.6261,0.000572
2016.4898,0.000077
2018.3534,-0.000388
2020.2171,-0.000352
2022.0808,0.000509
2023.9444,-0.000340
2025.8081,-0.001539
2027.6718,-0.000869
2029.5355,0.000522
2031.3991,0.000889
2033.2628,0.000219
2035.1265,-0.000134
2036.9901,0.000507
2038.8538,0.002275
2040.7175,0.003755
2042.5811,0.003264
2044.4448,0.002641
2046.3085,0.002621
2048.1721,0.002827
2050.0358,0.003710
2051.8995,0.004786
2053.7631,0.004895
2055.6268,0.004487
2057.4905,0.004760
2059.3542,0.005549
2061.2178,0.005092
2063.0815,0.004975
2064.9452,0.005974
2066.8088,0.005898
2068.6725,0.005122
2070.5362,0.005490
2072.3998,0.006176
2074.2635,0.006343
2076.1272,0.006593
2077.9908,0.007348
2079.8545,0.007262
2081.7182,0.007016
2083.5819,0.007217
2085.4455,0.007065
2087.3092,0.006994
2089.1729,0.007279
2091.0365,0.006958
2092.9002,0.006507
2094.7639,0.006536
2096.6275,0.006749
2098.4912,0.007060
2100.3549,0.007698
2102.2185,0.008221
2104.0822,0.008059
2105.9459,0.007488
2107.8095,0.007812
2109.6732,0.008193
2111.5369,0.007912
2113.4006,0.007562
2115.2642,0.007432
2117.1279,0.007261
2118.9916,0.006825
2120.8552,0.006597
2122.7189,0.006807
2124.5826,0.006941
2126.4462,0.006957
2128.3099,0.006744
2130.1736,0.005978
2132.0372,0.004888
2133.9009,0.004564
2135.7646,0.004856
2137.6282,0.005202
2139.4919,0.005508
2141.3556,0.005240
2143.2193,0.004511
2145.0829,0.004195
2146.9466,0.003309
2148.8103,0.002176
2150.6739,0.001148
2152.5376,0.000527
2154.4013,0.000249
2156.2649,-0.000005
2158.1286,0.000591
2159.9923,0.002356
2161.8559,0.001717
2163.7196,0.000843
2165.5833,0.002740
2167.4470,0.003522
2169.3106,0.002787
2171.1743,0.003079
2173.0380,0.003367
2174.9016,0.003146
2176.7653,0.002873
2178.6290,0.002628
2180.4926,0.002706
2182.3563,0.003949
2184.2200,0.005020
2186.0836,0.005262
2187.9473,0.005408
2189.8110,0.004640
2191.6746,0.004651
2193.5383,0.005280
2195.4020,0.004173
2197.2657,0.004537
2199.1293,0.006103
2200.9930,0.005931
2202.8567,0.005409
2204.7203,0.005677
2206.5840,0.006379
2208.4477,0.006627
2210.3113,0.006463
2212.1750,0.007160
2214.0387,0.007048
2215.9023,0.006374
2217.7660,0.006659
2219.6297,0.007249
2221.4934,0.007571
2223.3570,0.008038
2225.2207,0.007979
2227.0844,0.007893
2228.9480,0.008504
2230.8117,0.009173
2232.6754,0.009114
2234.5390,0.008911
2236.4027,0.008621
2238.2664,0.008618
2240.1300,0.008449
2241.9937,0.008236
2243.8574,0.008699
2245.7210,0.009244
2247.5847,0.009511
2249.4484,0.009330
2251.3121,0.009188
2253.1757,0.009458
2255.0394,0.009856
2256.9031,0.010167
2258.7667,0.010475
2260.6304,0.010518
2262.4941,0.010081
2264.3577,0.010093
2266.2214,0.010520
2268.0851,0.010924
2269.9487,0.011049
2271.8124,0.010967
2273.6761,0.011443
2275.5397,0.012209
2277.4034,0.012367
2279.2671,0.012370
2281.1308,0.012436
2282.9944,0.012719
2284.8581,0.013147
2286.7218,0.013281
2288.5854,0.013035
2290.4491,0.012951
2292.3128,0.013164
2294.1764,0.013346
2296.0401,0.013323
2297.9038,0.013312
2299.7674,0.013161
2301.6311,0.013159
2303.4948,0.013182
2305.3585,0.013073
2307.2221,0.013181
2309.0858,0.013482
2310.9495,0.013673
2312.8131,0.013462
2314.6768,0.013049
2316.5405,0.013182
2318.4041,0.013513
2320.2678,0.013744
2322.1315,0.013805
2323.9951,0.014063
2325.8588,0.013696
2327.7225,0.012611
2329.5861,0.012299
2331.4498,0.012397
2333.3135,0.012282
2335.1772,0.012349
2337.0408,0.012571
2338.9045,0.012652
2340.7682,0.012581
2342.6318,0.012734
2344.4955,0.012887
2346.3592,0.012887
2348.2228,0.012782
2350.0865,0.012277
2351.9502,0.011731
2353.8138,0.011782
2355.6775,0.012015
2357.5412,0.012246
2359.4049,0.012158
2361.2685,0.012506
2363.1322,0.012926
2364.9959,0.012372
2366.8595,0.011940
2368.7232,0.012324
2370.5869,0.012585
2372.4505,0.013007
2374.3142,0.013437
2376.1779,0.013365
2378.0415,0.013221
2379.9052,0.013174
2381.7689,0.012952
2383.6325,0.012781
2385.4962,0.012760
2387.3599,0.013028
2389.2236,0.013393
2391.0872,0.013208
2392.9509,0.012837
2394.8146,0.012864
2396.6782,0.012817
2398.5419,0.013159
2400.4056,0.013619
2402.2692,0.013707
2404.1329,0.013699
2405.9966,0.013522
2407.8602,0.013164
2409.7239,0.013519
2411.5876,0.014019
2413.4512,0.013909
2415.3149,0.013787
2417.1786,0.013861
2419.0423,0.013835
2420.9059,0.014014
2422.7696,0.014175
2424.6333,0.014635
2426.4969,0.014975
2428.3606,0.014728
2430.2243,0.014268
2432.0879,0.014185
2433.9516,0.014359
2435.8153,0.014688
2437.6789,0.014862
2439.5426,0.014586
2441.4063,0.014649
2443.2700,0.014768
2445.1336,0.014366
2446.9973,0.014357
2448.8610,0.014614
2450.7246,0.014769
2452.5883,0.014751
2454.4520,0.014708
2456.3156,0.014431
2458.1793,0.014334
2460.0430,0.014616
2461.9066,0.014882
2463.7703,0.014644
2465.6340,0.014414
2467.4976,0.014880
2469.3613,0.014969
2471.2250,0.014289
2473.0887,0.014288
2474.9523,0.014940
2476.8160,0.015186
2478.6797,0.015076
2480.5433,0.015286
2482.4070,0.015639
2484.2707,0.015938
2486.1343,0.015831
2487.9980,0.015399
2489.8617,0.015359
2491.7253,0.015740
2493.5890,0.015789
2495.4527,0.015744
2497.3164,0.016010
2499.1800,0.016175
2501.0437,0.016219
2502.9074,0.016628
2504.7710,0.016627
2506.6347,0.016580
2508.4984,0.016684
2510.3620,0.016636
2512.2257,0.016476
2514.0894,0.016420
2515.9530,0.016830
2517.8167,0.017027
2519.6804,0.016876
2521.5440,0.017018
2523.4077,0.017005
2525.2714,0.016815
2527.1351,0.017000
2528.9987,0.017519
2530.8624,0.017810
2532.7261,0.017914
2534.5897,0.017777
2536.4534,0.017620
2538.3171,0.017740
2540.1807,0.017734
2542.0444,0.017505
2543.9081,0.017751
2545.7717,0.018182
2547.6354,0.018089
2549.4991,0.017508
2551.3627,0.017558
2553.2264,0.017846
2555.0901,0.018024
2556.9538,0.018267
2558.8174,0.018520
2560.6811,0.018839
2562.5448,0.018906
2564.4084,0.018626
2566.2721,0.018706
2568.1358,0.018825
2569.9994,0.018840
2571.8631,0.019094
2573.7268,0.019649
2575.5904,0.019836
2577.4541,0.019759
2579.3178,0.019693
2581.1815,0.019559
2583.0451,0.019596
2584.9088,0.020042
2586.7725,0.020393
2588.6361,0.020464
2590.4998,0.020526
2592.3635,0.020555
2594.2271,0.020672
2596.0908,0.020830
2597.9545,0.020741
2599.8181,0.020828
2601.6818,0.021154
2603.5455,0.021449
2605.4091,0.021571
2607.2728,0.021836
2609.1365,0.021929
2611.0002,0.021797
2612.8638,0.021720
2614.7275,0.021884
2616.5912,0.022232
2618.4548,0.022560
2620.3185,0.022806
2622.1822,0.023040
2624.0458,0.023255
2625.9095,0.023407
2627.7732,0.023333
2629.6368,0.023402
2631.5005,0.023525
2633.3642,0.023758
2635.2279,0.024008
2637.0915,0.024300
2638.9552,0.024561
2640.8189,0.024678
2642.6825,0.024714
2644.5462,0.024846
2646.4099,0.025035
2648.2735,0.025259
2650.1372,0.025654
2652.0009,0.025903
2653.8645,0.025841
2655.7282,0.025889
2657.5919,0.025904
2659.4555,0.026160
2661.3192,0.026245
2663.1829,0.025897
2665.0466,0.025799
2666.9102,0.026008
2668.7739,0.026231
2670.6376,0.026274
2672.5012,0.026282
2674.3649,0.026523
2676.2286,0.026661
2678.0922,0.026539
2679.9559,0.026687
2681.8196,0.027161
2683.6832,0.027382
2685.5469,0.027525
2687.4106,0.027658
2689.2742,0.027582
2691.1379,0.027644
2693.0016,0.028056
2694.8653,0.028453
2696.7289,0.028751
2698.5926,0.029106
2700.4563,0.029432
2702.3199,0.029487
2704.1836,0.029753
2706.0473,0.030050
2707.9109,0.030237
2709.7746,0.030521
2711.6383,0.031099
2713.5019,0.031402
2715.3656,0.031555
2717.2293,0.031809
2719.0930,0.031936
2720.9566,0.032201
2722.8203,0.032738
2724.6840,0.032975
2726.5476,0.033402
2728.4113,0.033945
2730.2750,0.034227
2732.1386,0.034435
2734.0023,0.034812
2735.8660,0.035136
2737.7296,0.035585
2739.5933,0.036005
2741.4570,0.036215
2743.3206,0.036220
2745.1843,0.036623
2747.0480,0.037105
2748.9117,0.037297
2750.7753,0.037822
2752.6390,0.038524
2754.5027,0.038882
2756.3663,0.039148
2758.2300,0.039492
2760.0937,0.039922
2761.9573,0.040344
2763.8210,0.040993
2765.6847,0.041593
2767.5483,0.042109
2769.4120,0.042414
2771.2757,0.042701
2773.1394,0.043543
2775.0030,0.044505
2776.8667,0.044917
2778.7304,0.045176
2780.5940,0.045346
2782.4577,0.045453
2784.3214,0.045449
2786.1850,0.045561
2788.0487,0.045516
2789.9124,0.045454
2791.7760,0.045629
2793.6397,0.045792
2795.5034,0.045350
2797.3670,0.044786
2799.2307,0.044466
2801.0944,0.044348
2802.9581,0.044024
2804.8217,0.043789
2806.6854,0.043632
2808.5491,0.043297
2810.4127,0.043103
2812.2764,0.043292
2814.1401,0.043388
2816.0037,0.043459
2817.8674,0.043472
2819.7311,0.043651
2821.5947,0.043922
2823.4584,0.044044
2825.3221,0.044133
2827.1857,0.044390
2829.0494,0.044330
2830.9131,0.043967
2832.7768,0.043742
2834.6404,0.043757
2836.5041,0.043848
2838.3678,0.044456
2840.2314,0.045001
2842.0951,0.045385
2843.9588,0.045365
2845.8224,0.045398
2847.6861,0.045883
2849.5498,0.046555
2851.4134,0.047054
2853.2771,0.047876
2855.1408,0.048619
2857.0045,0.049110
2858.8681,0.049860
2860.7318,0.050667
2862.5955,0.050756
2864.4591,0.050862
2866.3228,0.051071
2868.1865,0.050851
2870.0501,0.050752
2871.9138,0.051367
2873.7775,0.051943
2875.6411,0.052162
2877.5048,0.051928
2879.3685,0.052087
2881.2321,0.052202
2883.0958,0.052321
2884.9595,0.052835
2886.8232,0.053332
2888.6868,0.053301
2890.5505,0.053503
2892.4142,0.053996
2894.2778,0.054346
2896.1415,0.054495
2898.0052,0.054607
2899.8688,0.054688
2901.7325,0.054626
2903.5962,0.054623
2905.4598,0.054911
2907.3235,0.054899
2909.1872,0.055006
2911.0509,0.055177
2912.9145,0.055432
2914.7782,0.056039
2916.6419,0.056899
2918.5055,0.057191
2920.3692,0.057455
2922.2329,0.058336
2924.0965,0.059172
2925.9602,0.059566
2927.8239,0.059773
2929.6875,0.060077
2931.5512,0.060673
2933.4149,0.061325
2935.2785,0.061636
2937.1422,0.061713
2939.0059,0.061913
2940.8696,0.061926
2942.7332,0.061869
2944.5969,0.061969
2946.4606,0.062044
2948.3242,0.062174
2950.1879,0.062586
2952.0516,0.062784
2953.9152,0.062919
2955.7789,0.062803
2957.6426,0.062657
2959.5062,0.062686
2961.3699,0.063279
2963.2336,0.063569
2965.0972,0.063940
2966.9609,0.064780
2968.8246,0.065482
2970.6883,0.065732
2972.5519,0.066079
2974.4156,0.066874
2976.2793,0.067633
2978.1429,0.067892
2980.0066,0.068429
2981.8703,0.069102
2983.7339,0.069544
2985.5976,0.069746
2987.4613,0.070053
2989.3249,0.070237
2991.1886,0.070355
2993.0523,0.070679
2994.9160,0.071131
2996.7796,0.071603
2998.6433,0.072189
3000.5070,0.072981
3002.3706,0.073931
3004.2343,0.074481
3006.0980,0.074699
3007.9616,0.074700
3009.8253,0.075097
3011.6890,0.075968
3013.5526,0.076710
3015.4163,0.076779
3017.2800,0.076879
3019.1436,0.077219
3021.0073,0.077433
3022.8710,0.077581
3024.7347,0.077495
3026.5983,0.077485
3028.4620,0.078173
3030.3257,0.078247
3032.1893,0.078209
3034.0530,0.078708
3035.9167,0.078986
3037.7803,0.079295
3039.6440,0.079538
3041.5077,0.079818
3043.3713,0.080172
3045.2350,0.080522
3047.0987,0.080638
3048.9624,0.080354
3050.8260,0.080733
3052.6897,0.081151
3054.5534,0.081368
3056.4170,0.081779
3058.2807,0.082365
3060.1444,0.082227
3062.0080,0.081706
3063.8717,0.081422
3065.7354,0.082086
3067.5990,0.082762
3069.4627,0.082813
3071.3264,0.082340
3073.1900,0.081990
3075.0537,0.081617
3076.9174,0.081655
3078.7811,0.081555
3080.6447,0.081160
3082.5084,0.080647
3084.3721,0.080314
3086.2357,0.079959
3088.0994,0.079598
3089.9631,0.079526
3091.8267,0.079705
3093.6904,0.078679
3095.5541,0.077782
3097.4177,0.077533
3099.2814,0.077099
3101.1451,0.076741
3103.0087,0.076471
3104.8724,0.075717
3106.7361,0.075150
3108.5998,0.074725
3110.4634,0.074835
3112.3271,0.074652
3114.1908,0.074105
3116.0544,0.073307
3117.9181,0.073179
3119.7818,0.072264
3121.6454,0.071431
3123.5091,0.071632
3125.3728,0.071734
3127.2364,0.071002
3129.1001,0.070411
3130.9638,0.069676
3132.8275,0.068885
3134.6911,0.068769
3136.5548,0.068774
3138.4185,0.068555
3140.2821,0.068589
3142.1458,0.068420
3144.0095,0.067814
3145.8731,0.067358
3147.7368,0.067339
3149.6005,0.066576
3151.4641,0.065832
3153.3278,0.065585
3155.1915,0.065681
3157.0551,0.064827
3158.9188,0.064261
3160.7825,0.063636
3162.6462,0.063301
3164.5098,0.062995
3166.3735,0.062280
3168.2372,0.061438
3170.1008,0.061139
3171.9645,0.060552
3173.8282,0.060269
3175.6918,0.059777
3177.5555,0.059494
3179.4192,0.059361
3181.2828,0.058902
3183.1465,0.058125
3185.0102,0.058100
3186.8739,0.058296
3188.7375,0.057923
3190.6012,0.057448
3192.4649,0.057390
3194.3285,0.057505
3196.1922,0.057529
3198.0559,0.057204
3199.9195,0.056741
3201.7832,0.056741
3203.6469,0.057222
3205.5105,0.056816
3207.3742,0.056710
3209.2379,0.057150
3211.1015,0.057017
3212.9652,0.056204
3214.8289,0.056407
3216.6926,0.056885
3218.5562,0.056557
3220.4199,0.056308
3222.2836,0.056919
3224.1472,0.056916
3226.0109,0.056887
3227.8746,0.056864
3229.7382,0.056617
3231.6019,0.056358
3233.4656,0.056761
3235.3292,0.057210
3237.1929,0.057928
3239.0566,0.057655
3240.9202,0.057486
3242.7839,0.057556
3244.6476,0.058439
3246.5113,0.059029
3248.3749,0.059186
3250.2386,0.059424
3252.1023,0.059465
3253.9659,0.059465
3255.8296,0.059941
3257.6933,0.060411
3259.5569,0.060567
3261.4206,0.060443
3263.2843,0.059923
3265.1479,0.059766
3267.0116,0.060823
3268.8753,0.061651
3270.7390,0.061538
3272.6026,0.060968
3274.4663,0.060972
3276.3300,0.060147
3278.1936,0.060064
3280.0573,0.060793
3281.9210,0.060700
3283.7846,0.059069
3285.6483,0.058535
3287.5120,0.059522
3289.3756,0.059019
3291.2393,0.057692
3293.1030,0.058139
3294.9666,0.057804
3296.8303,0.056764
3298.6940,0.055418
3300.5577,0.054767
3302.4213,0.054326
3304.2850,0.054376
3306.1487,0.053735
3308.0123,0.052689
3309.8760,0.052359
3311.7397,0.052359
3313.6033,0.052198
3315.4670,0.052332
3317.3307,0.051827
3319.1943,0.050916
3321.0580,0.050437
3322.9217,0.051227
3324.7854,0.051419
3326.6490,0.051255
3328.5127,0.050851
3330.3764,0.051013
3332.2400,0.051601
3334.1037,0.051909
3335.9674,0.051193
3337.8310,0.050555
3339.6947,0.050707
3341.5584,0.051011
3343.4220,0.050487
3345.2857,0.049943
3347.1494,0.047640
3349.0130,0.045925
3350.8767,0.045602
3352.7404,0.044985
3354.6041,0.043206
3356.4677,0.042194
3358.3314,0.042095
3360.1951,0.042430
3362.0587,0.041738
3363.9224,0.040519
3365.7861,0.039498
3367.6497,0.039992
3369.5134,0.040797
3371.3771,0.041191
3373.2407,0.040337
3375.1044,0.039141
3376.9681,0.038690
3378.8317,0.038476
3380.6954,0.037636
3382.5591,0.037450
3384.4228,0.037731
3386.2864,0.038083
3388.1501,0.038279
3390.0138,0.038740
3391.8774,0.038473
3393.7411,0.037677
3395.6048,0.037345
3397.4684,0.038544
3399.3321,0.038914
3401.1958,0.038365
3403.0594,0.037456
3404.9231,0.036526
3406.7868,0.035099
3408.6505,0.034065
3410.5141,0.033371
3412.3778,0.032239
3414.2415,0.031479
3416.1051,0.031182
3417.9688,0.030026
3419.8325,0.029449
3421.6961,0.029240
3423.5598,0.028159
3425.4235,0.026693
3427.2871,0.025382
3429.1508,0.023791
3431.0145,0.023330
3432.8781,0.023248
3434.7418,0.022669
3436.6055,0.021275
3438.4692,0.020474
3440.3328,0.019146
3442.1965,0.018067
3444.0602,0.019604
3445.9238,0.020284
3447.7875,0.018653
3449.6512,0.017568
3451.5148,0.016745
3453.3785,0.016871
3455.2422,0.016520
3457.1058,0.015606
3458.9695,0.015991
3460.8332,0.016383
3462.6969,0.015173
3464.5605,0.014203
3466.4242,0.014563
3468.2879,0.014735
3470.1515,0.013967
3472.0152,0.014148
3473.8789,0.013676
3475.7425,0.012967
3477.6062,0.012541
3479.4699,0.011586
3481.3335,0.010669
3483.1972,0.011029
3485.0609,0.011785
3486.9245,0.012459
3488.7882,0.012680
3490.6519,0.012579
3492.5156,0.011449
3494.3792,0.010017
3496.2429,0.008724
3498.1066,0.008710
3499.9702,0.010217
3501.8339,0.010067
3503.6976,0.009336
3505.5612,0.009848
3507.4249,0.008951
3509.2886,0.007426
3511.1522,0.007750
3513.0159,0.007275
3514.8796,0.007488
3516.7432,0.008891
3518.6069,0.008013
3520.4706,0.007059
3522.3343,0.006562
3524.1979,0.006244
3526.0616,0.005951
3527.9253,0.005160
3529.7889,0.004371
3531.6526,0.005501
3533.5163,0.006108
3535.3799,0.005499
3537.2436,0.004802
3539.1073,0.005239
3540.9709,0.006003
3542.8346,0.006636
3544.6983,0.006207
3546.5620,0.005065
3548.4256,0.004858
3550.2893,0.005125
3552.1530,0.004993
3554.0166,0.004070
3555.8803,0.003585
3557.7440,0.003852
3559.6076,0.003538
3561.4713,0.003611
3563.3350,0.003677
3565.1986,0.002637
3567.0623,0.002105
3568.9260,0.003144
3570.7896,0.004527
3572.6533,0.004527
3574.5170,0.004691
3576.3807,0.004642
3578.2443,0.004205
3580.1080,0.004319
3581.9717,0.003825
3583.8353,0.003536
3585.6990,0.002738
3587.5627,0.001293
3589.4263,0.001275
3591.2900,0.003503
3593.1537,0.003747
3595.0173,0.002665
3596.8810,0.002229
3598.7447,0.001933
3600.6084,0.001652
3602.4720,0.002408
3604.3357,0.003524
3606.1994,0.003609
3608.0630,0.002872
3609.9267,0.002328
3611.7904,0.002797
3613.6540,0.003530
3615.5177,0.003031
3617.3814,0.002335
3619.2450,0.002020
3621.1087,0.002302
3622.9724,0.002945
3624.8360,0.002102
3626.6997,0.001684
3628.5634,0.001531
3630.4271,0.002641
3632.2907,0.004967
3634.1544,0.004417
3636.0181,0.004098
3637.8817,0.004192
3639.7454,0.003997
3641.6091,0.003659
3643.4727,0.003997
3645.3364,0.003227
3647.2001,0.001097
3649.0637,-0.001344
3650.9274,-0.001141
3652.7911,0.002938
3654.6547,0.004580
3656.5184,0.002816
3658.3821,0.003103
3660.2458,0.004512
3662.1094,0.004169
3663.9731,0.003955
3665.8368,0.004267
3667.7004,0.004091
3669.5641,0.003605
3671.4278,0.004582
3673.2914,0.007783
3675.1551,0.007657
3677.0188,0.007644
3678.8824,0.008160
3680.7461,0.006268
3682.6098,0.004345
3684.4735,0.003414
3686.3371,0.001728
3688.2008,0.000253
3690.0645,-0.000553
3691.9281,0.001883
3693.7918,0.004290
3695.6555,0.003695
3697.5191,0.002749
3699.3828,0.002906
3701.2465,0.002410
3703.1101,0.002473
3704.9738,0.003435
3706.8375,0.003371
3708.7011,0.002361
3710.5648,0.001545
3712.4285,0.000684
3714.2922,0.002003
3716.1558,0.003507
3718.0195,0.003603
3719.8832,0.003246
3721.7468,0.002472
3723.6105,0.002391
3725.4742,0.003256
3727.3378,0.003298
3729.2015,0.003221
3731.0652,0.002599
3732.9288,0.001188
3734.7925,0.000653
3736.6562,0.000444
3738.5199,0.001612
3740.3835,0.002484
3742.2472,0.001911
3744.1109,0.000790
3745.9745,0.000216
3747.8382,0.001117
3749.7019,0.000499
3751.5655,-0.000335
3753.4292,0.002395
3755.2929,0.004068
3757.1565,0.003479
3759.0202,0.002819
3760.8839,0.003152
3762.7475,0.003531
3764.6112,0.003186
3766.4749,0.003425
3768.3386,0.003707
3770.2022,0.003609
3772.0659,0.003941
3773.9296,0.003966
3775.7932,0.003996
3777.6569,0.003992
3779.5206,0.003343
3781.3842,0.003687
3783.2479,0.004284
3785.1116,0.004024
3786.9752,0.003803
3788.8389,0.004450
3790.7026,0.005108
3792.5662,0.004964
3794.4299,0.003974
3796.2936,0.002623
3798.1573,0.002232
3800.0209,0.002595
3801.8846,0.002251
3803.7483,0.003342
3805.6119,0.004191
3807.4756,0.003513
3809.3393,0.003745
3811.2029,0.004611
3813.0666,0.003850
3814.9303,0.002408
3816.7939,0.001385
3818.6576,0.002435
3820.5213,0.002840
3822.3850,0.002607
3824.2486,0.004537
3826.1123,0.005127
3827.9760,0.004356
3829.8396,0.004311
3831.7033,0.003688
3833.5670,0.003213
3835.4306,0.002877
3837.2943,0.002650
3839.1580,0.002336
3841.0216,0.003755
3842.8853,0.004670
3844.7490,0.004087
3846.6126,0.003544
3848.4763,0.003719
3850.3400,0.002306
3852.2037,0.001097
3854.0673,0.001865
3855.9310,0.004669
3857.7947,0.005152
3859.6583,0.004348
3861.5220,0.003893
3863.3857,0.003843
3865.2493,0.003000
3867.1130,0.003800
3868.9767,0.003897
3870.8403,0.002568
3872.7040,0.002825
3874.5677,0.004173
3876.4314,0.004624
3878.2950,0.004959
3880.1587,0.004050
3882.0224,0.003488
3883.8860,0.004842
3885.7497,0.004654
3887.6134,0.003675
3889.4770,0.004114
3891.3407,0.003583
3893.2044,0.004205
3895.0680,0.005555
3896.9317,0.004602
3898.7954,0.003013
3900.6590,0.002628
3902.5227,0.003266
3904.3864,0.004220
3906.2501,0.004857
3908.1137,0.005410
3909.9774,0.005174
3911.8411,0.004453
3913.7047,0.003935
3915.5684,0.003861
3917.4321,0.004157
3919.2957,0.004976
3921.1594,0.005388
3923.0231,0.005121
3924.8867,0.004599
3926.7504,0.004972
3928.6141,0.005512
3930.4777,0.005114
3932.3414,0.004197
3934.2051,0.004062
3936.0688,0.004934
3937.9324,0.005341
3939.7961,0.004477
3941.6598,0.004584
3943.5234,0.004671
3945.3871,0.004593
3947.2508,0.004740
3949.1144,0.004822
3950.9781,0.005503
3952.8418,0.005930
3954.7054,0.005441
3956.5691,0.005134
3958.4328,0.005137
3960.2965,0.005287
3962.1601,0.005267
3964.0238,0.005610
3965.8875,0.005369
3967.7511,0.005352
3969.6148,0.005390
3971.4785,0.005163
3973.3421,0.005139
3975.2058,0.005285
3977.0695,0.004885
3978.9331,0.004395
3980.7968,0.004217
3982.6605,0.004471
3984.5241,0.004858
3986.3878,0.005468
3988.2515,0.005214
3990.1152,0.005200
3991.9788,0.005579
3993.8425,0.005501
3995.7062,0.005604
3997.5698,0.005830
3999.4335,0.005217
