Wavenumber,Intensity
650.4205,0.239289
652.2841,0.235011
654.1478,0.229609
656.0115,0.224269
657.8751,0.225154
659.7388,0.226228
661.6025,0.225577
663.4661,0.225769
665.3298,0.226379
667.1935,0.227542
669.0571,0.228676
670.9208,0.222072
672.7845,0.216867
674.6481,0.212613
676.5118,0.209079
678.3755,0.204722
680.2392,0.202823
682.1028,0.202916
683.9665,0.202551
685.8302,0.200954
687.6938,0.201138
689.5575,0.200512
691.4212,0.201222
693.2848,0.202411
695.1485,0.203844
697.0122,0.205058
698.8758,0.206629
700.7395,0.207862
702.6032,0.209164
704.4669,0.207435
706.3305,0.203308
708.1942,0.197031
710.0579,0.189790
711.9215,0.180123
713.7852,0.169534
715.6489,0.159974
717.5125,0.150129
719.3762,0.140244
721.2399,0.132478
723.1035,0.126656
724.9672,0.121571
726.8309,0.117776
728.6945,0.114758
730.5582,0.110507
732.4219,0.106142
734.2856,0.102952
736.1492,0.100696
738.0129,0.099575
739.8766,0.100671
741.7402,0.103508
743.6039,0.106554
745.4676,0.108711
747.3312,0.109560
749.1949,0.109369
751.0586,0.108556
752.9222,0.106830
754.7859,0.104355
756.6496,0.102124
758.5132,0.101456
760.3769,0.101808
762.2406,0.103010
764.1043,0.104336
765.9679,0.106477
767.8316,0.108112
769.6953,0.107292
771.5589,0.105028
773.4226,0.104166
775.2863,0.104517
777.1499,0.103292
779.0136,0.101464
780.8773,0.101059
782.7409,0.101371
784.6046,0.102031
786.4683,0.103097
788.3320,0.104716
790.1956,0.106760
792.0593,0.108749
793.9230,0.110960
795.7866,0.113557
797.6503,0.116718
799.5140,0.119897
801.3776,0.121241
803.2413,0.120571
805.1050,0.118951
806.9686,0.117216
808.8323,0.115488
810.6960,0.113260
812.5596,0.110250
814.4233,0.106945
816.2870,0.103959
818.1507,0.101612
820.0143,0.100254
821.8780,0.100138
823.7417,0.100514
825.6053,0.101291
827.4690,0.103137
829.3327,0.104895
831.1963,0.101582
833.0600,0.091011
834.9237,0.078833
836.7873,0.070853
838.6510,0.067325
840.5147,0.066849
842.3784,0.068733
844.2420,0.071757
846.1057,0.073918
847.9694,0.073362
849.8330,0.070031
851.6967,0.065784
853.5604,0.062623
855.4240,0.060983
857.2877,0.060107
859.1514,0.059329
861.0150,0.058475
862.8787,0.058228
864.7424,0.058521
866.6060,0.058780
868.4697,0.059174
870.3334,0.059786
872.1971,0.060232
874.0607,0.060279
875.9244,0.059980
877.7881,0.059777
879.6517,0.059820
881.5154,0.060008
883.3791,0.060522
885.2427,0.061287
887.1064,0.062471
888.9701,0.063521
890.8337,0.063915
892.6974,0.064265
894.5611,0.065252
896.4247,0.066790
898.2884,0.068754
900.1521,0.071039
902.0158,0.073176
903.8794,0.075116
905.7431,0.077859
907.6068,0.082377
909.4704,0.088871
911.3341,0.097518
913.1978,0.107931
915.0614,0.114168
916.9251,0.107205
918.7888,0.090729
920.6524,0.077432
922.5161,0.071152
924.3798,0.068305
926.2435,0.066213
928.1071,0.064236
929.9708,0.062845
931.8345,0.062255
933.6981,0.062521
935.5618,0.063551
937.4255,0.065080
939.2891,0.067342
941.1528,0.070250
943.0165,0.072902
944.8801,0.073816
946.7438,0.073315
948.6075,0.072403
950.4711,0.071472
952.3348,0.071103
954.1985,0.071727
956.0622,0.073289
957.9258,0.075487
959.7895,0.078092
961.6532,0.080826
963.5168,0.083142
965.3805,0.084978
967.2442,0.087096
969.1078,0.090052
970.9715,0.093600
972.8352,0.097906
974.6988,0.104507
976.5625,0.115597
978.4262,0.134000
980.2899,0.159426
982.1535,0.170043
984.0172,0.142331
985.8809,0.106487
987.7445,0.090684
989.6082,0.088649
991.4719,0.090024
993.3355,0.091728
995.1992,0.093213
997.0629,0.094568
998.9265,0.096058
1000.7902,0.097528
1002.6539,0.098503
1004.5175,0.099110
1006.3812,0.099333
1008.2449,0.099026
1010.1086,0.098650
1011.9722,0.098835
1013.8359,0.099851
1015.6996,0.101455
1017.5632,0.103484
1019.4269,0.105787
1021.2906,0.108156
1023.1542,0.110807
1025.0179,0.113424
1026.8816,0.115681
1028.7452,0.117586
1030.6089,0.119204
1032.4726,0.120779
1034.3362,0.122315
1036.1999,0.123459
1038.0636,0.124653
1039.9273,0.126828
1041.7909,0.130422
1043.6546,0.134917
1045.5183,0.139189
1047.3819,0.141810
1049.2456,0.140640
1051.1093,0.133541
1052.9729,0.122259
1054.8366,0.111664
1056.7003,0.104975
1058.5639,0.102304
1060.4276,0.102056
1062.2913,0.102631
1064.1550,0.103199
1066.0186,0.103392
1067.8823,0.103402
1069.7460,0.103957
1071.6096,0.105383
1073.4733,0.107380
1075.3370,0.109653
1077.2006,0.112389
1079.0643,0.115549
1080.9280,0.119031
1082.7916,0.122791
1084.6553,0.126410
1086.5190,0.129436
1088.3826,0.132035
1090.2463,0.135126
1092.1100,0.139260
1093.9737,0.144226
1095.8373,0.149964
1097.7010,0.156778
1099.5647,0.164461
1101.4283,0.172311
1103.2920,0.179534
1105.1557,0.184561
1107.0193,0.185169
1108.8830,0.180061
1110.7467,0.169790
1112.6103,0.156519
1114.4740,0.142855
1116.3377,0.130688
1118.2014,0.120926
1120.0650,0.113927
1121.9287,0.109383
1123.7924,0.106566
1125.6560,0.104334
1127.5197,0.102065
1129.3834,0.100057
1131.2470,0.098130
1133.1107,0.096096
1134.9744,0.094108
1136.8380,0.092129
1138.7017,0.090188
1140.5654,0.088469
1142.4290,0.087384
1144.2927,0.086876
1146.1564,0.086487
1148.0201,0.085972
1149.8837,0.085480
1151.7474,0.085368
1153.6111,0.085606
1155.4747,0.086206
1157.3384,0.087168
1159.2021,0.088531
1161.0657,0.090407
1162.9294,0.092921
1164.7931,0.096124
1166.6567,0.100030
1168.5204,0.104425
1170.3841,0.108798
1172.2477,0.111809
1174.1114,0.111380
1175.9751,0.106914
1177.8388,0.100679
1179.7024,0.095590
1181.5661,0.093002
1183.4298,0.092558
1185.2934,0.092976
1187.1571,0.092971
1189.0208,0.091841
1190.8844,0.089413
1192.7481,0.086162
1194.6118,0.083318
1196.4754,0.081749
1198.3391,0.081149
1200.2028,0.081004
1202.0665,0.081056
1203.9301,0.080984
1205.7938,0.080841
1207.6575,0.080728
1209.5211,0.080673
1211.3848,0.080924
1213.2485,0.081363
1215.1121,0.081927
1216.9758,0.082660
1218.8395,0.083459
1220.7031,0.084138
1222.5668,0.084776
1224.4305,0.085659
1226.2941,0.086789
1228.1578,0.087955
1230.0215,0.089172
1231.8852,0.090441
1233.7488,0.091661
1235.6125,0.092986
1237.4762,0.094344
1239.3398,0.095134
1241.2035,0.095117
1243.0672,0.094885
1244.9308,0.095116
1246.7945,0.095896
1248.6582,0.096870
1250.5218,0.097713
1252.3855,0.098472
1254.2492,0.099451
1256.1129,0.100722
1257.9765,0.102130
1259.8402,0.103631
1261.7039,0.105116
1263.5675,0.106685
1265.4312,0.108574
1267.2949,0.110463
1269.1585,0.111884
1271.0222,0.112345
1272.8859,0.111689
1274.7495,0.111060
1276.6132,0.111659
1278.4769,0.113402
1280.3405,0.115931
1282.2042,0.118895
1284.0679,0.122039
1285.9316,0.125848
1287.7952,0.130850
1289.6589,0.136642
1291.5226,0.143076
1293.3862,0.150099
1295.2499,0.156609
1297.1136,0.161196
1298.9772,0.164758
1300.8409,0.170364
1302.7046,0.179089
1304.5682,0.188158
1306.4319,0.191580
1308.2956,0.182206
1310.1592,0.160517
1312.0229,0.137399
1313.8866,0.121509
1315.7503,0.114314
1317.6139,0.113129
1319.4776,0.114660
1321.3413,0.116743
1323.2049,0.120042
1325.0686,0.125500
1326.9323,0.131919
1328.7959,0.136793
1330.6596,0.138026
1332.5233,0.136611
1334.3869,0.135381
1336.2506,0.136332
1338.1143,0.140220
1339.9780,0.145291
1341.8416,0.146389
1343.7053,0.145434
1345.5690,0.146358
1347.4326,0.149156
1349.2963,0.152361
1351.1600,0.154104
1353.0236,0.154682
1354.8873,0.156981
1356.7510,0.160605
1358.6146,0.163067
1360.4783,0.165169
1362.3420,0.169350
1364.2056,0.171196
1366.0693,0.170032
1367.9330,0.172886
1369.7967,0.179276
1371.6603,0.184222
1373.5240,0.189908
1375.3877,0.195007
1377.2513,0.198273
1379.1150,0.206207
1380.9787,0.218051
1382.8423,0.228885
1384.7060,0.238411
1386.5697,0.249455
1388.4333,0.259775
1390.2970,0.263424
1392.1607,0.266146
1394.0244,0.269572
1395.8880,0.265648
1397.7517,0.253185
1399.6154,0.238887
1401.4790,0.225449
1403.3427,0.215266
1405.2064,0.201125
1407.0700,0.179265
1408.9337,0.156577
1410.7974,0.136334
1412.6610,0.121333
1414.5247,0.112542
1416.3884,0.109321
1418.2520,0.112698
1420.1157,0.119712
1421.9794,0.120436
1423.8431,0.115706
1425.7067,0.103872
1427.5704,0.092135
1429.4341,0.085793
1431.2977,0.083578
1433.1614,0.083303
1435.0251,0.086189
1436.8887,0.094158
1438.7524,0.097525
1440.6161,0.096179
1442.4797,0.096385
1444.3434,0.097415
1446.2071,0.099355
1448.0707,0.102145
1449.9344,0.102190
1451.7981,0.099819
1453.6618,0.097094
1455.5254,0.097170
1457.3891,0.104778
1459.2528,0.106325
1461.1164,0.102586
1462.9801,0.102670
1464.8438,0.106419
1466.7074,0.106798
1468.5711,0.103233
1470.4348,0.101613
1472.2984,0.104347
1474.1621,0.105926
1476.0258,0.104182
1477.8895,0.102951
1479.7531,0.102872
1481.6168,0.104955
1483.4805,0.106718
1485.3441,0.108036
1487.2078,0.112000
1489.0715,0.119258
1490.9351,0.125345
1492.7988,0.124705
1494.6625,0.125179
1496.5261,0.132033
1498.3898,0.139418
1500.2535,0.141199
1502.1171,0.140743
1503.9808,0.140777
1505.8445,0.148326
1507.7082,0.166609
1509.5718,0.162953
1511.4355,0.158532
1513.2992,0.156612
1515.1628,0.155079
1517.0265,0.154134
1518.8902,0.150046
1520.7538,0.148352
1522.6175,0.146484
1524.4812,0.141074
1526.3448,0.138615
1528.2085,0.136254
1530.0722,0.132914
1531.9359,0.132937
1533.7995,0.137071
1535.6632,0.136222
1537.5269,0.134229
1539.3905,0.142283
1541.2542,0.158957
1543.1179,0.161156
1544.9815,0.164195
1546.8452,0.166382
1548.7089,0.169316
1550.5725,0.176500
1552.4362,0.181350
1554.2999,0.185115
1556.1635,0.190227
1558.0272,0.202732
1559.8909,0.232174
1561.7546,0.222694
1563.6182,0.217522
1565.4819,0.221399
1567.3456,0.226243
1569.2092,0.234392
1571.0729,0.241984
1572.9366,0.240480
1574.8002,0.243638
1576.6639,0.255461
1578.5276,0.257819
1580.3912,0.255093
1582.2549,0.255392
1584.1186,0.255275
1585.9822,0.252855
1587.8459,0.248734
1589.7096,0.244165
1591.5733,0.239096
1593.4369,0.233821
1595.3006,0.228909
1597.1643,0.224306
1599.0279,0.220256
1600.8916,0.217252
1602.7553,0.214864
1604.6189,0.212384
1606.4826,0.209450
1608.3463,0.205992
1610.2099,0.200656
1612.0736,0.193023
1613.9373,0.184923
1615.8010,0.178364
1617.6646,0.169301
1619.5283,0.158716
1621.3920,0.151801
1623.2556,0.145362
1625.1193,0.136082
1626.9830,0.127091
1628.8466,0.116917
1630.7103,0.106000
1632.5740,0.096849
1634.4376,0.089277
1636.3013,0.081271
1638.1650,0.074593
1640.0286,0.071092
1641.8923,0.068619
1643.7560,0.067532
1645.6197,0.068626
1647.4833,0.071910
1649.3470,0.072248
1651.2107,0.072739
1653.0743,0.079638
1654.9380,0.085032
1656.8017,0.082042
1658.6653,0.081420
1660.5290,0.081505
1662.3927,0.081235
1664.2563,0.079698
1666.1200,0.077115
1667.9837,0.075268
1669.8474,0.074543
1671.7110,0.073479
1673.5747,0.073147
1675.4384,0.075587
1677.3020,0.078530
1679.1657,0.080290
1681.0294,0.083593
1682.8930,0.088286
1684.7567,0.095913
1686.6204,0.097202
1688.4840,0.094879
1690.3477,0.092855
1692.2114,0.089161
1694.0750,0.085547
1695.9387,0.082142
1697.8024,0.077776
1699.6661,0.074733
1701.5297,0.068380
1703.3934,0.061690
1705.2571,0.055207
1707.1207,0.046673
1708.9844,0.040245
1710.8481,0.035505
1712.7117,0.031871
1714.5754,0.029526
1716.4391,0.028061
1718.3027,0.027182
1720.1664,0.025799
1722.0301,0.024484
1723.8937,0.023068
1725.7574,0.021193
1727.6211,0.019243
1729.4848,0.017640
1731.3484,0.016391
1733.2121,0.015719
1735.0758,0.014918
1736.9394,0.013938
1738.8031,0.013612
1740.6668,0.013372
1742.5304,0.012831
1744.3941,0.012399
1746.2578,0.012009
1748.1214,0.011712
1749.9851,0.011459
1751.8488,0.011209
1753.7125,0.010799
1755.5761,0.010542
1757.4398,0.010420
1759.3035,0.010238
1761.1671,0.010167
1763.0308,0.010076
1764.8945,0.009750
1766.7581,0.009636
1768.6218,0.009701
1770.4855,0.009648
1772.3491,0.009553
1774.2128,0.009488
1776.0765,0.009330
1777.9401,0.009326
1779.8038,0.009425
1781.6675,0.009452
1783.5312,0.009395
1785.3948,0.009451
1787.2585,0.009306
1789.1222,0.009113
1790.9858,0.009254
1792.8495,0.009383
1794.7132,0.009176
1796.5768,0.009152
1798.4405,0.009156
1800.3042,0.009272
1802.1678,0.009473
1804.0315,0.009453
1805.8952,0.009263
1807.7589,0.009239
1809.6225,0.009328
1811.4862,0.009306
1813.3499,0.009050
1815.2135,0.008753
1817.0772,0.008680
1818.9409,0.008901
1820.8045,0.009049
1822.6682,0.009022
1824.5319,0.009144
1826.3955,0.009144
1828.2592,0.008734
1830.1229,0.008512
1831.9865,0.008421
1833.8502,0.008410
1835.7139,0.008382
1837.5776,0.008414
1839.4412,0.008581
1841.3049,0.008776
1843.1686,0.008846
1845.0322,0.008724
1846.8959,0.008493
1848.7596,0.008491
1850.6232,0.008501
1852.4869,0.008629
1854.3506,0.008852
1856.2142,0.008751
1858.0779,0.008550
1859.9416,0.008811
1861.8052,0.009027
1863.6689,0.008618
1865.5326,0.008165
1867.3963,0.008368
1869.2599,0.008628
1871.1236,0.008411
1872.9873,0.008226
1874.8509,0.008506
1876.7146,0.008567
1878.5783,0.008479
1880.4419,0.008444
1882.3056,0.008442
1884.1693,0.008585
1886.0329,0.008659
1887.8966,0.008621
1889.7603,0.008534
1891.6240,0.008231
1893.4876,0.008133
1895.3513,0.008479
1897.2150,0.008598
1899.0786,0.008050
1900.9423,0.007886
1902.8060,0.008297
1904.6696,0.008542
1906.5333,0.008239
1908.3970,0.008082
1910.2606,0.008187
1912.1243,0.008293
1913.9880,0.008072
1915.8516,0.007852
1917.7153,0.008248
1919.5790,0.008803
1921.4427,0.008255
1923.3063,0.007550
1925.1700,0.007779
1927.0337,0.007894
1928.8973,0.007463
1930.7610,0.007582
1932.6247,0.008329
1934.4883,0.008857
1936.3520,0.008269
1938.2157,0.007517
1940.0793,0.007436
1941.9430,0.008095
1943.8067,0.007644
1945.6704,0.006410
1947.5340,0.005915
1949.3977,0.006363
1951.2614,0.007120
1953.1250,0.006931
1954.9887,0.006368
1956.8524,0.006211
1958.7160,0.005410
1960.5797,0.005393
1962.4434,0.005449
1964.3070,0.003894
1966.1707,0.001844
1968.0344,0.000860
1969.8980,0.001993
1971.7617,0.003148
1973.6254,0.002376
1975.4891,0.002655
1977.3527,0.003773
1979.2164,0.004497
1981.0801,0.004557
1982.9437,0.005114
1984.8074,0.005181
1986.6711,0.005567
1988.5347,0.006168
1990.3984,0.006033
1992.2621,0.005759
1994.1257,0.006461
1995.9894,0.006205
1997.8531,0.005121
1999.7167,0.005420
2001.5804,0.005830
2003.4441,0.004989
2005.3078,0.005238
2007.1714,0.005241
2009.0351,0.004242
2010.8988,0.003583
2012.7624,0.004402
2014.6261,0.005538
2016.4898,0.005137
2018.3534,0.003800
2020.2171,0.004447
2022.0808,0.004749
2023.9444,0.004058
2025.8081,0.003463
2027.6718,0.003830
2029.5355,0.004788
2031.3991,0.005722
2033.2628,0.005986
2035.1265,0.006188
2036.9901,0.006752
2038.8538,0.007477
2040.7175,0.006756
2042.5811,0.006464
2044.4448,0.006768
2046.3085,0.007495
2048.1721,0.008054
2050.0358,0.008990
2051.8995,0.010165
2053.7631,0.010101
2055.6268,0.010148
2057.4905,0.010537
2059.3542,0.010387
2061.2178,0.010863
2063.0815,0.011245
2064.9452,0.011512
2066.8088,0.011802
2068.6725,0.011938
2070.5362,0.012216
2072.3998,0.012391
2074.2635,0.012073
2076.1272,0.012695
2077.9908,0.013581
2079.8545,0.013891
2081.7182,0.013849
2083.5819,0.014267
2085.4455,0.014389
2087.3092,0.013531
2089.1729,0.013704
2091.0365,0.014326
2092.9002,0.014163
2094.7639,0.014918
2096.6275,0.015369
2098.4912,0.014906
2100.3549,0.015051
2102.2185,0.015143
2104.0822,0.015219
2105.9459,0.015583
2107.8095,0.015525
2109.6732,0.015674
2111.5369,0.015902
2113.4006,0.016203
2115.2642,0.016291
2117.1279,0.015953
2118.9916,0.015943
2120.8552,0.015576
2122.7189,0.014787
2124.5826,0.014624
2126.4462,0.015177
2128.3099,0.015167
2130.1736,0.014268
2132.0372,0.014023
2133.9009,0.013885
2135.7646,0.013178
2137.6282,0.012527
2139.4919,0.011796
2141.3556,0.011145
2143.2193,0.010723
2145.0829,0.010868
2146.9466,0.011592
2148.8103,0.010339
2150.6739,0.008371
2152.5376,0.006557
2154.4013,0.005084
2156.2649,0.005160
2158.1286,0.006874
2159.9923,0.009231
2161.8559,0.009270
2163.7196,0.006982
2165.5833,0.006344
2167.4470,0.006661
2169.3106,0.006904
2171.1743,0.007664
2173.0380,0.008447
2174.9016,0.008434
2176.7653,0.008649
2178.6290,0.009309
2180.4926,0.008443
2182.3563,0.008189
2184.2200,0.009588
2186.0836,0.009761
2187.9473,0.010435
2189.8110,0.011129
2191.6746,0.010254
2193.5383,0.009553
2195.4020,0.010128
2197.2657,0.011108
2199.1293,0.012005
2200.9930,0.012603
2202.8567,0.012308
2204.7203,0.011586
2206.5840,0.011361
2208.4477,0.011597
2210.3113,0.012063
2212.1750,0.012043
2214.0387,0.012705
2215.9023,0.013189
2217.7660,0.013046
2219.6297,0.012413
2221.4934,0.011852
2223.3570,0.012199
2225.2207,0.013293
2227.0844,0.013802
2228.9480,0.014039
2230.8117,0.014339
2232.6754,0.014536
2234.5390,0.014585
2236.4027,0.014305
2238.2664,0.014493
2240.1300,0.014801
2241.9937,0.014557
2243.8574,0.014963
2245.7210,0.015580
2247.5847,0.015772
2249.4484,0.015691
2251.3121,0.015648
2253.1757,0.015495
2255.0394,0.015871
2256.9031,0.016812
2258.7667,0.017062
2260.6304,0.016828
2262.4941,0.016609
2264.3577,0.016370
2266.2214,0.017095
2268.0851,0.018003
2269.9487,0.018258
2271.8124,0.018199
2273.6761,0.018422
2275.5397,0.019031
2277.4034,0.019263
2279.2671,0.019364
2281.1308,0.019753
2282.9944,0.019805
2284.8581,0.019959
2286.7218,0.020302
2288.5854,0.020506
2290.4491,0.020868
2292.3128,0.021004
2294.1764,0.020861
2296.0401,0.020776
2297.9038,0.020640
2299.7674,0.020381
2301.6311,0.020298
2303.4948,0.020746
2305.3585,0.021050
2307.2221,0.021081
2309.0858,0.020917
2310.9495,0.020748
2312.8131,0.020920
2314.6768,0.020932
2316.5405,0.020550
2318.4041,0.020646
2320.2678,0.021160
2322.1315,0.021555
2323.9951,0.021644
2325.8588,0.021207
2327.7225,0.020415
2329.5861,0.019886
2331.4498,0.019680
2333.3135,0.019686
2335.1772,0.019799
2337.0408,0.019752
2338.9045,0.019839
2340.7682,0.020360
2342.6318,0.020834
2344.4955,0.020933
2346.3592,0.020735
2348.2228,0.020308
2350.0865,0.019848
2351.9502,0.019804
2353.8138,0.019740
2355.6775,0.019679
2357.5412,0.019564
2359.4049,0.019302
2361.2685,0.019495
2363.1322,0.020020
2364.9959,0.020562
2366.8595,0.020940
2368.7232,0.021065
2370.5869,0.021040
2372.4505,0.021190
2374.3142,0.021707
2376.1779,0.021972
2378.0415,0.021799
2379.9052,0.021623
2381.7689,0.021685
2383.6325,0.021668
2385.4962,0.021622
2387.3599,0.021722
2389.2236,0.021898
2391.0872,0.022105
2392.9509,0.022185
2394.8146,0.022209
2396.6782,0.022184
2398.5419,0.022336
2400.4056,0.022668
2402.2692,0.022924
2404.1329,0.022771
2405.9966,0.022945
2407.8602,0.023292
2409.7239,0.023607
2411.5876,0.023974
2413.4512,0.023888
2415.3149,0.023798
2417.1786,0.024176
2419.0423,0.024344
2420.9059,0.024401
2422.7696,0.024250
2424.6333,0.024515
2426.4969,0.024956
2428.3606,0.024804
2430.2243,0.024825
2432.0879,0.025056
2433.9516,0.025176
2435.8153,0.025221
2437.6789,0.025632
2439.5426,0.026122
2441.4063,0.025847
2443.2700,0.025615
2445.1336,0.025999
2446.9973,0.026163
2448.8610,0.026163
2450.7246,0.025888
2452.5883,0.025697
2454.4520,0.025752
2456.3156,0.025847
2458.1793,0.026241
2460.0430,0.026599
2461.9066,0.026636
2463.7703,0.026219
2465.6340,0.026277
2467.4976,0.026755
2469.3613,0.026683
2471.2250,0.026298
2473.0887,0.026264
2474.9523,0.026765
2476.8160,0.026777
2478.6797,0.026818
2480.5433,0.027364
2482.4070,0.027643
2484.2707,0.027791
2486.1343,0.027905
2487.9980,0.028151
2489.8617,0.028359
2491.7253,0.028695
2493.5890,0.029126
2495.4527,0.029150
2497.3164,0.029404
2499.1800,0.029664
2501.0437,0.029549
2502.9074,0.029754
2504.7710,0.029976
2506.6347,0.030374
2508.4984,0.030702
2510.3620,0.030748
2512.2257,0.030863
2514.0894,0.030784
2515.9530,0.031285
2517.8167,0.032048
2519.6804,0.032145
2521.5440,0.032168
2523.4077,0.032522
2525.2714,0.032641
2527.1351,0.032682
2528.9987,0.033004
2530.8624,0.033465
2532.7261,0.033604
2534.5897,0.033603
2536.4534,0.033968
2538.3171,0.033811
2540.1807,0.033621
2542.0444,0.033995
2543.9081,0.034320
2545.7717,0.034422
2547.6354,0.034585
2549.4991,0.034792
2551.3627,0.035091
2553.2264,0.035280
2555.0901,0.035415
2556.9538,0.035861
2558.8174,0.035958
2560.6811,0.035797
2562.5448,0.036398
2564.4084,0.036976
2566.2721,0.037022
2568.1358,0.037215
2569.9994,0.037804
2571.8631,0.038243
2573.7268,0.038079
2575.5904,0.038126
2577.4541,0.038718
2579.3178,0.039056
2581.1815,0.039123
2583.0451,0.039184
2584.9088,0.039377
2586.7725,0.039748
2588.6361,0.039974
2590.4998,0.040157
2592.3635,0.040381
2594.2271,0.040323
2596.0908,0.040549
2597.9545,0.040824
2599.8181,0.040854
2601.6818,0.041241
2603.5455,0.041729
2605.4091,0.042007
2607.2728,0.042208
2609.1365,0.042343
2611.0002,0.042707
2612.8638,0.043007
2614.7275,0.043168
2616.5912,0.043111
2618.4548,0.043229
2620.3185,0.043616
2622.1822,0.043932
2624.0458,0.044012
2625.9095,0.044142
2627.7732,0.044356
2629.6368,0.044317
2631.5005,0.044355
2633.3642,0.044635
2635.2279,0.044575
2637.0915,0.044453
2638.9552,0.044488
2640.8189,0.044372
2642.6825,0.044370
2644.5462,0.044710
2646.4099,0.044823
2648.2735,0.044925
2650.1372,0.044865
2652.0009,0.044932
2653.8645,0.045082
2655.7282,0.045110
2657.5919,0.045034
2659.4555,0.045212
2661.3192,0.045334
2663.1829,0.045475
2665.0466,0.045555
2666.9102,0.045786
2668.7739,0.046147
2670.6376,0.046592
2672.5012,0.046894
2674.3649,0.047204
2676.2286,0.047546
2678.0922,0.047912
2679.9559,0.048480
2681.8196,0.049132
2683.6832,0.049492
2685.5469,0.049589
2687.4106,0.049735
2689.2742,0.050135
2691.1379,0.050354
2693.0016,0.050639
2694.8653,0.050977
2696.7289,0.051118
2698.5926,0.051275
2700.4563,0.051759
2702.3199,0.052134
2704.1836,0.052465
2706.0473,0.052752
2707.9109,0.053235
2709.7746,0.053710
2711.6383,0.054013
2713.5019,0.054266
2715.3656,0.054634
2717.2293,0.055032
2719.0930,0.055298
2720.9566,0.055464
2722.8203,0.055954
2724.6840,0.056606
2726.5476,0.057247
2728.4113,0.057937
2730.2750,0.058339
2732.1386,0.058707
2734.0023,0.059123
2735.8660,0.059598
2737.7296,0.060212
2739.5933,0.060864
2741.4570,0.061169
2743.3206,0.061275
2745.1843,0.061692
2747.0480,0.062306
2748.9117,0.063188
2750.7753,0.063732
2752.6390,0.064190
2754.5027,0.064612
2756.3663,0.065201
2758.2300,0.065949
2760.0937,0.066553
2761.9573,0.066942
2763.8210,0.067446
2765.6847,0.068162
2767.5483,0.068721
2769.4120,0.069109
2771.2757,0.070059
2773.1394,0.070791
2775.0030,0.071555
2776.8667,0.072551
2778.7304,0.073124
2780.5940,0.073278
2782.4577,0.073722
2784.3214,0.074210
2786.1850,0.074135
2788.0487,0.073700
2789.9124,0.073745
2791.7760,0.073736
2793.6397,0.073140
2795.5034,0.072361
2797.3670,0.072125
2799.2307,0.071755
2801.0944,0.071541
2802.9581,0.071329
2804.8217,0.070973
2806.6854,0.070522
2808.5491,0.070340
2810.4127,0.070441
2812.2764,0.070647
2814.1401,0.070781
2816.0037,0.070827
2817.8674,0.070885
2819.7311,0.071253
2821.5947,0.071359
2823.4584,0.071531
2825.3221,0.071906
2827.1857,0.071743
2829.0494,0.071163
2830.9131,0.071109
2832.7768,0.071408
2834.6404,0.071876
2836.5041,0.072311
2838.3678,0.072907
2840.2314,0.073499
2842.0951,0.074226
2843.9588,0.074691
2845.8224,0.075389
2847.6861,0.076245
2849.5498,0.077569
2851.4134,0.078789
2853.2771,0.079768
2855.1408,0.080763
2857.0045,0.081800
2858.8681,0.082839
2860.7318,0.083930
2862.5955,0.084967
2864.4591,0.086168
2866.3228,0.087095
2868.1865,0.087962
2870.0501,0.088661
2871.9138,0.088896
2873.7775,0.088942
2875.6411,0.089510
2877.5048,0.089606
2879.3685,0.089558
2881.2321,0.089699
2883.0958,0.089978
2884.9595,0.090269
2886.8232,0.090906
2888.6868,0.091710
2890.5505,0.092446
2892.4142,0.093246
2894.2778,0.094093
2896.1415,0.094459
2898.0052,0.094852
2899.8688,0.095208
2901.7325,0.095382
2903.5962,0.095313
2905.4598,0.095396
2907.3235,0.095806
2909.1872,0.096369
2911.0509,0.096694
2912.9145,0.097692
2914.7782,0.098788
2916.6419,0.099629
2918.5055,0.100391
2920.3692,0.101176
2922.2329,0.101807
2924.0965,0.102363
2925.9602,0.103251
2927.8239,0.104319
2929.6875,0.104443
2931.5512,0.104767
2933.4149,0.105340
2935.2785,0.106025
2937.1422,0.105945
2939.0059,0.106025
2940.8696,0.106225
2942.7332,0.106345
2944.5969,0.106291
2946.4606,0.106445
2948.3242,0.106370
2950.1879,0.106649
2952.0516,0.107321
2953.9152,0.107834
2955.7789,0.108265
2957.6426,0.108882
2959.5062,0.109444
2961.3699,0.109548
2963.2336,0.109195
2965.0972,0.109150
2966.9609,0.109482
2968.8246,0.109954
2970.6883,0.109745
2972.5519,0.109439
2974.4156,0.109056
2976.2793,0.108876
2978.1429,0.108844
2980.0066,0.108922
2981.8703,0.108577
2983.7339,0.108335
2985.5976,0.108483
2987.4613,0.108894
2989.3249,0.108867
2991.1886,0.108821
2993.0523,0.109317
2994.9160,0.110557
2996.7796,0.110948
2998.6433,0.111152
3000.5070,0.111622
3002.3706,0.111957
3004.2343,0.112290
3006.0980,0.112831
3007.9616,0.113021
3009.8253,0.113684
3011.6890,0.114647
3013.5526,0.115575
3015.4163,0.115929
3017.2800,0.116298
3019.1436,0.116480
3021.0073,0.117059
3022.8710,0.117050
3024.7347,0.117089
3026.5983,0.117078
3028.4620,0.117123
3030.3257,0.116918
3032.1893,0.117652
3034.0530,0.118339
3035.9167,0.118386
3037.7803,0.118362
3039.6440,0.118739
3041.5077,0.119027
3043.3713,0.119685
3045.2350,0.119754
3047.0987,0.119746
3048.9624,0.119860
3050.8260,0.120284
3052.6897,0.120519
3054.5534,0.120574
3056.4170,0.119839
3058.2807,0.119819
3060.1444,0.120095
3062.0080,0.120484
3063.8717,0.120144
3065.7354,0.119907
3067.5990,0.119811
3069.4627,0.119699
3071.3264,0.119246
3073.1900,0.118433
3075.0537,0.117655
3076.9174,0.118093
3078.7811,0.117934
3080.6447,0.117047
3082.5084,0.116400
3084.3721,0.116008
3086.2357,0.115375
3088.0994,0.115074
3089.9631,0.114199
3091.8267,0.113279
3093.6904,0.112192
3095.5541,0.110886
3097.4177,0.110062
3099.2814,0.109401
3101.1451,0.108413
3103.0087,0.107709
3104.8724,0.105925
3106.7361,0.104158
3108.5998,0.103088
3110.4634,0.102235
3112.3271,0.100697
3114.1908,0.099997
3116.0544,0.100034
3117.9181,0.099457
3119.7818,0.098137
3121.6454,0.097330
3123.5091,0.096802
3125.3728,0.095931
3127.2364,0.094380
3129.1001,0.093013
3130.9638,0.091906
3132.8275,0.091267
3134.6911,0.090659
3136.5548,0.090179
3138.4185,0.090076
3140.2821,0.089932
3142.1458,0.088970
3144.0095,0.087777
3145.8731,0.086846
3147.7368,0.086035
3149.6005,0.085131
3151.4641,0.084821
3153.3278,0.084141
3155.1915,0.083606
3157.0551,0.082799
3158.9188,0.081752
3160.7825,0.081250
3162.6462,0.080689
3164.5098,0.080165
3166.3735,0.079958
3168.2372,0.078700
3170.1008,0.077542
3171.9645,0.076642
3173.8282,0.075567
3175.6918,0.075224
3177.5555,0.075100
3179.4192,0.074372
3181.2828,0.074459
3183.1465,0.073744
3185.0102,0.073157
3186.8739,0.073184
3188.7375,0.073036
3190.6012,0.072340
3192.4649,0.072465
3194.3285,0.072197
3196.1922,0.071717
3198.0559,0.071669
3199.9195,0.072179
3201.7832,0.072218
3203.6469,0.071666
3205.5105,0.070879
3207.3742,0.071025
3209.2379,0.071420
3211.1015,0.071016
3212.9652,0.070859
3214.8289,0.071905
3216.6926,0.072462
3218.5562,0.071828
3220.4199,0.071740
3222.2836,0.071826
3224.1472,0.071876
3226.0109,0.072017
3227.8746,0.071961
3229.7382,0.072249
3231.6019,0.072761
3233.4656,0.072358
3235.3292,0.072276
3237.1929,0.073501
3239.0566,0.074033
3240.9202,0.073537
3242.7839,0.072986
3244.6476,0.073767
3246.5113,0.074222
3248.3749,0.073852
3250.2386,0.074123
3252.1023,0.074894
3253.9659,0.075393
3255.8296,0.075975
3257.6933,0.075477
3259.5569,0.075673
3261.4206,0.076487
3263.2843,0.076372
3265.1479,0.075711
3267.0116,0.076989
3268.8753,0.077799
3270.7390,0.077199
3272.6026,0.077536
3274.4663,0.078011
3276.3300,0.077856
3278.1936,0.077174
3280.0573,0.076143
3281.9210,0.076185
3283.7846,0.075798
3285.6483,0.075795
3287.5120,0.075561
3289.3756,0.074522
3291.2393,0.073703
3293.1030,0.072648
3294.9666,0.071363
3296.8303,0.071142
3298.6940,0.070013
3300.5577,0.069018
3302.4213,0.068023
3304.2850,0.067642
3306.1487,0.067139
3308.0123,0.066284
3309.8760,0.066229
3311.7397,0.066341
3313.6033,0.065552
3315.4670,0.065539
3317.3307,0.065635
3319.1943,0.065534
3321.0580,0.065569
3322.9217,0.065854
3324.7854,0.065994
3326.6490,0.066377
3328.5127,0.066057
3330.3764,0.065898
3332.2400,0.065256
3334.1037,0.065228
3335.9674,0.064909
3337.8310,0.064388
3339.6947,0.063831
3341.5584,0.062873
3343.4220,0.061623
3345.2857,0.060985
3347.1494,0.059027
3349.0130,0.057910
3350.8767,0.057039
3352.7404,0.055618
3354.6041,0.054601
3356.4677,0.054354
3358.3314,0.053178
3360.1951,0.052028
3362.0587,0.051333
3363.9224,0.051204
3365.7861,0.050456
3367.6497,0.049407
3369.5134,0.049358
3371.3771,0.050387
3373.2407,0.050233
3375.1044,0.049466
3376.9681,0.048985
3378.8317,0.049165
3380.6954,0.049608
3382.5591,0.050235
3384.4228,0.049775
3386.2864,0.049938
3388.1501,0.051267
3390.0138,0.052051
3391.8774,0.052119
3393.7411,0.052082
3395.6048,0.051622
3397.4684,0.051958
3399.3321,0.052175
3401.1958,0.052280
3403.0594,0.052518
3404.9231,0.051408
3406.7868,0.049414
3408.6505,0.047968
3410.5141,0.046078
3412.3778,0.044421
3414.2415,0.042252
3416.1051,0.040281
3417.9688,0.039163
3419.8325,0.038600
3421.6961,0.037868
3423.5598,0.036523
3425.4235,0.034464
3427.2871,0.033114
3429.1508,0.032239
3431.0145,0.031690
3432.8781,0.031714
3434.7418,0.031042
3436.6055,0.029746
3438.4692,0.028135
3440.3328,0.027480
3442.1965,0.027261
3444.0602,0.026027
3445.9238,0.025740
3447.7875,0.025362
3449.6512,0.024558
3451.5148,0.024045
3453.3785,0.022860
3455.2422,0.023258
3457.1058,0.023853
3458.9695,0.022368
3460.8332,0.021057
3462.6969,0.021398
3464.5605,0.021826
3466.4242,0.020532
3468.2879,0.020052
3470.1515,0.019851
3472.0152,0.019017
3473.8789,0.019049
3475.7425,0.018993
3477.6062,0.018455
3479.4699,0.017934
3481.3335,0.017479
3483.1972,0.016946
3485.0609,0.015279
3486.9245,0.014150
3488.7882,0.015100
3490.6519,0.016053
3492.5156,0.015292
3494.3792,0.015029
3496.2429,0.014839
3498.1066,0.014320
3499.9702,0.013961
3501.8339,0.013538
3503.6976,0.012754
3505.5612,0.012320
3507.4249,0.012658
3509.2886,0.013185
3511.1522,0.012521
3513.0159,0.012147
3514.8796,0.012458
3516.7432,0.010792
3518.6069,0.009501
3520.4706,0.010045
3522.3343,0.010408
3524.1979,0.009789
3526.0616,0.009369
3527.9253,0.009284
3529.7889,0.008543
3531.6526,0.008513
3533.5163,0.008384
3535.3799,0.007734
3537.2436,0.007541
3539.1073,0.007437
3540.9709,0.006885
3542.8346,0.007030
3544.6983,0.007987
3546.5620,0.007643
3548.4256,0.007465
3550.2893,0.007352
3552.1530,0.006492
3554.0166,0.005844
3555.8803,0.006341
3557.7440,0.007118
3559.6076,0.006298
3561.4713,0.006753
3563.3350,0.007183
3565.1986,0.006463
3567.0623,0.005369
3568.9260,0.003567
3570.7896,0.004233
3572.6533,0.005518
3574.5170,0.005651
3576.3807,0.005789
3578.2443,0.006043
3580.1080,0.005834
3581.9717,0.005326
3583.8353,0.005078
3585.6990,0.004597
3587.5627,0.004012
3589.4263,0.003096
3591.2900,0.004786
3593.1537,0.005732
3595.0173,0.005319
3596.8810,0.004470
3598.7447,0.004800
3600.6084,0.005438
3602.4720,0.004831
3604.3357,0.004558
3606.1994,0.004704
3608.0630,0.004124
3609.9267,0.003496
3611.7904,0.003839
3613.6540,0.003968
3615.5177,0.004342
3617.3814,0.004902
3619.2450,0.004209
3621.1087,0.003785
3622.9724,0.003815
3624.8360,0.003691
3626.6997,0.003701
3628.5634,0.003371
3630.4271,0.002666
3632.2907,0.003467
3634.1544,0.004946
3636.0181,0.005662
3637.8817,0.004990
3639.7454,0.005004
3641.6091,0.004951
3643.4727,0.004185
3645.3364,0.003126
3647.2001,0.002667
3649.0637,0.002705
3650.9274,0.003149
3652.7911,0.003899
3654.6547,0.004570
3656.5184,0.004410
3658.3821,0.004033
3660.2458,0.004160
3662.1094,0.004810
3663.9731,0.004715
3665.8368,0.004147
3667.7004,0.003828
3669.5641,0.004207
3671.4278,0.004596
3673.2914,0.005384
3675.1551,0.004524
3677.0188,0.003226
3678.8824,0.003594
3680.7461,0.004186
3682.6098,0.004187
3684.4735,0.004162
3686.3371,0.003650
3688.2008,0.003223
3690.0645,0.003494
3691.9281,0.004171
3693.7918,0.003896
3695.6555,0.004397
3697.5191,0.004973
3699.3828,0.004513
3701.2465,0.003757
3703.1101,0.004317
3704.9738,0.004767
3706.8375,0.004499
3708.7011,0.004198
3710.5648,0.003552
3712.4285,0.003250
3714.2922,0.003933
3716.1558,0.004553
3718.0195,0.004723
3719.8832,0.004593
3721.7468,0.004300
3723.6105,0.004497
3725.4742,0.004732
3727.3378,0.004126
3729.2015,0.003914
3731.0652,0.004284
3732.9288,0.004269
3734.7925,0.003931
3736.6562,0.003577
3738.5199,0.003796
3740.3835,0.004601
3742.2472,0.004644
3744.1109,0.003489
3745.9745,0.001579
3747.8382,0.003090
3749.7019,0.003505
3751.5655,0.002422
3753.4292,0.003142
3755.2929,0.004623
3757.1565,0.005057
3759.0202,0.004769
3760.8839,0.004375
3762.7475,0.004819
3764.6112,0.005466
3766.4749,0.005224
3768.3386,0.004514
3770.2022,0.004979
3772.0659,0.005364
3773.9296,0.005547
3775.7932,0.006077
3777.6569,0.005962
3779.5206,0.004986
3781.3842,0.004936
3783.2479,0.005620
3785.1116,0.005991
3786.9752,0.006063
3788.8389,0.005888
3790.7026,0.006013
3792.5662,0.005644
3794.4299,0.005224
3796.2936,0.005135
3798.1573,0.004080
3800.0209,0.003711
3801.8846,0.003885
3803.7483,0.005113
3805.6119,0.005482
3807.4756,0.005080
3809.3393,0.005213
3811.2029,0.005944
3813.0666,0.006089
3814.9303,0.006095
3816.7939,0.005221
3818.6576,0.004070
3820.5213,0.004446
3822.3850,0.005608
3824.2486,0.006108
3826.1123,0.006252
3827.9760,0.006094
3829.8396,0.005894
3831.7033,0.005516
3833.5670,0.005416
3835.4306,0.005473
3837.2943,0.004930
3839.1580,0.004686
3841.0216,0.004773
3842.8853,0.005176
3844.7490,0.005955
3846.6126,0.005889
3848.4763,0.005632
3850.3400,0.005595
3852.2037,0.005281
3854.0673,0.003666
3855.9310,0.003560
3857.7947,0.005749
3859.6583,0.006701
3861.5220,0.005801
3863.3857,0.004880
3865.2493,0.005617
3867.1130,0.005804
3868.9767,0.004936
3870.8403,0.005333
3872.7040,0.006387
3874.5677,0.006614
3876.4314,0.006752
3878.2950,0.007010
3880.1587,0.006380
3882.0224,0.006068
3883.8860,0.006729
3885.7497,0.006762
3887.6134,0.006222
3889.4770,0.006733
3891.3407,0.006599
3893.2044,0.005803
3895.0680,0.005840
3896.9317,0.006082
3898.7954,0.005886
3900.6590,0.005875
3902.5227,0.005811
3904.3864,0.005622
3906.2501,0.006028
3908.1137,0.006843
3909.9774,0.006672
3911.8411,0.006290
3913.7047,0.006170
3915.5684,0.006445
3917.4321,0.006446
3919.2957,0.006518
3921.1594,0.006836
3923.0231,0.006298
3924.8867,0.006020
3926.7504,0.006425
3928.6141,0.006699
3930.4777,0.006901
3932.3414,0.006791
3934.2051,0.006353
3936.0688,0.006351
3937.9324,0.006822
3939.7961,0.007018
3941.6598,0.006768
3943.5234,0.006198
3945.3871,0.006636
3947.2508,0.007019
3949.1144,0.007006
3950.9781,0.006958
3952.8418,0.006910
3954.7054,0.006889
3956.5691,0.007241
3958.4328,0.007207
3960.2965,0.006762
3962.1601,0.006644
3964.0238,0.007227
3965.8875,0.007077
3967.7511,0.006709
3969.6148,0.006549
3971.4785,0.006799
3973.3421,0.007137
3975.2058,0.007014
3977.0695,0.006441
3978.9331,0.006622
3980.7968,0.007228
3982.6605,0.007161
3984.5241,0.007021
3986.3878,0.007189
3988.2515,0.007148
3990.1152,0.006962
3991.9788,0.006877
3993.8425,0.007033
3995.7062,0.007259
3997.5698,0.007608
3999.4335,0.007534
