Wavenumber,Intensity
650.4205,0.214516
652.2841,0.208217
654.1478,0.203388
656.0115,0.201635
657.8751,0.199496
659.7388,0.192326
661.6025,0.189101
663.4661,0.188390
665.3298,0.186253
667.1935,0.185275
669.0571,0.188044
670.9208,0.187050
672.7845,0.185826
674.6481,0.184911
676.5118,0.186005
678.3755,0.186521
680.2392,0.187351
682.1028,0.188850
683.9665,0.188969
685.8302,0.187799
687.6938,0.186700
689.5575,0.185072
691.4212,0.185378
693.2848,0.186128
695.1485,0.186227
697.0122,0.185551
698.8758,0.184314
700.7395,0.183140
702.6032,0.182173
704.4669,0.178441
706.3305,0.173110
708.1942,0.166150
710.0579,0.157351
711.9215,0.148446
713.7852,0.140478
715.6489,0.132757
717.5125,0.125989
719.3762,0.119500
721.2399,0.114009
723.1035,0.109529
724.9672,0.104775
726.8309,0.100269
728.6945,0.096421
730.5582,0.092513
732.4219,0.089240
734.2856,0.086266
736.1492,0.083401
738.0129,0.081816
739.8766,0.082378
741.7402,0.084256
743.6039,0.086814
745.4676,0.088643
747.3312,0.089023
749.1949,0.088583
751.0586,0.087670
752.9222,0.086898
754.7859,0.086801
756.6496,0.086482
758.5132,0.085439
760.3769,0.084593
762.2406,0.084348
764.1043,0.084634
765.9679,0.084979
767.8316,0.085113
769.6953,0.085321
771.5589,0.086113
773.4226,0.086808
775.2863,0.087267
777.1499,0.088316
779.0136,0.089768
780.8773,0.091418
782.7409,0.093340
784.6046,0.095598
786.4683,0.097591
788.3320,0.099431
790.1956,0.101868
792.0593,0.104611
793.9230,0.107000
795.7866,0.109299
797.6503,0.111365
799.5140,0.113186
801.3776,0.114793
803.2413,0.115902
805.1050,0.116183
806.9686,0.115548
808.8323,0.114428
810.6960,0.112422
812.5596,0.109616
814.4233,0.106739
816.2870,0.104016
818.1507,0.101755
820.0143,0.100100
821.8780,0.099151
823.7417,0.098766
825.6053,0.099275
827.4690,0.101163
829.3327,0.101961
831.1963,0.095413
833.0600,0.082073
834.9237,0.070359
836.7873,0.064245
838.6510,0.061254
840.5147,0.059442
842.3784,0.058633
844.2420,0.058243
846.1057,0.057862
847.9694,0.057571
849.8330,0.057070
851.6967,0.055939
853.5604,0.054677
855.4240,0.053912
857.2877,0.053676
859.1514,0.053349
861.0150,0.053023
862.8787,0.052997
864.7424,0.052948
866.6060,0.052915
868.4697,0.053205
870.3334,0.053736
872.1971,0.054081
874.0607,0.054245
875.9244,0.054610
877.7881,0.054975
879.6517,0.055165
881.5154,0.055436
883.3791,0.055910
885.2427,0.056410
887.1064,0.056881
888.9701,0.057350
890.8337,0.058030
892.6974,0.058742
894.5611,0.059520
896.4247,0.060571
898.2884,0.061832
900.1521,0.063379
902.0158,0.065398
903.8794,0.068118
905.7431,0.071734
907.6068,0.076098
909.4704,0.081037
911.3341,0.087036
913.1978,0.093749
915.0614,0.096583
916.9251,0.088849
918.7888,0.074011
920.6524,0.062670
922.5161,0.057954
924.3798,0.056830
926.2435,0.056888
928.1071,0.057318
929.9708,0.057740
931.8345,0.058175
933.6981,0.058893
935.5618,0.059658
937.4255,0.060480
939.2891,0.061315
941.1528,0.061839
943.0165,0.062488
944.8801,0.063492
946.7438,0.064365
948.6075,0.065181
950.4711,0.066201
952.3348,0.067192
954.1985,0.068123
956.0622,0.069001
957.9258,0.070066
959.7895,0.071375
961.6532,0.072780
963.5168,0.074387
965.3805,0.076275
967.2442,0.078458
969.1078,0.080949
970.9715,0.083596
972.8352,0.086809
974.6988,0.091946
976.5625,0.100919
978.4262,0.116241
980.2899,0.137094
982.1535,0.144398
984.0172,0.119138
985.8809,0.086453
987.7445,0.071664
989.6082,0.069149
991.4719,0.069308
993.3355,0.069740
995.1992,0.070160
997.0629,0.070546
998.9265,0.070783
1000.7902,0.070985
1002.6539,0.071239
1004.5175,0.071473
1006.3812,0.071767
1008.2449,0.072072
1010.1086,0.072400
1011.9722,0.072884
1013.8359,0.073610
1015.6996,0.074363
1017.5632,0.075075
1019.4269,0.076051
1021.2906,0.077223
1023.1542,0.078349
1025.0179,0.079551
1026.8816,0.081028
1028.7452,0.082703
1030.6089,0.084163
1032.4726,0.084804
1034.3362,0.084695
1036.1999,0.085162
1038.0636,0.087040
1039.9273,0.090254
1041.7909,0.094412
1043.6546,0.099020
1045.5183,0.103234
1047.3819,0.105676
1049.2456,0.104735
1051.1093,0.099421
1052.9729,0.091043
1054.8366,0.083236
1056.7003,0.078418
1058.5639,0.076456
1060.4276,0.076332
1062.2913,0.076836
1064.1550,0.077550
1066.0186,0.078715
1067.8823,0.080176
1069.7460,0.081782
1071.6096,0.083497
1073.4733,0.085359
1075.3370,0.087329
1077.2006,0.089320
1079.0643,0.091477
1080.9280,0.093958
1082.7916,0.096667
1084.6553,0.099615
1086.5190,0.102941
1088.3826,0.106562
1090.2463,0.110695
1092.1100,0.115415
1093.9737,0.120502
1095.8373,0.126193
1097.7010,0.132494
1099.5647,0.139171
1101.4283,0.145888
1103.2920,0.151938
1105.1557,0.156082
1107.0193,0.156800
1108.8830,0.152667
1110.7467,0.143572
1112.6103,0.131454
1114.4740,0.118884
1116.3377,0.107578
1118.2014,0.098464
1120.0650,0.091779
1121.9287,0.087236
1123.7924,0.084344
1125.6560,0.082333
1127.5197,0.080451
1129.3834,0.078480
1131.2470,0.076543
1133.1107,0.074776
1134.9744,0.073333
1136.8380,0.072281
1138.7017,0.071633
1140.5654,0.071422
1142.4290,0.071420
1144.2927,0.071496
1146.1564,0.071671
1148.0201,0.071945
1149.8837,0.072346
1151.7474,0.072826
1153.6111,0.073437
1155.4747,0.074251
1157.3384,0.075285
1159.2021,0.076615
1161.0657,0.078281
1162.9294,0.080349
1164.7931,0.082932
1166.6567,0.086170
1168.5204,0.089922
1170.3841,0.093713
1172.2477,0.096356
1174.1114,0.096034
1175.9751,0.092270
1177.8388,0.086971
1179.7024,0.082531
1181.5661,0.079974
1183.4298,0.078868
1185.2934,0.078552
1187.1571,0.078596
1189.0208,0.078576
1190.8844,0.078402
1192.7481,0.078288
1194.6118,0.078295
1196.4754,0.078404
1198.3391,0.078580
1200.2028,0.078803
1202.0665,0.079049
1203.9301,0.079379
1205.7938,0.079786
1207.6575,0.080162
1209.5211,0.080574
1211.3848,0.081016
1213.2485,0.081453
1215.1121,0.081925
1216.9758,0.082339
1218.8395,0.082722
1220.7031,0.083111
1222.5668,0.083469
1224.4305,0.083831
1226.2941,0.084304
1228.1578,0.084767
1230.0215,0.085192
1231.8852,0.085615
1233.7488,0.086056
1235.6125,0.086552
1237.4762,0.087068
1239.3398,0.087612
1241.2035,0.088207
1243.0672,0.088817
1244.9308,0.089430
1246.7945,0.090043
1248.6582,0.090709
1250.5218,0.091430
1252.3855,0.092161
1254.2492,0.092908
1256.1129,0.093724
1257.9765,0.094636
1259.8402,0.095761
1261.7039,0.096947
1263.5675,0.097996
1265.4312,0.099021
1267.2949,0.099559
1269.1585,0.099424
1271.0222,0.099203
1272.8859,0.099119
1274.7495,0.099337
1276.6132,0.099915
1278.4769,0.100708
1280.3405,0.101857
1282.2042,0.103347
1284.0679,0.104978
1285.9316,0.106861
1287.7952,0.109337
1289.6589,0.112241
1291.5226,0.115464
1293.3862,0.119382
1295.2499,0.124036
1297.1136,0.129496
1298.9772,0.135953
1300.8409,0.143573
1302.7046,0.151332
1304.5682,0.156188
1306.4319,0.153861
1308.2956,0.140995
1310.1592,0.119629
1312.0229,0.098570
1313.8866,0.085330
1315.7503,0.080752
1317.6139,0.081041
1319.4776,0.083265
1321.3413,0.085867
1323.2049,0.088487
1325.0686,0.091217
1326.9323,0.093839
1328.7959,0.096306
1330.6596,0.098521
1332.5233,0.100228
1334.3869,0.101251
1336.2506,0.101961
1338.1143,0.103249
1339.9780,0.105305
1341.8416,0.106305
1343.7053,0.106229
1345.5690,0.106724
1347.4326,0.107677
1349.2963,0.109120
1351.1600,0.110827
1353.0236,0.112715
1354.8873,0.115200
1356.7510,0.117563
1358.6146,0.119251
1360.4783,0.121645
1362.3420,0.126408
1364.2056,0.131049
1366.0693,0.133039
1367.9330,0.136131
1369.7967,0.140136
1371.6603,0.143177
1373.5240,0.147719
1375.3877,0.153475
1377.2513,0.157011
1379.1150,0.161338
1380.9787,0.167233
1382.8423,0.173224
1384.7060,0.179447
1386.5697,0.187527
1388.4333,0.197100
1390.2970,0.201444
1392.1607,0.202003
1394.0244,0.200465
1395.8880,0.194468
1397.7517,0.185101
1399.6154,0.174692
1401.4790,0.164805
1403.3427,0.154790
1405.2064,0.140192
1407.0700,0.121879
1408.9337,0.104391
1410.7974,0.088653
1412.6610,0.077920
1414.5247,0.073244
1416.3884,0.073131
1418.2520,0.077893
1420.1157,0.087540
1421.9794,0.091599
1423.8431,0.089011
1425.7067,0.080621
1427.5704,0.071272
1429.4341,0.065450
1431.2977,0.063543
1433.1614,0.063790
1435.0251,0.065176
1436.8887,0.069570
1438.7524,0.073138
1440.6161,0.074060
1442.4797,0.076026
1444.3434,0.077853
1446.2071,0.079082
1448.0707,0.079895
1449.9344,0.078555
1451.7981,0.075040
1453.6618,0.071326
1455.5254,0.069178
1457.3891,0.072379
1459.2528,0.074976
1461.1164,0.073471
1462.9801,0.072752
1464.8438,0.073591
1466.7074,0.073298
1468.5711,0.070854
1470.4348,0.069015
1472.2984,0.069652
1474.1621,0.071704
1476.0258,0.071494
1477.8895,0.071296
1479.7531,0.070892
1481.6168,0.071320
1483.4805,0.071575
1485.3441,0.071225
1487.2078,0.071824
1489.0715,0.074192
1490.9351,0.076911
1492.7988,0.076542
1494.6625,0.075715
1496.5261,0.078090
1498.3898,0.081183
1500.2535,0.081747
1502.1171,0.080807
1503.9808,0.079606
1505.8445,0.081512
1507.7082,0.091399
1509.5718,0.091731
1511.4355,0.090233
1513.2992,0.090605
1515.1628,0.091331
1517.0265,0.093435
1518.8902,0.094709
1520.7538,0.095703
1522.6175,0.099866
1524.4812,0.100002
1526.3448,0.101044
1528.2085,0.102603
1530.0722,0.102508
1531.9359,0.103097
1533.7995,0.106497
1535.6632,0.107448
1537.5269,0.105835
1539.3905,0.108898
1541.2542,0.118033
1543.1179,0.119657
1544.9815,0.121254
1546.8452,0.122598
1548.7089,0.123454
1550.5725,0.126536
1552.4362,0.128604
1554.2999,0.129699
1556.1635,0.131526
1558.0272,0.135834
1559.8909,0.151512
1561.7546,0.149632
1563.6182,0.147271
1565.4819,0.149257
1567.3456,0.151778
1569.2092,0.155703
1571.0729,0.161100
1572.9366,0.161619
1574.8002,0.163870
1576.6639,0.171614
1578.5276,0.175876
1580.3912,0.176126
1582.2549,0.178444
1584.1186,0.180823
1585.9822,0.182626
1587.8459,0.183571
1589.7096,0.184084
1591.5733,0.183718
1593.4369,0.182869
1595.3006,0.181657
1597.1643,0.180029
1599.0279,0.177670
1600.8916,0.175211
1602.7553,0.173038
1604.6189,0.171042
1606.4826,0.169040
1608.3463,0.167469
1610.2099,0.165500
1612.0736,0.162291
1613.9373,0.157802
1615.8010,0.152241
1617.6646,0.145189
1619.5283,0.138547
1621.3920,0.132304
1623.2556,0.124711
1625.1193,0.116755
1626.9830,0.108735
1628.8466,0.099289
1630.7103,0.090407
1632.5740,0.082962
1634.4376,0.074755
1636.3013,0.066271
1638.1650,0.062664
1640.0286,0.061986
1641.8923,0.061510
1643.7560,0.061843
1645.6197,0.063205
1647.4833,0.067111
1649.3470,0.069244
1651.2107,0.069700
1653.0743,0.074319
1654.9380,0.081422
1656.8017,0.080491
1658.6653,0.080436
1660.5290,0.080450
1662.3927,0.080140
1664.2563,0.079352
1666.1200,0.077632
1667.9837,0.075593
1669.8474,0.074475
1671.7110,0.074079
1673.5747,0.074115
1675.4384,0.076350
1677.3020,0.079988
1679.1657,0.081849
1681.0294,0.084824
1682.8930,0.087439
1684.7567,0.093647
1686.6204,0.096407
1688.4840,0.094371
1690.3477,0.092451
1692.2114,0.089760
1694.0750,0.085942
1695.9387,0.081890
1697.8024,0.077961
1699.6661,0.073925
1701.5297,0.067711
1703.3934,0.061778
1705.2571,0.054007
1707.1207,0.045318
1708.9844,0.039527
1710.8481,0.035141
1712.7117,0.031351
1714.5754,0.028524
1716.4391,0.026222
1718.3027,0.025927
1720.1664,0.025520
1722.0301,0.024257
1723.8937,0.022647
1725.7574,0.020892
1727.6211,0.018917
1729.4848,0.017221
1731.3484,0.015755
1733.2121,0.014341
1735.0758,0.014214
1736.9394,0.013995
1738.8031,0.012931
1740.6668,0.012709
1742.5304,0.012519
1744.3941,0.012319
1746.2578,0.011754
1748.1214,0.011180
1749.9851,0.010814
1751.8488,0.011049
1753.7125,0.011050
1755.5761,0.010686
1757.4398,0.010533
1759.3035,0.010506
1761.1671,0.010227
1763.0308,0.010503
1764.8945,0.010544
1766.7581,0.010276
1768.6218,0.010247
1770.4855,0.010071
1772.3491,0.009925
1774.2128,0.010458
1776.0765,0.010249
1777.9401,0.010309
1779.8038,0.010168
1781.6675,0.010417
1783.5312,0.010454
1785.3948,0.010795
1787.2585,0.010830
1789.1222,0.010461
1790.9858,0.010034
1792.8495,0.010525
1794.7132,0.010810
1796.5768,0.010728
1798.4405,0.010689
1800.3042,0.010893
1802.1678,0.011185
1804.0315,0.011404
1805.8952,0.011307
1807.7589,0.011300
1809.6225,0.011274
1811.4862,0.011410
1813.3499,0.011386
1815.2135,0.011251
1817.0772,0.010942
1818.9409,0.011221
1820.8045,0.011514
1822.6682,0.011532
1824.5319,0.011446
1826.3955,0.011652
1828.2592,0.011092
1830.1229,0.011172
1831.9865,0.011443
1833.8502,0.011368
1835.7139,0.011289
1837.5776,0.011399
1839.4412,0.011368
1841.3049,0.011074
1843.1686,0.010739
1845.0322,0.011527
1846.8959,0.011780
1848.7596,0.011644
1850.6232,0.011563
1852.4869,0.011606
1854.3506,0.011449
1856.2142,0.011432
1858.0779,0.011439
1859.9416,0.011637
1861.8052,0.011898
1863.6689,0.011980
1865.5326,0.011641
1867.3963,0.011440
1869.2599,0.011558
1871.1236,0.011950
1872.9873,0.011992
1874.8509,0.012077
1876.7146,0.012017
1878.5783,0.011845
1880.4419,0.011766
1882.3056,0.012084
1884.1693,0.012356
1886.0329,0.012812
1887.8966,0.012628
1889.7603,0.012522
1891.6240,0.012867
1893.4876,0.012916
1895.3513,0.012953
1897.2150,0.012994
1899.0786,0.012554
1900.9423,0.012715
1902.8060,0.013230
1904.6696,0.013708
1906.5333,0.013619
1908.3970,0.013218
1910.2606,0.013255
1912.1243,0.013547
1913.9880,0.013593
1915.8516,0.013524
1917.7153,0.013092
1919.5790,0.012947
1921.4427,0.012883
1923.3063,0.012978
1925.1700,0.013139
1927.0337,0.013365
1928.8973,0.013037
1930.7610,0.012610
1932.6247,0.011993
1934.4883,0.011989
1936.3520,0.012242
1938.2157,0.012009
1940.0793,0.011420
1941.9430,0.011208
1943.8067,0.010925
1945.6704,0.011134
1947.5340,0.010964
1949.3977,0.009764
1951.2614,0.009421
1953.1250,0.009633
1954.9887,0.008967
1956.8524,0.008980
1958.7160,0.008582
1960.5797,0.008262
1962.4434,0.008347
1964.3070,0.007226
1966.1707,0.004670
1968.0344,0.004917
1969.8980,0.004554
1971.7617,0.003838
1973.6254,0.004758
1975.4891,0.005871
1977.3527,0.005836
1979.2164,0.007195
1981.0801,0.006962
1982.9437,0.006453
1984.8074,0.007392
1986.6711,0.007820
1988.5347,0.008320
1990.3984,0.008875
1992.2621,0.008307
1994.1257,0.009072
1995.9894,0.009335
1997.8531,0.008660
1999.7167,0.007626
2001.5804,0.007988
2003.4441,0.007629
2005.3078,0.006085
2007.1714,0.005021
2009.0351,0.006463
2010.8988,0.007008
2012.7624,0.006617
2014.6261,0.006536
2016.4898,0.006688
2018.3534,0.006810
2020.2171,0.007290
2022.0808,0.006633
2023.9444,0.006214
2025.8081,0.005602
2027.6718,0.005368
2029.5355,0.005039
2031.3991,0.006669
2033.2628,0.007133
2035.1265,0.006948
2036.9901,0.007161
2038.8538,0.007258
2040.7175,0.007013
2042.5811,0.008479
2044.4448,0.009103
2046.3085,0.009512
2048.1721,0.010331
2050.0358,0.011163
2051.8995,0.010822
2053.7631,0.010707
2055.6268,0.011319
2057.4905,0.011765
2059.3542,0.011958
2061.2178,0.012151
2063.0815,0.012089
2064.9452,0.012736
2066.8088,0.012414
2068.6725,0.011971
2070.5362,0.012522
2072.3998,0.012918
2074.2635,0.013091
2076.1272,0.013543
2077.9908,0.013516
2079.8545,0.013507
2081.7182,0.013649
2083.5819,0.014324
2085.4455,0.014540
2087.3092,0.014134
2089.1729,0.013280
2091.0365,0.012801
2092.9002,0.012577
2094.7639,0.012782
2096.6275,0.013336
2098.4912,0.014146
2100.3549,0.014208
2102.2185,0.014236
2104.0822,0.013889
2105.9459,0.013630
2107.8095,0.014101
2109.6732,0.014833
2111.5369,0.015014
2113.4006,0.015081
2115.2642,0.014692
2117.1279,0.014773
2118.9916,0.015070
2120.8552,0.015262
2122.7189,0.014125
2124.5826,0.013643
2126.4462,0.013937
2128.3099,0.014339
2130.1736,0.013968
2132.0372,0.012817
2133.9009,0.012907
2135.7646,0.014136
2137.6282,0.013145
2139.4919,0.011551
2141.3556,0.011639
2143.2193,0.012744
2145.0829,0.012614
2146.9466,0.010936
2148.8103,0.009391
2150.6739,0.009757
2152.5376,0.009273
2154.4013,0.006629
2156.2649,0.005476
2158.1286,0.006251
2159.9923,0.007329
2161.8559,0.007112
2163.7196,0.005405
2165.5833,0.006712
2167.4470,0.008384
2169.3106,0.009068
2171.1743,0.009259
2173.0380,0.009085
2174.9016,0.008786
2176.7653,0.010649
2178.6290,0.010841
2180.4926,0.010316
2182.3563,0.011108
2184.2200,0.011546
2186.0836,0.011737
2187.9473,0.011739
2189.8110,0.011206
2191.6746,0.012185
2193.5383,0.011907
2195.4020,0.012000
2197.2657,0.013148
2199.1293,0.013371
2200.9930,0.012817
2202.8567,0.012561
2204.7203,0.012393
2206.5840,0.013765
2208.4477,0.014133
2210.3113,0.014206
2212.1750,0.013598
2214.0387,0.012702
2215.9023,0.013938
2217.7660,0.015884
2219.6297,0.014954
2221.4934,0.014060
2223.3570,0.014180
2225.2207,0.014483
2227.0844,0.014822
2228.9480,0.015742
2230.8117,0.016307
2232.6754,0.016123
2234.5390,0.016633
2236.4027,0.017054
2238.2664,0.016668
2240.1300,0.016723
2241.9937,0.017405
2243.8574,0.018145
2245.7210,0.017621
2247.5847,0.017295
2249.4484,0.017330
2251.3121,0.018131
2253.1757,0.018473
2255.0394,0.018019
2256.9031,0.017916
2258.7667,0.018578
2260.6304,0.018955
2262.4941,0.019015
2264.3577,0.018789
2266.2214,0.019206
2268.0851,0.019750
2269.9487,0.020216
2271.8124,0.020558
2273.6761,0.020674
2275.5397,0.020670
2277.4034,0.021429
2279.2671,0.021938
2281.1308,0.021988
2282.9944,0.022076
2284.8581,0.022092
2286.7218,0.022211
2288.5854,0.022690
2290.4491,0.022620
2292.3128,0.022403
2294.1764,0.022215
2296.0401,0.022161
2297.9038,0.022286
2299.7674,0.022448
2301.6311,0.022484
2303.4948,0.022871
2305.3585,0.023098
2307.2221,0.023139
2309.0858,0.023018
2310.9495,0.022764
2312.8131,0.022850
2314.6768,0.023225
2316.5405,0.023186
2318.4041,0.022781
2320.2678,0.022690
2322.1315,0.023271
2323.9951,0.023464
2325.8588,0.022902
2327.7225,0.022363
2329.5861,0.022015
2331.4498,0.021932
2333.3135,0.022312
2335.1772,0.022327
2337.0408,0.021971
2338.9045,0.021940
2340.7682,0.022386
2342.6318,0.022658
2344.4955,0.022507
2346.3592,0.022409
2348.2228,0.022132
2350.0865,0.021535
2351.9502,0.021371
2353.8138,0.021809
2355.6775,0.022134
2357.5412,0.022141
2359.4049,0.022151
2361.2685,0.022028
2363.1322,0.021921
2364.9959,0.022140
2366.8595,0.022546
2368.7232,0.022265
2370.5869,0.022533
2372.4505,0.023108
2374.3142,0.023281
2376.1779,0.023242
2378.0415,0.023245
2379.9052,0.023513
2381.7689,0.023463
2383.6325,0.023073
2385.4962,0.023151
2387.3599,0.023316
2389.2236,0.023378
2391.0872,0.023217
2392.9509,0.023435
2394.8146,0.023422
2396.6782,0.023406
2398.5419,0.023460
2400.4056,0.023435
2402.2692,0.023661
2404.1329,0.023825
2405.9966,0.023727
2407.8602,0.023558
2409.7239,0.023735
2411.5876,0.024226
2413.4512,0.024508
2415.3149,0.024344
2417.1786,0.023918
2419.0423,0.023841
2420.9059,0.024106
2422.7696,0.024614
2424.6333,0.024928
2426.4969,0.024789
2428.3606,0.024684
2430.2243,0.024651
2432.0879,0.024963
2433.9516,0.025119
2435.8153,0.024909
2437.6789,0.024708
2439.5426,0.024648
2441.4063,0.025100
2443.2700,0.025445
2445.1336,0.025288
2446.9973,0.024806
2448.8610,0.024477
2450.7246,0.024779
2452.5883,0.024984
2454.4520,0.024486
2456.3156,0.024480
2458.1793,0.024462
2460.0430,0.024238
2461.9066,0.024096
2463.7703,0.024163
2465.6340,0.024280
2467.4976,0.024150
2469.3613,0.024307
2471.2250,0.024509
2473.0887,0.024371
2474.9523,0.024220
2476.8160,0.024217
2478.6797,0.024408
2480.5433,0.024539
2482.4070,0.024571
2484.2707,0.024568
2486.1343,0.025107
2487.9980,0.025444
2489.8617,0.025397
2491.7253,0.025385
2493.5890,0.025455
2495.4527,0.025400
2497.3164,0.025365
2499.1800,0.025260
2501.0437,0.025469
2502.9074,0.025621
2504.7710,0.025766
2506.6347,0.026212
2508.4984,0.026002
2510.3620,0.025496
2512.2257,0.025491
2514.0894,0.025566
2515.9530,0.025489
2517.8167,0.025805
2519.6804,0.026252
2521.5440,0.026331
2523.4077,0.026283
2525.2714,0.026439
2527.1351,0.026522
2528.9987,0.026604
2530.8624,0.026450
2532.7261,0.026154
2534.5897,0.026051
2536.4534,0.026256
2538.3171,0.026305
2540.1807,0.026210
2542.0444,0.026000
2543.9081,0.025937
2545.7717,0.026336
2547.6354,0.026130
2549.4991,0.026177
2551.3627,0.026542
2553.2264,0.026445
2555.0901,0.025806
2556.9538,0.025893
2558.8174,0.026330
2560.6811,0.026107
2562.5448,0.026228
2564.4084,0.026716
2566.2721,0.026976
2568.1358,0.027005
2569.9994,0.026668
2571.8631,0.026693
2573.7268,0.027114
2575.5904,0.027178
2577.4541,0.027227
2579.3178,0.027521
2581.1815,0.027481
2583.0451,0.027550
2584.9088,0.027816
2586.7725,0.028079
2588.6361,0.028240
2590.4998,0.028169
2592.3635,0.028309
2594.2271,0.028449
2596.0908,0.028534
2597.9545,0.028817
2599.8181,0.029079
2601.6818,0.029168
2603.5455,0.028858
2605.4091,0.028467
2607.2728,0.028824
2609.1365,0.029281
2611.0002,0.029310
2612.8638,0.029462
2614.7275,0.029471
2616.5912,0.029526
2618.4548,0.029875
2620.3185,0.030026
2622.1822,0.030092
2624.0458,0.030277
2625.9095,0.030682
2627.7732,0.031017
2629.6368,0.031166
2631.5005,0.031304
2633.3642,0.031384
2635.2279,0.031893
2637.0915,0.032182
2638.9552,0.032213
2640.8189,0.032305
2642.6825,0.032526
2644.5462,0.032661
2646.4099,0.032872
2648.2735,0.033093
2650.1372,0.033239
2652.0009,0.033323
2653.8645,0.033302
2655.7282,0.033309
2657.5919,0.033220
2659.4555,0.033291
2661.3192,0.033551
2663.1829,0.033755
2665.0466,0.033851
2666.9102,0.033782
2668.7739,0.033776
2670.6376,0.033649
2672.5012,0.033533
2674.3649,0.033788
2676.2286,0.034160
2678.0922,0.034415
2679.9559,0.034611
2681.8196,0.034902
2683.6832,0.035035
2685.5469,0.035116
2687.4106,0.035212
2689.2742,0.035344
2691.1379,0.035399
2693.0016,0.035492
2694.8653,0.035793
2696.7289,0.036258
2698.5926,0.036380
2700.4563,0.036528
2702.3199,0.036892
2704.1836,0.037315
2706.0473,0.037742
2707.9109,0.037893
2709.7746,0.038100
2711.6383,0.038451
2713.5019,0.038634
2715.3656,0.038899
2717.2293,0.039223
2719.0930,0.039418
2720.9566,0.039573
2722.8203,0.040255
2724.6840,0.040983
2726.5476,0.041345
2728.4113,0.041823
2730.2750,0.042197
2732.1386,0.042345
2734.0023,0.042546
2735.8660,0.042919
2737.7296,0.043299
2739.5933,0.043785
2741.4570,0.044368
2743.3206,0.045019
2745.1843,0.045380
2747.0480,0.045838
2748.9117,0.046631
2750.7753,0.047082
2752.6390,0.047405
2754.5027,0.047930
2756.3663,0.048345
2758.2300,0.048707
2760.0937,0.049123
2761.9573,0.049775
2763.8210,0.050539
2765.6847,0.051194
2767.5483,0.051641
2769.4120,0.052172
2771.2757,0.052792
2773.1394,0.053318
2775.0030,0.054141
2776.8667,0.054883
2778.7304,0.055375
2780.5940,0.055633
2782.4577,0.055730
2784.3214,0.055687
2786.1850,0.055465
2788.0487,0.054943
2789.9124,0.054649
2791.7760,0.054615
2793.6397,0.054028
2795.5034,0.053148
2797.3670,0.052628
2799.2307,0.052342
2801.0944,0.052011
2802.9581,0.051442
2804.8217,0.050870
2806.6854,0.050435
2808.5491,0.050028
2810.4127,0.049957
2812.2764,0.049976
2814.1401,0.049760
2816.0037,0.049729
2817.8674,0.049870
2819.7311,0.049870
2821.5947,0.049710
2823.4584,0.049925
2825.3221,0.050366
2827.1857,0.050390
2829.0494,0.049657
2830.9131,0.048920
2832.7768,0.048738
2834.6404,0.048719
2836.5041,0.048798
2838.3678,0.049347
2840.2314,0.050023
2842.0951,0.050361
2843.9588,0.050399
2845.8224,0.050674
2847.6861,0.051106
2849.5498,0.051835
2851.4134,0.052492
2853.2771,0.052911
2855.1408,0.053552
2857.0045,0.054463
2858.8681,0.055264
2860.7318,0.055917
2862.5955,0.056186
2864.4591,0.056333
2866.3228,0.056592
2868.1865,0.056866
2870.0501,0.056838
2871.9138,0.057001
2873.7775,0.057795
2875.6411,0.058472
2877.5048,0.058672
2879.3685,0.058959
2881.2321,0.059432
2883.0958,0.059882
2884.9595,0.060405
2886.8232,0.060957
2888.6868,0.061234
2890.5505,0.061804
2892.4142,0.062449
2894.2778,0.062752
2896.1415,0.063020
2898.0052,0.063335
2899.8688,0.063557
2901.7325,0.063395
2903.5962,0.063080
2905.4598,0.063220
2907.3235,0.063834
2909.1872,0.064371
2911.0509,0.064486
2912.9145,0.064807
2914.7782,0.065747
2916.6419,0.066691
2918.5055,0.067514
2920.3692,0.068243
2922.2329,0.068566
2924.0965,0.068988
2925.9602,0.069672
2927.8239,0.070121
2929.6875,0.070447
2931.5512,0.071196
2933.4149,0.071906
2935.2785,0.072169
2937.1422,0.072476
2939.0059,0.072967
2940.8696,0.073430
2942.7332,0.073838
2944.5969,0.073985
2946.4606,0.074090
2948.3242,0.074315
2950.1879,0.074699
2952.0516,0.075114
2953.9152,0.075479
2955.7789,0.075669
2957.6426,0.075839
2959.5062,0.076278
2961.3699,0.076904
2963.2336,0.077874
2965.0972,0.079146
2966.9609,0.080175
2968.8246,0.080769
2970.6883,0.081239
2972.5519,0.081967
2974.4156,0.082827
2976.2793,0.083555
2978.1429,0.083911
2980.0066,0.084347
2981.8703,0.084848
2983.7339,0.084942
2985.5976,0.084824
2987.4613,0.085252
2989.3249,0.085922
2991.1886,0.086664
2993.0523,0.087366
2994.9160,0.088602
2996.7796,0.089445
2998.6433,0.089941
3000.5070,0.090766
3002.3706,0.091673
3004.2343,0.092354
3006.0980,0.093054
3007.9616,0.093474
3009.8253,0.093825
3011.6890,0.094677
3013.5526,0.095728
3015.4163,0.096244
3017.2800,0.096354
3019.1436,0.096773
3021.0073,0.097473
3022.8710,0.097669
3024.7347,0.098055
3026.5983,0.098636
3028.4620,0.098491
3030.3257,0.098121
3032.1893,0.098528
3034.0530,0.099194
3035.9167,0.099966
3037.7803,0.100468
3039.6440,0.100575
3041.5077,0.100845
3043.3713,0.101298
3045.2350,0.101729
3047.0987,0.102045
3048.9624,0.101717
3050.8260,0.102102
3052.6897,0.102726
3054.5534,0.102764
3056.4170,0.102712
3058.2807,0.102852
3060.1444,0.102496
3062.0080,0.102307
3063.8717,0.102598
3065.7354,0.102826
3067.5990,0.102808
3069.4627,0.102822
3071.3264,0.102839
3073.1900,0.102533
3075.0537,0.101995
3076.9174,0.101655
3078.7811,0.101604
3080.6447,0.101685
3082.5084,0.101400
3084.3721,0.100704
3086.2357,0.100028
3088.0994,0.099562
3089.9631,0.099194
3091.8267,0.098413
3093.6904,0.097465
3095.5541,0.096647
3097.4177,0.095477
3099.2814,0.094586
3101.1451,0.094218
3103.0087,0.093598
3104.8724,0.092589
3106.7361,0.091361
3108.5998,0.090018
3110.4634,0.089297
3112.3271,0.088606
3114.1908,0.087689
3116.0544,0.087108
3117.9181,0.086465
3119.7818,0.085518
3121.6454,0.084848
3123.5091,0.084352
3125.3728,0.083218
3127.2364,0.081797
3129.1001,0.081135
3130.9638,0.080896
3132.8275,0.080336
3134.6911,0.079494
3136.5548,0.078878
3138.4185,0.078695
3140.2821,0.078821
3142.1458,0.078480
3144.0095,0.077129
3145.8731,0.076438
3147.7368,0.076311
3149.6005,0.075472
3151.4641,0.074871
3153.3278,0.074781
3155.1915,0.074909
3157.0551,0.074478
3158.9188,0.073715
3160.7825,0.073230
3162.6462,0.072645
3164.5098,0.071420
3166.3735,0.070704
3168.2372,0.070638
3170.1008,0.070228
3171.9645,0.069802
3173.8282,0.069728
3175.6918,0.069550
3177.5555,0.069188
3179.4192,0.068455
3181.2828,0.067856
3183.1465,0.067789
3185.0102,0.068021
3186.8739,0.067898
3188.7375,0.067708
3190.6012,0.067913
3192.4649,0.068128
3194.3285,0.067800
3196.1922,0.067247
3198.0559,0.067388
3199.9195,0.067635
3201.7832,0.067710
3203.6469,0.067773
3205.5105,0.067919
3207.3742,0.068012
3209.2379,0.067659
3211.1015,0.067474
3212.9652,0.067418
3214.8289,0.067529
3216.6926,0.068190
3218.5562,0.068766
3220.4199,0.068786
3222.2836,0.068318
3224.1472,0.068228
3226.0109,0.068420
3227.8746,0.068134
3229.7382,0.068536
3231.6019,0.069029
3233.4656,0.069566
3235.3292,0.070025
3237.1929,0.070217
3239.0566,0.070414
3240.9202,0.070265
3242.7839,0.070455
3244.6476,0.070771
3246.5113,0.071201
3248.3749,0.071886
3250.2386,0.071962
3252.1023,0.072096
3253.9659,0.072282
3255.8296,0.072187
3257.6933,0.073079
3259.5569,0.074165
3261.4206,0.074298
3263.2843,0.074331
3265.1479,0.074420
3267.0116,0.074164
3268.8753,0.074304
3270.7390,0.074448
3272.6026,0.074326
3274.4663,0.074844
3276.3300,0.074610
3278.1936,0.074034
3280.0573,0.074042
3281.9210,0.073947
3283.7846,0.073104
3285.6483,0.071781
3287.5120,0.070941
3289.3756,0.070801
3291.2393,0.070631
3293.1030,0.070475
3294.9666,0.069792
3296.8303,0.068639
3298.6940,0.067544
3300.5577,0.067065
3302.4213,0.066204
3304.2850,0.065169
3306.1487,0.064981
3308.0123,0.065215
3309.8760,0.064808
3311.7397,0.063805
3313.6033,0.063539
3315.4670,0.063380
3317.3307,0.062951
3319.1943,0.063249
3321.0580,0.063934
3322.9217,0.064246
3324.7854,0.064296
3326.6490,0.064672
3328.5127,0.065278
3330.3764,0.065359
3332.2400,0.065056
3334.1037,0.064583
3335.9674,0.063768
3337.8310,0.062533
3339.6947,0.062042
3341.5584,0.062047
3343.4220,0.060864
3345.2857,0.059847
3347.1494,0.058710
3349.0130,0.056322
3350.8767,0.054958
3352.7404,0.054989
3354.6041,0.054460
3356.4677,0.053416
3358.3314,0.051961
3360.1951,0.050691
3362.0587,0.050554
3363.9224,0.050103
3365.7861,0.049162
3367.6497,0.048900
3369.5134,0.049120
3371.3771,0.048885
3373.2407,0.048614
3375.1044,0.048564
3376.9681,0.048096
3378.8317,0.048222
3380.6954,0.049470
3382.5591,0.050452
3384.4228,0.050646
3386.2864,0.050230
3388.1501,0.049798
3390.0138,0.050303
3391.8774,0.051842
3393.7411,0.052472
3395.6048,0.051781
3397.4684,0.051099
3399.3321,0.051070
3401.1958,0.051504
3403.0594,0.051533
3404.9231,0.050164
3406.7868,0.048434
3408.6505,0.047806
3410.5141,0.046694
3412.3778,0.044784
3414.2415,0.043330
3416.1051,0.041523
3417.9688,0.040280
3419.8325,0.038920
3421.6961,0.036538
3423.5598,0.034925
3425.4235,0.034838
3427.2871,0.034724
3429.1508,0.033155
3431.0145,0.031736
3432.8781,0.031114
3434.7418,0.029850
3436.6055,0.029119
3438.4692,0.029073
3440.3328,0.028959
3442.1965,0.027722
3444.0602,0.025993
3445.9238,0.025338
3447.7875,0.025775
3449.6512,0.025880
3451.5148,0.025118
3453.3785,0.023812
3455.2422,0.023243
3457.1058,0.023722
3458.9695,0.023607
3460.8332,0.022620
3462.6969,0.022506
3464.5605,0.022352
3466.4242,0.022276
3468.2879,0.021688
3470.1515,0.020090
3472.0152,0.019338
3473.8789,0.019708
3475.7425,0.018989
3477.6062,0.018454
3479.4699,0.018948
3481.3335,0.018935
3483.1972,0.017895
3485.0609,0.017546
3486.9245,0.017668
3488.7882,0.017460
3490.6519,0.017005
3492.5156,0.016255
3494.3792,0.015729
3496.2429,0.015708
3498.1066,0.014741
3499.9702,0.013993
3501.8339,0.013701
3503.6976,0.013505
3505.5612,0.014010
3507.4249,0.014231
3509.2886,0.013123
3511.1522,0.012772
3513.0159,0.012527
3514.8796,0.012212
3516.7432,0.012078
3518.6069,0.011798
3520.4706,0.011667
3522.3343,0.011518
3524.1979,0.010789
3526.0616,0.009472
3527.9253,0.008481
3529.7889,0.009266
3531.6526,0.009832
3533.5163,0.009218
3535.3799,0.008972
3537.2436,0.008799
3539.1073,0.008169
3540.9709,0.007630
3542.8346,0.007936
3544.6983,0.008604
3546.5620,0.007744
3548.4256,0.007370
3550.2893,0.007815
3552.1530,0.007684
3554.0166,0.008337
3555.8803,0.008741
3557.7440,0.007468
3559.6076,0.007098
3561.4713,0.007314
3563.3350,0.006949
3565.1986,0.005937
3567.0623,0.005258
3568.9260,0.005435
3570.7896,0.005893
3572.6533,0.006404
3574.5170,0.007164
3576.3807,0.007797
3578.2443,0.008330
3580.1080,0.007664
3581.9717,0.006579
3583.8353,0.005810
3585.6990,0.005561
3587.5627,0.005236
3589.4263,0.005685
3591.2900,0.006610
3593.1537,0.006561
3595.0173,0.005595
3596.8810,0.004767
3598.7447,0.005626
3600.6084,0.006280
3602.4720,0.005929
3604.3357,0.006556
3606.1994,0.006794
3608.0630,0.005999
3609.9267,0.005261
3611.7904,0.005622
3613.6540,0.005710
3615.5177,0.005774
3617.3814,0.005511
3619.2450,0.004931
3621.1087,0.006086
3622.9724,0.007648
3624.8360,0.007291
3626.6997,0.006065
3628.5634,0.004538
3630.4271,0.004465
3632.2907,0.006831
3634.1544,0.006652
3636.0181,0.006658
3637.8817,0.007284
3639.7454,0.007165
3641.6091,0.006642
3643.4727,0.005813
3645.3364,0.006004
3647.2001,0.004886
3649.0637,0.002624
3650.9274,0.003453
3652.7911,0.006430
3654.6547,0.007724
3656.5184,0.007288
3658.3821,0.007540
3660.2458,0.007504
3662.1094,0.006384
3663.9731,0.006582
3665.8368,0.007209
3667.7004,0.006810
3669.5641,0.005263
3671.4278,0.005033
3673.2914,0.006522
3675.1551,0.005119
3677.0188,0.004300
3678.8824,0.007039
3680.7461,0.006800
3682.6098,0.006941
3684.4735,0.006999
3686.3371,0.006612
3688.2008,0.005350
3690.0645,0.004081
3691.9281,0.005968
3693.7918,0.007802
3695.6555,0.007673
3697.5191,0.007434
3699.3828,0.007816
3701.2465,0.007182
3703.1101,0.006574
3704.9738,0.007347
3706.8375,0.007278
3708.7011,0.006364
3710.5648,0.005016
3712.4285,0.004710
3714.2922,0.007013
3716.1558,0.008528
3718.0195,0.007777
3719.8832,0.007082
3721.7468,0.007271
3723.6105,0.007312
3725.4742,0.007145
3727.3378,0.006959
3729.2015,0.007298
3731.0652,0.007024
3732.9288,0.005620
3734.7925,0.005223
3736.6562,0.005410
3738.5199,0.006777
3740.3835,0.007270
3742.2472,0.006370
3744.1109,0.004963
3745.9745,0.003744
3747.8382,0.006498
3749.7019,0.006182
3751.5655,0.005534
3753.4292,0.007861
3755.2929,0.009292
3757.1565,0.008362
3759.0202,0.007762
3760.8839,0.008047
3762.7475,0.008794
3764.6112,0.009033
3766.4749,0.008520
3768.3386,0.008653
3770.2022,0.008241
3772.0659,0.008642
3773.9296,0.009185
3775.7932,0.008924
3777.6569,0.008861
3779.5206,0.008108
3781.3842,0.007859
3783.2479,0.008746
3785.1116,0.008555
3786.9752,0.008676
3788.8389,0.009440
3790.7026,0.009666
3792.5662,0.009436
3794.4299,0.009009
3796.2936,0.008445
3798.1573,0.008451
3800.0209,0.008660
3801.8846,0.007692
3803.7483,0.008630
3805.6119,0.009485
3807.4756,0.008203
3809.3393,0.008647
3811.2029,0.009169
3813.0666,0.008576
3814.9303,0.008214
3816.7939,0.007316
3818.6576,0.008136
3820.5213,0.008720
3822.3850,0.007912
3824.2486,0.009732
3826.1123,0.009692
3827.9760,0.008592
3829.8396,0.008546
3831.7033,0.008427
3833.5670,0.008594
3835.4306,0.008547
3837.2943,0.007148
3839.1580,0.006794
3841.0216,0.008603
3842.8853,0.009246
3844.7490,0.008989
3846.6126,0.009684
3848.4763,0.009273
3850.3400,0.008260
3852.2037,0.006863
3854.0673,0.005226
3855.9310,0.008615
3857.7947,0.010657
3859.6583,0.009356
3861.5220,0.008561
3863.3857,0.008234
3865.2493,0.008420
3867.1130,0.008854
3868.9767,0.009013
3870.8403,0.007676
3872.7040,0.009257
3874.5677,0.009680
3876.4314,0.009227
3878.2950,0.009837
3880.1587,0.009518
3882.0224,0.009180
3883.8860,0.009953
3885.7497,0.009120
3887.6134,0.009336
3889.4770,0.010773
3891.3407,0.009444
3893.2044,0.008795
3895.0680,0.010044
3896.9317,0.009633
3898.7954,0.008514
3900.6590,0.008072
3902.5227,0.008832
3904.3864,0.010167
3906.2501,0.011460
3908.1137,0.011177
3909.9774,0.010468
3911.8411,0.010119
3913.7047,0.009893
3915.5684,0.009678
3917.4321,0.010037
3919.2957,0.010748
3921.1594,0.010920
3923.0231,0.010644
3924.8867,0.010153
3926.7504,0.010544
3928.6141,0.011333
3930.4777,0.010770
3932.3414,0.010179
3934.2051,0.010137
3936.0688,0.010878
3937.9324,0.010837
3939.7961,0.010421
3941.6598,0.010389
3943.5234,0.010578
3945.3871,0.010804
3947.2508,0.010545
3949.1144,0.010160
3950.9781,0.010946
3952.8418,0.011192
3954.7054,0.010718
3956.5691,0.010395
3958.4328,0.010733
3960.2965,0.010650
3962.1601,0.010546
3964.0238,0.010680
3965.8875,0.010868
3967.7511,0.011132
3969.6148,0.011133
3971.4785,0.010932
3973.3421,0.011051
3975.2058,0.010490
3977.0695,0.010516
3978.9331,0.011027
3980.7968,0.011351
3982.6605,0.011245
3984.5241,0.011121
3986.3878,0.011079
3988.2515,0.011046
3990.1152,0.010821
3991.9788,0.011086
3993.8425,0.011480
3995.7062,0.011524
3997.5698,0.011459
3999.4335,0.011416
