Wavenumber,Intensity
650.4205,0.229710
652.2841,0.225372
654.1478,0.220899
656.0115,0.216191
657.8751,0.208715
659.7388,0.200882
661.6025,0.198953
663.4661,0.198418
665.3298,0.197216
667.1935,0.196807
669.0571,0.198002
670.9208,0.196554
672.7845,0.196451
674.6481,0.196439
676.5118,0.197908
678.3755,0.199852
680.2392,0.201401
682.1028,0.200815
683.9665,0.199475
685.8302,0.198603
687.6938,0.198553
689.5575,0.197971
691.4212,0.196841
693.2848,0.195545
695.1485,0.195626
697.0122,0.195698
698.8758,0.193892
700.7395,0.191278
702.6032,0.189799
704.4669,0.186189
706.3305,0.179742
708.1942,0.171284
710.0579,0.162868
711.9215,0.154002
713.7852,0.144862
715.6489,0.136687
717.5125,0.129844
719.3762,0.123617
721.2399,0.117474
723.1035,0.111964
724.9672,0.107684
726.8309,0.103667
728.6945,0.099084
730.5582,0.094512
732.4219,0.091271
734.2856,0.087989
736.1492,0.084570
738.0129,0.083124
739.8766,0.083956
741.7402,0.086234
743.6039,0.088552
745.4676,0.090163
747.3312,0.091098
749.1949,0.090503
751.0586,0.089084
752.9222,0.088668
754.7859,0.088502
756.6496,0.088235
758.5132,0.088304
760.3769,0.087775
762.2406,0.087044
764.1043,0.086925
765.9679,0.087267
767.8316,0.087888
769.6953,0.088835
771.5589,0.089702
773.4226,0.090492
775.2863,0.091475
777.1499,0.092854
779.0136,0.094493
780.8773,0.096227
782.7409,0.098117
784.6046,0.099935
786.4683,0.101979
788.3320,0.104845
790.1956,0.107685
792.0593,0.110526
793.9230,0.113194
795.7866,0.115744
797.6503,0.118323
799.5140,0.120851
801.3776,0.122605
803.2413,0.123789
805.1050,0.124652
806.9686,0.124898
808.8323,0.123962
810.6960,0.121775
812.5596,0.119139
814.4233,0.116560
816.2870,0.113877
818.1507,0.111708
820.0143,0.110142
821.8780,0.108955
823.7417,0.108743
825.6053,0.110045
827.4690,0.112527
829.3327,0.113491
831.1963,0.107151
833.0600,0.093755
834.9237,0.081310
836.7873,0.073954
838.6510,0.070071
840.5147,0.067719
842.3784,0.066297
844.2420,0.065671
846.1057,0.065339
847.9694,0.064905
849.8330,0.063926
851.6967,0.062219
853.5604,0.060495
855.4240,0.059407
857.2877,0.058991
859.1514,0.059046
861.0150,0.058935
862.8787,0.058621
864.7424,0.058521
866.6060,0.058671
868.4697,0.058996
870.3334,0.059494
872.1971,0.059843
874.0607,0.059920
875.9244,0.060004
877.7881,0.060334
879.6517,0.061016
881.5154,0.061627
883.3791,0.062012
885.2427,0.062421
887.1064,0.062749
888.9701,0.063119
890.8337,0.063896
892.6974,0.064918
894.5611,0.065910
896.4247,0.066779
898.2884,0.067952
900.1521,0.069556
902.0158,0.071547
903.8794,0.074219
905.7431,0.077691
907.6068,0.081950
909.4704,0.087096
911.3341,0.093388
913.1978,0.100847
915.0614,0.104481
916.9251,0.096619
918.7888,0.081399
920.6524,0.070044
922.5161,0.065308
924.3798,0.064002
926.2435,0.063958
928.1071,0.064392
929.9708,0.065004
931.8345,0.065742
933.6981,0.066578
935.5618,0.067387
937.4255,0.068113
939.2891,0.068886
941.1528,0.069680
943.0165,0.070432
944.8801,0.071336
946.7438,0.072371
948.6075,0.073321
950.4711,0.074160
952.3348,0.075109
954.1985,0.076302
956.0622,0.077529
957.9258,0.078771
959.7895,0.080057
961.6532,0.081495
963.5168,0.083209
965.3805,0.085121
967.2442,0.087393
969.1078,0.090030
970.9715,0.092761
972.8352,0.096032
974.6988,0.101242
976.5625,0.110099
978.4262,0.125415
980.2899,0.147187
982.1535,0.156083
984.0172,0.131175
985.8809,0.097532
987.7445,0.082073
989.6082,0.079314
991.4719,0.079255
993.3355,0.079429
995.1992,0.079587
997.0629,0.079791
998.9265,0.079886
1000.7902,0.079701
1002.6539,0.079555
1004.5175,0.079731
1006.3812,0.079942
1008.2449,0.080105
1010.1086,0.080347
1011.9722,0.080678
1013.8359,0.081060
1015.6996,0.081543
1017.5632,0.082157
1019.4269,0.082854
1021.2906,0.083804
1023.1542,0.085022
1025.0179,0.086554
1026.8816,0.088362
1028.7452,0.090327
1030.6089,0.092008
1032.4726,0.092299
1034.3362,0.091055
1036.1999,0.090238
1038.0636,0.091598
1039.9273,0.094906
1041.7909,0.099306
1043.6546,0.104283
1045.5183,0.109013
1047.3819,0.111795
1049.2456,0.110879
1051.1093,0.105369
1052.9729,0.096757
1054.8366,0.088749
1056.7003,0.083854
1058.5639,0.081912
1060.4276,0.081693
1062.2913,0.082136
1064.1550,0.082783
1066.0186,0.083877
1067.8823,0.085446
1069.7460,0.087086
1071.6096,0.088791
1073.4733,0.090596
1075.3370,0.092465
1077.2006,0.094539
1079.0643,0.096738
1080.9280,0.099035
1082.7916,0.101653
1084.6553,0.104591
1086.5190,0.107835
1088.3826,0.111496
1090.2463,0.115592
1092.1100,0.120286
1093.9737,0.125646
1095.8373,0.131483
1097.7010,0.137911
1099.5647,0.145013
1101.4283,0.152371
1103.2920,0.159226
1105.1557,0.164256
1107.0193,0.165648
1108.8830,0.161883
1110.7467,0.152790
1112.6103,0.140323
1114.4740,0.127258
1116.3377,0.115489
1118.2014,0.106002
1120.0650,0.099076
1121.9287,0.094389
1123.7924,0.091306
1125.6560,0.089036
1127.5197,0.086974
1129.3834,0.085015
1131.2470,0.083114
1133.1107,0.081285
1134.9744,0.079871
1136.8380,0.078905
1138.7017,0.078294
1140.5654,0.078138
1142.4290,0.078220
1144.2927,0.078333
1146.1564,0.078506
1148.0201,0.078780
1149.8837,0.079168
1151.7474,0.079674
1153.6111,0.080229
1155.4747,0.080906
1157.3384,0.081895
1159.2021,0.083178
1161.0657,0.084767
1162.9294,0.086734
1164.7931,0.089171
1166.6567,0.092337
1168.5204,0.096242
1170.3841,0.100205
1172.2477,0.102914
1174.1114,0.102760
1175.9751,0.099183
1177.8388,0.093930
1179.7024,0.089446
1181.5661,0.086843
1183.4298,0.085758
1185.2934,0.085448
1187.1571,0.085484
1189.0208,0.085542
1190.8844,0.085525
1192.7481,0.085368
1194.6118,0.085193
1196.4754,0.085265
1198.3391,0.085532
1200.2028,0.085794
1202.0665,0.086038
1203.9301,0.086375
1205.7938,0.086684
1207.6575,0.087030
1209.5211,0.087458
1211.3848,0.087828
1213.2485,0.088242
1215.1121,0.088682
1216.9758,0.089062
1218.8395,0.089438
1220.7031,0.089865
1222.5668,0.090286
1224.4305,0.090679
1226.2941,0.091060
1228.1578,0.091482
1230.0215,0.091959
1231.8852,0.092475
1233.7488,0.093047
1235.6125,0.093535
1237.4762,0.093941
1239.3398,0.094406
1241.2035,0.094970
1243.0672,0.095610
1244.9308,0.096239
1246.7945,0.096863
1248.6582,0.097547
1250.5218,0.098164
1252.3855,0.098806
1254.2492,0.099646
1256.1129,0.100528
1257.9765,0.101357
1259.8402,0.102330
1261.7039,0.103453
1263.5675,0.104543
1265.4312,0.105522
1267.2949,0.106068
1269.1585,0.106084
1271.0222,0.105882
1272.8859,0.105737
1274.7495,0.105833
1276.6132,0.106299
1278.4769,0.107092
1280.3405,0.108152
1282.2042,0.109504
1284.0679,0.111100
1285.9316,0.112990
1287.7952,0.115318
1289.6589,0.117966
1291.5226,0.121037
1293.3862,0.124856
1295.2499,0.129422
1297.1136,0.134891
1298.9772,0.141525
1300.8409,0.149621
1302.7046,0.158261
1304.5682,0.164376
1306.4319,0.163463
1308.2956,0.151211
1310.1592,0.129084
1312.0229,0.106691
1313.8866,0.092384
1315.7503,0.087247
1317.6139,0.087227
1319.4776,0.089105
1321.3413,0.091343
1323.2049,0.093708
1325.0686,0.096287
1326.9323,0.098836
1328.7959,0.101339
1330.6596,0.103611
1332.5233,0.105325
1334.3869,0.106369
1336.2506,0.107180
1338.1143,0.108672
1339.9780,0.110560
1341.8416,0.111141
1343.7053,0.111148
1345.5690,0.111807
1347.4326,0.112736
1349.2963,0.113936
1351.1600,0.115447
1353.0236,0.117283
1354.8873,0.119538
1356.7510,0.121752
1358.6146,0.123612
1360.4783,0.126298
1362.3420,0.131030
1364.2056,0.135231
1366.0693,0.137362
1367.9330,0.140734
1369.7967,0.144714
1371.6603,0.147977
1373.5240,0.152856
1375.3877,0.158390
1377.2513,0.161958
1379.1150,0.166597
1380.9787,0.172657
1382.8423,0.179065
1384.7060,0.186094
1386.5697,0.195209
1388.4333,0.205226
1390.2970,0.210282
1392.1607,0.212368
1394.0244,0.212357
1395.8880,0.206322
1397.7517,0.196207
1399.6154,0.184609
1401.4790,0.173544
1403.3427,0.163529
1405.2064,0.148729
1407.0700,0.129377
1408.9337,0.110724
1410.7974,0.093809
1412.6610,0.081982
1414.5247,0.076659
1416.3884,0.076418
1418.2520,0.081301
1420.1157,0.090077
1421.9794,0.094255
1423.8431,0.092230
1425.7067,0.083436
1427.5704,0.073874
1429.4341,0.068071
1431.2977,0.065768
1433.1614,0.065748
1435.0251,0.067792
1436.8887,0.072289
1438.7524,0.075019
1440.6161,0.076245
1442.4797,0.078615
1444.3434,0.080839
1446.2071,0.082699
1448.0707,0.083760
1449.9344,0.082032
1451.7981,0.078521
1453.6618,0.074865
1455.5254,0.073182
1457.3891,0.075372
1459.2528,0.075927
1461.1164,0.074527
1462.9801,0.074426
1464.8438,0.075198
1466.7074,0.074293
1468.5711,0.072046
1470.4348,0.071045
1472.2984,0.072045
1474.1621,0.072938
1476.0258,0.072380
1477.8895,0.072195
1479.7531,0.072040
1481.6168,0.072395
1483.4805,0.072430
1485.3441,0.072434
1487.2078,0.073423
1489.0715,0.075818
1490.9351,0.077410
1492.7988,0.076657
1494.6625,0.076604
1496.5261,0.079031
1498.3898,0.081341
1500.2535,0.081723
1502.1171,0.080914
1503.9808,0.080487
1505.8445,0.083760
1507.7082,0.091401
1509.5718,0.090142
1511.4355,0.089383
1513.2992,0.090086
1515.1628,0.091235
1517.0265,0.093363
1518.8902,0.094786
1520.7538,0.096758
1522.6175,0.100292
1524.4812,0.100305
1526.3448,0.101562
1528.2085,0.102789
1530.0722,0.102896
1531.9359,0.104255
1533.7995,0.107639
1535.6632,0.107874
1537.5269,0.107356
1539.3905,0.111996
1541.2542,0.119894
1543.1179,0.120605
1544.9815,0.122114
1546.8452,0.123231
1548.7089,0.124813
1550.5725,0.127847
1552.4362,0.129846
1554.2999,0.131539
1556.1635,0.134269
1558.0272,0.140894
1559.8909,0.154564
1561.7546,0.150584
1563.6182,0.149278
1565.4819,0.151902
1567.3456,0.155007
1569.2092,0.159826
1571.0729,0.165012
1572.9366,0.166007
1574.8002,0.169923
1576.6639,0.178434
1578.5276,0.182026
1580.3912,0.182767
1582.2549,0.185915
1584.1186,0.189005
1585.9822,0.191623
1587.8459,0.193313
1589.7096,0.194499
1591.5733,0.194782
1593.4369,0.194591
1595.3006,0.193797
1597.1643,0.192398
1599.0279,0.190134
1600.8916,0.188022
1602.7553,0.185933
1604.6189,0.183961
1606.4826,0.182180
1608.3463,0.180809
1610.2099,0.178616
1612.0736,0.175160
1613.9373,0.171026
1615.8010,0.166293
1617.6646,0.157905
1619.5283,0.149334
1621.3920,0.143027
1623.2556,0.135124
1625.1193,0.125847
1626.9830,0.117656
1628.8466,0.107880
1630.7103,0.097941
1632.5740,0.089884
1634.4376,0.082283
1636.3013,0.073562
1638.1650,0.068083
1640.0286,0.066821
1641.8923,0.066044
1643.7560,0.066367
1645.6197,0.068281
1647.4833,0.071559
1649.3470,0.072767
1651.2107,0.074616
1653.0743,0.080302
1654.9380,0.084771
1656.8017,0.083878
1658.6653,0.084483
1660.5290,0.085000
1662.3927,0.084806
1664.2563,0.083301
1666.1200,0.081412
1667.9837,0.079795
1669.8474,0.078335
1671.7110,0.077069
1673.5747,0.077322
1675.4384,0.079349
1677.3020,0.081965
1679.1657,0.084271
1681.0294,0.088210
1682.8930,0.092548
1684.7567,0.098479
1686.6204,0.099618
1688.4840,0.098738
1690.3477,0.097705
1692.2114,0.095442
1694.0750,0.092727
1695.9387,0.089275
1697.8024,0.084400
1699.6661,0.080774
1701.5297,0.072625
1703.3934,0.066105
1705.2571,0.058660
1707.1207,0.048895
1708.9844,0.042401
1710.8481,0.037775
1712.7117,0.033888
1714.5754,0.031411
1716.4391,0.029273
1718.3027,0.028044
1720.1664,0.026838
1722.0301,0.025885
1723.8937,0.024310
1725.7574,0.022561
1727.6211,0.020962
1729.4848,0.019526
1731.3484,0.017964
1733.2121,0.016920
1735.0758,0.015484
1736.9394,0.014876
1738.8031,0.014664
1740.6668,0.014392
1742.5304,0.013950
1744.3941,0.013752
1746.2578,0.013335
1748.1214,0.013047
1749.9851,0.012458
1751.8488,0.012257
1753.7125,0.012067
1755.5761,0.012140
1757.4398,0.012033
1759.3035,0.011860
1761.1671,0.011763
1763.0308,0.011786
1764.8945,0.011643
1766.7581,0.011714
1768.6218,0.011624
1770.4855,0.011598
1772.3491,0.011520
1774.2128,0.011601
1776.0765,0.011557
1777.9401,0.011629
1779.8038,0.011696
1781.6675,0.011969
1783.5312,0.011819
1785.3948,0.011803
1787.2585,0.011768
1789.1222,0.011922
1790.9858,0.012167
1792.8495,0.012254
1794.7132,0.011817
1796.5768,0.012010
1798.4405,0.012190
1800.3042,0.012232
1802.1678,0.012169
1804.0315,0.012457
1805.8952,0.012443
1807.7589,0.012602
1809.6225,0.012747
1811.4862,0.012838
1813.3499,0.012816
1815.2135,0.012939
1817.0772,0.012872
1818.9409,0.013024
1820.8045,0.013103
1822.6682,0.013405
1824.5319,0.013401
1826.3955,0.013270
1828.2592,0.013170
1830.1229,0.013384
1831.9865,0.013088
1833.8502,0.012908
1835.7139,0.013063
1837.5776,0.013480
1839.4412,0.013278
1841.3049,0.013125
1843.1686,0.013158
1845.0322,0.012983
1846.8959,0.012747
1848.7596,0.013048
1850.6232,0.012936
1852.4869,0.013108
1854.3506,0.013415
1856.2142,0.013540
1858.0779,0.013238
1859.9416,0.013220
1861.8052,0.013238
1863.6689,0.013514
1865.5326,0.013439
1867.3963,0.013268
1869.2599,0.013367
1871.1236,0.013524
1872.9873,0.013334
1874.8509,0.013855
1876.7146,0.014040
1878.5783,0.014016
1880.4419,0.014025
1882.3056,0.014380
1884.1693,0.014787
1886.0329,0.014741
1887.8966,0.014544
1889.7603,0.015083
1891.6240,0.014846
1893.4876,0.014701
1895.3513,0.014684
1897.2150,0.014913
1899.0786,0.015367
1900.9423,0.015789
1902.8060,0.015691
1904.6696,0.016075
1906.5333,0.016086
1908.3970,0.016051
1910.2606,0.016016
1912.1243,0.015931
1913.9880,0.015517
1915.8516,0.015525
1917.7153,0.015580
1919.5790,0.015617
1921.4427,0.015500
1923.3063,0.016042
1925.1700,0.015519
1927.0337,0.015101
1928.8973,0.014889
1930.7610,0.014899
1932.6247,0.014324
1934.4883,0.013920
1936.3520,0.013846
1938.2157,0.013919
1940.0793,0.013875
1941.9430,0.013974
1943.8067,0.013167
1945.6704,0.012104
1947.5340,0.011380
1949.3977,0.011363
1951.2614,0.011362
1953.1250,0.011706
1954.9887,0.010946
1956.8524,0.010733
1958.7160,0.010139
1960.5797,0.009624
1962.4434,0.008910
1964.3070,0.008165
1966.1707,0.006940
1968.0344,0.005665
1969.8980,0.004557
1971.7617,0.005435
1973.6254,0.006193
1975.4891,0.006794
1977.3527,0.006412
1979.2164,0.007230
1981.0801,0.007828
1982.9437,0.008893
1984.8074,0.009335
1986.6711,0.009426
1988.5347,0.008729
1990.3984,0.009063
1992.2621,0.008706
1994.1257,0.008888
1995.9894,0.009267
1997.8531,0.010169
1999.7167,0.010777
2001.5804,0.010451
2003.4441,0.009144
2005.3078,0.008301
2007.1714,0.007694
2009.0351,0.007882
2010.8988,0.007948
2012.7624,0.008039
2014.6261,0.007823
2016.4898,0.008068
2018.3534,0.007527
2020.2171,0.008343
2022.0808,0.008989
2023.9444,0.009360
2025.8081,0.007716
2027.6718,0.006962
2029.5355,0.006180
2031.3991,0.007536
2033.2628,0.009240
2035.1265,0.009548
2036.9901,0.008683
2038.8538,0.009150
2040.7175,0.008721
2042.5811,0.008264
2044.4448,0.009407
2046.3085,0.011641
2048.1721,0.012007
2050.0358,0.012130
2051.8995,0.012516
2053.7631,0.013078
2055.6268,0.012588
2057.4905,0.012649
2059.3542,0.012799
2061.2178,0.013631
2063.0815,0.014241
2064.9452,0.013837
2066.8088,0.013000
2068.6725,0.013298
2070.5362,0.013631
2072.3998,0.014644
2074.2635,0.014929
2076.1272,0.014885
2077.9908,0.014724
2079.8545,0.014870
2081.7182,0.015103
2083.5819,0.015333
2085.4455,0.015273
2087.3092,0.014824
2089.1729,0.015002
2091.0365,0.015558
2092.9002,0.015317
2094.7639,0.015360
2096.6275,0.015301
2098.4912,0.015449
2100.3549,0.015435
2102.2185,0.015965
2104.0822,0.015107
2105.9459,0.014576
2107.8095,0.015311
2109.6732,0.016071
2111.5369,0.015800
2113.4006,0.015972
2115.2642,0.016258
2117.1279,0.016173
2118.9916,0.016008
2120.8552,0.016364
2122.7189,0.015855
2124.5826,0.015750
2126.4462,0.015642
2128.3099,0.015375
2130.1736,0.014392
2132.0372,0.014074
2133.9009,0.013976
2135.7646,0.014472
2137.6282,0.013910
2139.4919,0.013120
2141.3556,0.012948
2143.2193,0.013366
2145.0829,0.012041
2146.9466,0.011299
2148.8103,0.010723
2150.6739,0.010214
2152.5376,0.010041
2154.4013,0.009403
2156.2649,0.007428
2158.1286,0.007094
2159.9923,0.007990
2161.8559,0.009403
2163.7196,0.007963
2165.5833,0.009517
2167.4470,0.011098
2169.3106,0.010698
2171.1743,0.010640
2173.0380,0.012515
2174.9016,0.012098
2176.7653,0.010579
2178.6290,0.010055
2180.4926,0.011692
2182.3563,0.012655
2184.2200,0.012762
2186.0836,0.012552
2187.9473,0.012524
2189.8110,0.012368
2191.6746,0.013195
2193.5383,0.013236
2195.4020,0.012984
2197.2657,0.013279
2199.1293,0.013967
2200.9930,0.014382
2202.8567,0.014682
2204.7203,0.014945
2206.5840,0.015175
2208.4477,0.015276
2210.3113,0.015803
2212.1750,0.015203
2214.0387,0.014703
2215.9023,0.015216
2217.7660,0.015947
2219.6297,0.015477
2221.4934,0.015615
2223.3570,0.016170
2225.2207,0.016431
2227.0844,0.016387
2228.9480,0.016657
2230.8117,0.017337
2232.6754,0.017695
2234.5390,0.017655
2236.4027,0.018355
2238.2664,0.018389
2240.1300,0.018467
2241.9937,0.018792
2243.8574,0.019160
2245.7210,0.018750
2247.5847,0.018512
2249.4484,0.018507
2251.3121,0.018723
2253.1757,0.019349
2255.0394,0.020209
2256.9031,0.020334
2258.7667,0.020589
2260.6304,0.020804
2262.4941,0.020997
2264.3577,0.021032
2266.2214,0.020781
2268.0851,0.021110
2269.9487,0.021772
2271.8124,0.022229
2273.6761,0.022655
2275.5397,0.023066
2277.4034,0.023166
2279.2671,0.022923
2281.1308,0.023042
2282.9944,0.023539
2284.8581,0.023946
2286.7218,0.023951
2288.5854,0.024057
2290.4491,0.024018
2292.3128,0.024107
2294.1764,0.023791
2296.0401,0.023866
2297.9038,0.024210
2299.7674,0.024206
2301.6311,0.024216
2303.4948,0.024528
2305.3585,0.024852
2307.2221,0.025035
2309.0858,0.024684
2310.9495,0.024780
2312.8131,0.025071
2314.6768,0.024913
2316.5405,0.024851
2318.4041,0.024928
2320.2678,0.025152
2322.1315,0.025529
2323.9951,0.025701
2325.8588,0.025172
2327.7225,0.024113
2329.5861,0.023737
2331.4498,0.023991
2333.3135,0.023943
2335.1772,0.023861
2337.0408,0.023811
2338.9045,0.023992
2340.7682,0.024288
2342.6318,0.024096
2344.4955,0.024072
2346.3592,0.024418
2348.2228,0.024276
2350.0865,0.024350
2351.9502,0.024481
2353.8138,0.024098
2355.6775,0.023843
2357.5412,0.023618
2359.4049,0.023657
2361.2685,0.024251
2363.1322,0.024279
2364.9959,0.024196
2366.8595,0.024635
2368.7232,0.024488
2370.5869,0.024722
2372.4505,0.024959
2374.3142,0.024774
2376.1779,0.024869
2378.0415,0.025168
2379.9052,0.025303
2381.7689,0.025575
2383.6325,0.025710
2385.4962,0.025819
2387.3599,0.025771
2389.2236,0.025635
2391.0872,0.025719
2392.9509,0.025802
2394.8146,0.025708
2396.6782,0.025782
2398.5419,0.025728
2400.4056,0.025939
2402.2692,0.026143
2404.1329,0.026154
2405.9966,0.026134
2407.8602,0.026100
2409.7239,0.026167
2411.5876,0.026322
2413.4512,0.026577
2415.3149,0.026774
2417.1786,0.026767
2419.0423,0.026786
2420.9059,0.026700
2422.7696,0.026758
2424.6333,0.026846
2426.4969,0.026906
2428.3606,0.026810
2430.2243,0.026967
2432.0879,0.026743
2433.9516,0.026810
2435.8153,0.027267
2437.6789,0.027505
2439.5426,0.027304
2441.4063,0.027239
2443.2700,0.027232
2445.1336,0.027346
2446.9973,0.027022
2448.8610,0.026759
2450.7246,0.026955
2452.5883,0.026893
2454.4520,0.026748
2456.3156,0.026844
2458.1793,0.027018
2460.0430,0.027120
2461.9066,0.026604
2463.7703,0.026639
2465.6340,0.026680
2467.4976,0.026696
2469.3613,0.026814
2471.2250,0.026634
2473.0887,0.026537
2474.9523,0.026595
2476.8160,0.026812
2478.6797,0.026585
2480.5433,0.026230
2482.4070,0.026531
2484.2707,0.026762
2486.1343,0.026930
2487.9980,0.027100
2489.8617,0.027370
2491.7253,0.027395
2493.5890,0.027616
2495.4527,0.027724
2497.3164,0.027510
2499.1800,0.027531
2501.0437,0.027805
2502.9074,0.027858
2504.7710,0.028009
2506.6347,0.028390
2508.4984,0.028134
2510.3620,0.027532
2512.2257,0.027747
2514.0894,0.028055
2515.9530,0.027967
2517.8167,0.028181
2519.6804,0.028455
2521.5440,0.028532
2523.4077,0.028474
2525.2714,0.028243
2527.1351,0.028467
2528.9987,0.028616
2530.8624,0.028939
2532.7261,0.028993
2534.5897,0.028538
2536.4534,0.028042
2538.3171,0.028305
2540.1807,0.028562
2542.0444,0.028559
2543.9081,0.028405
2545.7717,0.028329
2547.6354,0.028321
2549.4991,0.028593
2551.3627,0.028810
2553.2264,0.028579
2555.0901,0.028510
2556.9538,0.028321
2558.8174,0.027986
2560.6811,0.027997
2562.5448,0.028178
2564.4084,0.028500
2566.2721,0.028353
2568.1358,0.028553
2569.9994,0.028935
2571.8631,0.028740
2573.7268,0.028641
2575.5904,0.028973
2577.4541,0.029013
2579.3178,0.029290
2581.1815,0.029387
2583.0451,0.029273
2584.9088,0.029493
2586.7725,0.029785
2588.6361,0.029673
2590.4998,0.029517
2592.3635,0.029828
2594.2271,0.030006
2596.0908,0.030105
2597.9545,0.030189
2599.8181,0.030327
2601.6818,0.030461
2603.5455,0.030480
2605.4091,0.030981
2607.2728,0.031086
2609.1365,0.030791
2611.0002,0.030813
2612.8638,0.030943
2614.7275,0.030921
2616.5912,0.031034
2618.4548,0.031037
2620.3185,0.030999
2622.1822,0.031013
2624.0458,0.031317
2625.9095,0.031749
2627.7732,0.032090
2629.6368,0.032476
2631.5005,0.032806
2633.3642,0.032940
2635.2279,0.032999
2637.0915,0.033131
2638.9552,0.033283
2640.8189,0.033521
2642.6825,0.033629
2644.5462,0.033750
2646.4099,0.033664
2648.2735,0.033659
2650.1372,0.034077
2652.0009,0.034316
2653.8645,0.034322
2655.7282,0.034421
2657.5919,0.034516
2659.4555,0.034454
2661.3192,0.034198
2663.1829,0.034161
2665.0466,0.034294
2666.9102,0.034363
2668.7739,0.034436
2670.6376,0.034560
2672.5012,0.034635
2674.3649,0.034799
2676.2286,0.034871
2678.0922,0.034928
2679.9559,0.035161
2681.8196,0.035502
2683.6832,0.035578
2685.5469,0.035523
2687.4106,0.035762
2689.2742,0.035930
2691.1379,0.035835
2693.0016,0.035942
2694.8653,0.036408
2696.7289,0.036745
2698.5926,0.036934
2700.4563,0.037056
2702.3199,0.037345
2704.1836,0.037518
2706.0473,0.037642
2707.9109,0.037873
2709.7746,0.038277
2711.6383,0.038626
2713.5019,0.038814
2715.3656,0.039024
2717.2293,0.039347
2719.0930,0.039585
2720.9566,0.039754
2722.8203,0.040201
2724.6840,0.040805
2726.5476,0.041126
2728.4113,0.041468
2730.2750,0.041806
2732.1386,0.042017
2734.0023,0.042295
2735.8660,0.042744
2737.7296,0.043138
2739.5933,0.043490
2741.4570,0.044055
2743.3206,0.044629
2745.1843,0.045026
2747.0480,0.045469
2748.9117,0.046127
2750.7753,0.046849
2752.6390,0.047318
2754.5027,0.047354
2756.3663,0.047767
2758.2300,0.048444
2760.0937,0.048927
2761.9573,0.049275
2763.8210,0.049777
2765.6847,0.050429
2767.5483,0.051023
2769.4120,0.051549
2771.2757,0.052184
2773.1394,0.052688
2775.0030,0.053220
2776.8667,0.053931
2778.7304,0.054422
2780.5940,0.054441
2782.4577,0.054621
2784.3214,0.054766
2786.1850,0.054588
2788.0487,0.054224
2789.9124,0.054227
2791.7760,0.054217
2793.6397,0.053466
2795.5034,0.052498
2797.3670,0.051832
2799.2307,0.051578
2801.0944,0.051340
2802.9581,0.050805
2804.8217,0.050320
2806.6854,0.049865
2808.5491,0.049597
2810.4127,0.049376
2812.2764,0.049412
2814.1401,0.049306
2816.0037,0.048932
2817.8674,0.048791
2819.7311,0.049032
2821.5947,0.049363
2823.4584,0.049501
2825.3221,0.049454
2827.1857,0.049303
2829.0494,0.048978
2830.9131,0.048615
2832.7768,0.048386
2834.6404,0.048291
2836.5041,0.048384
2838.3678,0.048846
2840.2314,0.048998
2842.0951,0.049201
2843.9588,0.049640
2845.8224,0.049992
2847.6861,0.050419
2849.5498,0.050874
2851.4134,0.051419
2853.2771,0.052110
2855.1408,0.052563
2857.0045,0.053234
2858.8681,0.054029
2860.7318,0.054470
2862.5955,0.054787
2864.4591,0.055302
2866.3228,0.055829
2868.1865,0.056147
2870.0501,0.056089
2871.9138,0.056077
2873.7775,0.056369
2875.6411,0.056895
2877.5048,0.057431
2879.3685,0.057958
2881.2321,0.058239
2883.0958,0.058510
2884.9595,0.059144
2886.8232,0.059825
2888.6868,0.060229
2890.5505,0.060628
2892.4142,0.061001
2894.2778,0.061316
2896.1415,0.061497
2898.0052,0.061905
2899.8688,0.062259
2901.7325,0.062260
2903.5962,0.062357
2905.4598,0.062535
2907.3235,0.062649
2909.1872,0.063055
2911.0509,0.063278
2912.9145,0.063622
2914.7782,0.064376
2916.6419,0.065140
2918.5055,0.065660
2920.3692,0.066270
2922.2329,0.067029
2924.0965,0.067649
2925.9602,0.067922
2927.8239,0.068165
2929.6875,0.068603
2931.5512,0.069246
2933.4149,0.070099
2935.2785,0.070633
2937.1422,0.070785
2939.0059,0.071117
2940.8696,0.071289
2942.7332,0.071591
2944.5969,0.071899
2946.4606,0.072343
2948.3242,0.072906
2950.1879,0.073085
2952.0516,0.073189
2953.9152,0.073545
2955.7789,0.073957
2957.6426,0.074429
2959.5062,0.074946
2961.3699,0.075578
2963.2336,0.076182
2965.0972,0.076965
2966.9609,0.078027
2968.8246,0.079035
2970.6883,0.079538
2972.5519,0.080150
2974.4156,0.080690
2976.2793,0.081235
2978.1429,0.081726
2980.0066,0.082126
2981.8703,0.082319
2983.7339,0.082348
2985.5976,0.082613
2987.4613,0.083341
2989.3249,0.084348
2991.1886,0.085218
2993.0523,0.085966
2994.9160,0.086679
2996.7796,0.087060
2998.6433,0.087788
3000.5070,0.088571
3002.3706,0.089351
3004.2343,0.089999
3006.0980,0.090814
3007.9616,0.091650
3009.8253,0.092162
3011.6890,0.092822
3013.5526,0.093822
3015.4163,0.094438
3017.2800,0.094912
3019.1436,0.095276
3021.0073,0.095491
3022.8710,0.095905
3024.7347,0.096327
3026.5983,0.096702
3028.4620,0.097232
3030.3257,0.097454
3032.1893,0.097742
3034.0530,0.097962
3035.9167,0.098250
3037.7803,0.098409
3039.6440,0.098458
3041.5077,0.098796
3043.3713,0.099348
3045.2350,0.099941
3047.0987,0.100505
3048.9624,0.100492
3050.8260,0.100684
3052.6897,0.101028
3054.5534,0.101164
3056.4170,0.101043
3058.2807,0.101261
3060.1444,0.101345
3062.0080,0.101268
3063.8717,0.101768
3065.7354,0.102418
3067.5990,0.102075
3069.4627,0.101848
3071.3264,0.101780
3073.1900,0.101580
3075.0537,0.101307
3076.9174,0.100974
3078.7811,0.100562
3080.6447,0.100482
3082.5084,0.100210
3084.3721,0.099680
3086.2357,0.099422
3088.0994,0.099248
3089.9631,0.098335
3091.8267,0.097198
3093.6904,0.096300
3095.5541,0.095960
3097.4177,0.095381
3099.2814,0.094080
3101.1451,0.093064
3103.0087,0.092281
3104.8724,0.091101
3106.7361,0.090447
3108.5998,0.089810
3110.4634,0.088892
3112.3271,0.088098
3114.1908,0.087078
3116.0544,0.086187
3117.9181,0.085973
3119.7818,0.085373
3121.6454,0.084311
3123.5091,0.083115
3125.3728,0.081674
3127.2364,0.080704
3129.1001,0.079899
3130.9638,0.078934
3132.8275,0.078712
3134.6911,0.078232
3136.5548,0.077221
3138.4185,0.076714
3140.2821,0.076808
3142.1458,0.076905
3144.0095,0.076290
3145.8731,0.074782
3147.7368,0.073771
3149.6005,0.073414
3151.4641,0.073549
3153.3278,0.073982
3155.1915,0.073810
3157.0551,0.072863
3158.9188,0.071891
3160.7825,0.071265
3162.6462,0.070829
3164.5098,0.070286
3166.3735,0.070136
3168.2372,0.069688
3170.1008,0.068979
3171.9645,0.068585
3173.8282,0.067750
3175.6918,0.066862
3177.5555,0.066848
3179.4192,0.066676
3181.2828,0.066169
3183.1465,0.066278
3185.0102,0.066646
3186.8739,0.066474
3188.7375,0.066014
3190.6012,0.065923
3192.4649,0.066310
3194.3285,0.066302
3196.1922,0.066431
3198.0559,0.066712
3199.9195,0.066700
3201.7832,0.066294
3203.6469,0.065979
3205.5105,0.066099
3207.3742,0.065822
3209.2379,0.065678
3211.1015,0.066209
3212.9652,0.066022
3214.8289,0.066047
3216.6926,0.066215
3218.5562,0.066300
3220.4199,0.067327
3222.2836,0.067934
3224.1472,0.067345
3226.0109,0.066939
3227.8746,0.067048
3229.7382,0.067093
3231.6019,0.067318
3233.4656,0.068109
3235.3292,0.068524
3237.1929,0.068458
3239.0566,0.068550
3240.9202,0.068669
3242.7839,0.068805
3244.6476,0.069003
3246.5113,0.069240
3248.3749,0.069583
3250.2386,0.070344
3252.1023,0.071502
3253.9659,0.071701
3255.8296,0.071622
3257.6933,0.072183
3259.5569,0.072689
3261.4206,0.073089
3263.2843,0.072427
3265.1479,0.072219
3267.0116,0.073444
3268.8753,0.073473
3270.7390,0.072988
3272.6026,0.073233
3274.4663,0.073505
3276.3300,0.073451
3278.1936,0.072944
3280.0573,0.072605
3281.9210,0.072510
3283.7846,0.071927
3285.6483,0.071565
3287.5120,0.071531
3289.3756,0.071163
3291.2393,0.070130
3293.1030,0.069311
3294.9666,0.068903
3296.8303,0.068024
3298.6940,0.066713
3300.5577,0.065638
3302.4213,0.064870
3304.2850,0.064374
3306.1487,0.063899
3308.0123,0.063727
3309.8760,0.063826
3311.7397,0.063650
3313.6033,0.063216
3315.4670,0.062669
3317.3307,0.062136
3319.1943,0.061786
3321.0580,0.061931
3322.9217,0.062474
3324.7854,0.062539
3326.6490,0.062624
3328.5127,0.063401
3330.3764,0.063811
3332.2400,0.063295
3334.1037,0.062791
3335.9674,0.063077
3337.8310,0.063204
3339.6947,0.061934
3341.5584,0.060890
3343.4220,0.060010
3345.2857,0.058331
3347.1494,0.056603
3349.0130,0.055313
3350.8767,0.055043
3352.7404,0.054505
3354.6041,0.052833
3356.4677,0.051631
3358.3314,0.050623
3360.1951,0.049644
3362.0587,0.049274
3363.9224,0.048824
3365.7861,0.048364
3367.6497,0.048310
3369.5134,0.048046
3371.3771,0.047775
3373.2407,0.048101
3375.1044,0.048295
3376.9681,0.048233
3378.8317,0.048530
3380.6954,0.048645
3382.5591,0.048500
3384.4228,0.048829
3386.2864,0.048935
3388.1501,0.048481
3390.0138,0.048549
3391.8774,0.049473
3393.7411,0.051075
3395.6048,0.051654
3397.4684,0.051644
3399.3321,0.052345
3401.1958,0.052190
3403.0594,0.051502
3404.9231,0.050625
3406.7868,0.049146
3408.6505,0.048147
3410.5141,0.046887
3412.3778,0.045351
3414.2415,0.044229
3416.1051,0.042378
3417.9688,0.040861
3419.8325,0.039676
3421.6961,0.037426
3423.5598,0.035380
3425.4235,0.034526
3427.2871,0.034747
3429.1508,0.034324
3431.0145,0.031813
3432.8781,0.029647
3434.7418,0.029328
3436.6055,0.029405
3438.4692,0.029469
3440.3328,0.028971
3442.1965,0.027919
3444.0602,0.027312
3445.9238,0.027164
3447.7875,0.026719
3449.6512,0.026023
3451.5148,0.025323
3453.3785,0.025291
3455.2422,0.025703
3457.1058,0.024961
3458.9695,0.023686
3460.8332,0.023091
3462.6969,0.022708
3464.5605,0.022347
3466.4242,0.022518
3468.2879,0.022118
3470.1515,0.021400
3472.0152,0.021854
3473.8789,0.021771
3475.7425,0.021000
3477.6062,0.020263
3479.4699,0.018980
3481.3335,0.018275
3483.1972,0.018175
3485.0609,0.017769
3486.9245,0.017667
3488.7882,0.017829
3490.6519,0.017251
3492.5156,0.016597
3494.3792,0.016445
3496.2429,0.016533
3498.1066,0.016571
3499.9702,0.015815
3501.8339,0.015221
3503.6976,0.015679
3505.5612,0.014854
3507.4249,0.013743
3509.2886,0.014481
3511.1522,0.015324
3513.0159,0.014574
3514.8796,0.012948
3516.7432,0.012239
3518.6069,0.012237
3520.4706,0.012581
3522.3343,0.012488
3524.1979,0.011420
3526.0616,0.010432
3527.9253,0.009841
3529.7889,0.010071
3531.6526,0.010444
3533.5163,0.009913
3535.3799,0.009499
3537.2436,0.010052
3539.1073,0.010299
3540.9709,0.009385
3542.8346,0.008674
3544.6983,0.008122
3546.5620,0.007517
3548.4256,0.007889
3550.2893,0.008907
3552.1530,0.009300
3554.0166,0.009024
3555.8803,0.008743
3557.7440,0.008548
3559.6076,0.008054
3561.4713,0.007372
3563.3350,0.007423
3565.1986,0.007893
3567.0623,0.007922
3568.9260,0.007209
3570.7896,0.006331
3572.6533,0.006400
3574.5170,0.007520
3576.3807,0.008607
3578.2443,0.007806
3580.1080,0.006727
3581.9717,0.006661
3583.8353,0.006895
3585.6990,0.006714
3587.5627,0.006240
3589.4263,0.006333
3591.2900,0.006800
3593.1537,0.007307
3595.0173,0.007632
3596.8810,0.007127
3598.7447,0.006488
3600.6084,0.006191
3602.4720,0.006726
3604.3357,0.007457
3606.1994,0.007298
3608.0630,0.006588
3609.9267,0.005527
3611.7904,0.005730
3613.6540,0.006308
3615.5177,0.005769
3617.3814,0.005888
3619.2450,0.006148
3621.1087,0.006294
3622.9724,0.007124
3624.8360,0.007699
3626.6997,0.007457
3628.5634,0.006967
3630.4271,0.006210
3632.2907,0.005669
3634.1544,0.006071
3636.0181,0.006430
3637.8817,0.007097
3639.7454,0.007851
3641.6091,0.007863
3643.4727,0.007467
3645.3364,0.007641
3647.2001,0.007170
3649.0637,0.005628
3650.9274,0.004617
3652.7911,0.005354
3654.6547,0.006925
3656.5184,0.007654
3658.3821,0.007653
3660.2458,0.007389
3662.1094,0.006955
3663.9731,0.007138
3665.8368,0.007924
3667.7004,0.008171
3669.5641,0.007649
3671.4278,0.007155
3673.2914,0.007251
3675.1551,0.006966
3677.0188,0.005758
3678.8824,0.005541
3680.7461,0.006288
3682.6098,0.007117
3684.4735,0.007627
3686.3371,0.007379
3688.2008,0.007447
3690.0645,0.007502
3691.9281,0.006838
3693.7918,0.007318
3695.6555,0.008057
3697.5191,0.008444
3699.3828,0.008442
3701.2465,0.007996
3703.1101,0.007579
3704.9738,0.007576
3706.8375,0.007656
3708.7011,0.007390
3710.5648,0.007617
3712.4285,0.008015
3714.2922,0.007698
3716.1558,0.007840
3718.0195,0.008085
3719.8832,0.008289
3721.7468,0.008743
3723.6105,0.008350
3725.4742,0.007687
3727.3378,0.007587
3729.2015,0.007638
3731.0652,0.007719
3732.9288,0.007647
3734.7925,0.006435
3736.6562,0.004859
3738.5199,0.005738
3740.3835,0.007648
3742.2472,0.007666
3744.1109,0.006975
3745.9745,0.007126
3747.8382,0.007714
3749.7019,0.008149
3751.5655,0.007629
3753.4292,0.006802
3755.2929,0.007713
3757.1565,0.008521
3759.0202,0.008996
3760.8839,0.008853
3762.7475,0.008399
3764.6112,0.008852
3766.4749,0.008947
3768.3386,0.008289
3770.2022,0.008598
3772.0659,0.009319
3773.9296,0.009941
3775.7932,0.010067
3777.6569,0.009719
3779.5206,0.009446
3781.3842,0.009386
3783.2479,0.009517
3785.1116,0.009354
3786.9752,0.009378
3788.8389,0.009521
3790.7026,0.009799
3792.5662,0.009705
3794.4299,0.009442
3796.2936,0.009808
3798.1573,0.009403
3800.0209,0.008503
3801.8846,0.008448
3803.7483,0.008473
3805.6119,0.008872
3807.4756,0.009188
3809.3393,0.008784
3811.2029,0.009041
3813.0666,0.009714
3814.9303,0.009344
3816.7939,0.008857
3818.6576,0.009018
3820.5213,0.009164
3822.3850,0.009445
3824.2486,0.009854
3826.1123,0.009777
3827.9760,0.009394
3829.8396,0.009104
3831.7033,0.009004
3833.5670,0.008880
3835.4306,0.008782
3837.2943,0.008603
3839.1580,0.008754
3841.0216,0.008771
3842.8853,0.008722
3844.7490,0.009313
3846.6126,0.009441
3848.4763,0.009489
3850.3400,0.009405
3852.2037,0.008962
3854.0673,0.008978
3855.9310,0.008812
3857.7947,0.008526
3859.6583,0.008781
3861.5220,0.009142
3863.3857,0.009330
3865.2493,0.009445
3867.1130,0.009595
3868.9767,0.009679
3870.8403,0.009683
3872.7040,0.009466
3874.5677,0.009955
3876.4314,0.010525
3878.2950,0.010442
3880.1587,0.010393
3882.0224,0.010396
3883.8860,0.010095
3885.7497,0.009835
3887.6134,0.009579
3889.4770,0.009892
3891.3407,0.010614
3893.2044,0.010607
3895.0680,0.009772
3896.9317,0.009564
3898.7954,0.009509
3900.6590,0.009357
3902.5227,0.009360
3904.3864,0.009590
3906.2501,0.010088
3908.1137,0.010416
3909.9774,0.010470
3911.8411,0.010623
3913.7047,0.010656
3915.5684,0.010595
3917.4321,0.010892
3919.2957,0.011167
3921.1594,0.011281
3923.0231,0.011071
3924.8867,0.011013
3926.7504,0.011471
3928.6141,0.011512
3930.4777,0.011346
3932.3414,0.010980
3934.2051,0.010646
3936.0688,0.010618
3937.9324,0.010550
3939.7961,0.010369
3941.6598,0.010656
3943.5234,0.011008
3945.3871,0.011032
3947.2508,0.010836
3949.1144,0.011222
3950.9781,0.011721
3952.8418,0.011458
3954.7054,0.011417
3956.5691,0.011747
3958.4328,0.011721
3960.2965,0.011340
3962.1601,0.011212
3964.0238,0.011061
3965.8875,0.010996
3967.7511,0.011274
3969.6148,0.011348
3971.4785,0.011130
3973.3421,0.011238
3975.2058,0.011023
3977.0695,0.010852
3978.9331,0.011106
3980.7968,0.011385
3982.6605,0.011391
3984.5241,0.011622
3986.3878,0.011958
3988.2515,0.011636
3990.1152,0.011352
3991.9788,0.011581
3993.8425,0.011666
3995.7062,0.011592
3997.5698,0.011701
3999.4335,0.012132
