Wavenumber,Intensity
650.4205,0.248574
652.2841,0.242292
654.1478,0.238107
656.0115,0.231134
657.8751,0.223335
659.7388,0.217622
661.6025,0.215526
663.4661,0.214571
665.3298,0.212474
667.1935,0.210246
669.0571,0.211988
670.9208,0.211636
672.7845,0.212011
674.6481,0.213632
676.5118,0.216521
678.3755,0.216505
680.2392,0.215173
682.1028,0.215098
683.9665,0.216433
685.8302,0.215405
687.6938,0.212570
689.5575,0.211765
691.4212,0.211627
693.2848,0.210746
695.1485,0.211467
697.0122,0.212165
698.8758,0.209645
700.7395,0.207192
702.6032,0.205562
704.4669,0.201806
706.3305,0.196014
708.1942,0.187200
710.0579,0.177511
711.9215,0.167116
713.7852,0.156971
715.6489,0.148450
717.5125,0.141778
719.3762,0.134821
721.2399,0.128366
723.1035,0.123136
724.9672,0.117811
726.8309,0.112174
728.6945,0.107853
730.5582,0.103821
732.4219,0.099558
734.2856,0.095785
736.1492,0.092643
738.0129,0.091296
739.8766,0.092249
741.7402,0.094663
743.6039,0.097366
745.4676,0.098826
747.3312,0.099080
749.1949,0.098759
751.0586,0.098160
752.9222,0.097514
754.7859,0.097052
756.6496,0.096726
758.5132,0.096424
760.3769,0.095862
762.2406,0.095837
764.1043,0.095764
765.9679,0.095658
767.8316,0.095860
769.6953,0.096495
771.5589,0.097567
773.4226,0.098643
775.2863,0.099560
777.1499,0.100702
779.0136,0.102339
780.8773,0.104057
782.7409,0.105980
784.6046,0.108546
786.4683,0.111046
788.3320,0.113436
790.1956,0.116204
792.0593,0.118913
793.9230,0.121550
795.7866,0.124659
797.6503,0.127402
799.5140,0.129707
801.3776,0.131686
803.2413,0.133305
805.1050,0.134393
806.9686,0.134490
808.8323,0.133098
810.6960,0.130786
812.5596,0.127759
814.4233,0.124502
816.2870,0.121644
818.1507,0.119290
820.0143,0.117422
821.8780,0.116288
823.7417,0.116253
825.6053,0.117402
827.4690,0.119470
829.3327,0.120301
831.1963,0.113285
833.0600,0.098244
834.9237,0.084709
836.7873,0.077149
838.6510,0.073287
840.5147,0.071059
842.3784,0.069597
844.2420,0.068729
846.1057,0.068472
847.9694,0.068483
849.8330,0.067677
851.6967,0.065732
853.5604,0.063988
855.4240,0.062873
857.2877,0.062433
859.1514,0.062468
861.0150,0.062311
862.8787,0.062255
864.7424,0.062456
866.6060,0.062542
868.4697,0.062617
870.3334,0.062874
872.1971,0.063229
874.0607,0.063607
875.9244,0.064017
877.7881,0.064325
879.6517,0.064829
881.5154,0.065358
883.3791,0.065687
885.2427,0.066113
887.1064,0.066659
888.9701,0.067257
890.8337,0.068003
892.6974,0.068961
894.5611,0.069863
896.4247,0.070940
898.2884,0.072377
900.1521,0.073967
902.0158,0.076107
903.8794,0.079067
905.7431,0.082892
907.6068,0.087703
909.4704,0.093289
911.3341,0.100222
913.1978,0.108516
915.0614,0.112580
916.9251,0.104102
918.7888,0.087322
920.6524,0.074401
922.5161,0.068813
924.3798,0.067340
926.2435,0.067288
928.1071,0.067613
929.9708,0.068173
931.8345,0.068902
933.6981,0.069726
935.5618,0.070549
937.4255,0.071350
939.2891,0.072277
941.1528,0.073148
943.0165,0.073986
944.8801,0.074880
946.7438,0.075809
948.6075,0.076883
950.4711,0.078130
952.3348,0.079320
954.1985,0.080342
956.0622,0.081516
957.9258,0.082966
959.7895,0.084455
961.6532,0.085936
963.5168,0.087674
965.3805,0.089787
967.2442,0.092266
969.1078,0.095087
970.9715,0.098103
972.8352,0.101676
974.6988,0.107306
976.5625,0.117088
978.4262,0.134074
980.2899,0.158374
982.1535,0.168716
984.0172,0.141655
985.8809,0.104730
987.7445,0.087327
989.6082,0.083871
991.4719,0.083670
993.3355,0.083950
995.1992,0.084225
997.0629,0.084416
998.9265,0.084611
1000.7902,0.084697
1002.6539,0.084759
1004.5175,0.084977
1006.3812,0.085177
1008.2449,0.085386
1010.1086,0.085720
1011.9722,0.086126
1013.8359,0.086690
1015.6996,0.087460
1017.5632,0.088244
1019.4269,0.089074
1021.2906,0.090233
1023.1542,0.091645
1025.0179,0.093293
1026.8816,0.095235
1028.7452,0.097241
1030.6089,0.098962
1032.4726,0.099429
1034.3362,0.098533
1036.1999,0.098257
1038.0636,0.100137
1039.9273,0.103922
1041.7909,0.108792
1043.6546,0.114197
1045.5183,0.119205
1047.3819,0.122077
1049.2456,0.120961
1051.1093,0.114875
1052.9729,0.105404
1054.8366,0.096536
1056.7003,0.091009
1058.5639,0.088683
1060.4276,0.088319
1062.2913,0.088764
1064.1550,0.089583
1066.0186,0.090958
1067.8823,0.092688
1069.7460,0.094428
1071.6096,0.096353
1073.4733,0.098510
1075.3370,0.100626
1077.2006,0.102816
1079.0643,0.105288
1080.9280,0.107991
1082.7916,0.110900
1084.6553,0.114166
1086.5190,0.117891
1088.3826,0.121983
1090.2463,0.126492
1092.1100,0.131520
1093.9737,0.137238
1095.8373,0.143788
1097.7010,0.150872
1099.5647,0.158400
1101.4283,0.166352
1103.2920,0.173787
1105.1557,0.179137
1107.0193,0.180655
1108.8830,0.176449
1110.7467,0.166390
1112.6103,0.152794
1114.4740,0.138438
1116.3377,0.125361
1118.2014,0.114667
1120.0650,0.106766
1121.9287,0.101524
1123.7924,0.098185
1125.6560,0.095721
1127.5197,0.093401
1129.3834,0.091044
1131.2470,0.088882
1133.1107,0.086968
1134.9744,0.085415
1136.8380,0.084365
1138.7017,0.083714
1140.5654,0.083459
1142.4290,0.083528
1144.2927,0.083707
1146.1564,0.083911
1148.0201,0.084195
1149.8837,0.084576
1151.7474,0.085085
1153.6111,0.085818
1155.4747,0.086685
1157.3384,0.087743
1159.2021,0.089191
1161.0657,0.090961
1162.9294,0.093087
1164.7931,0.095858
1166.6567,0.099481
1168.5204,0.103836
1170.3841,0.108345
1172.2477,0.111676
1174.1114,0.111800
1175.9751,0.107846
1177.8388,0.101864
1179.7024,0.096758
1181.5661,0.093706
1183.4298,0.092355
1185.2934,0.091907
1187.1571,0.091896
1189.0208,0.091933
1190.8844,0.091795
1192.7481,0.091704
1194.6118,0.091672
1196.4754,0.091715
1198.3391,0.091992
1200.2028,0.092348
1202.0665,0.092658
1203.9301,0.093029
1205.7938,0.093401
1207.6575,0.093768
1209.5211,0.094248
1211.3848,0.094807
1213.2485,0.095322
1215.1121,0.095774
1216.9758,0.096263
1218.8395,0.096751
1220.7031,0.097165
1222.5668,0.097533
1224.4305,0.098000
1226.2941,0.098584
1228.1578,0.099119
1230.0215,0.099668
1231.8852,0.100207
1233.7488,0.100718
1235.6125,0.101240
1237.4762,0.101815
1239.3398,0.102496
1241.2035,0.103154
1243.0672,0.103823
1244.9308,0.104559
1246.7945,0.105324
1248.6582,0.106102
1250.5218,0.106838
1252.3855,0.107617
1254.2492,0.108488
1256.1129,0.109407
1257.9765,0.110476
1259.8402,0.111732
1261.7039,0.113028
1263.5675,0.114239
1265.4312,0.115328
1267.2949,0.115988
1269.1585,0.116033
1271.0222,0.115809
1272.8859,0.115683
1274.7495,0.115842
1276.6132,0.116377
1278.4769,0.117287
1280.3405,0.118582
1282.2042,0.120158
1284.0679,0.121940
1285.9316,0.124067
1287.7952,0.126704
1289.6589,0.129782
1291.5226,0.133267
1293.3862,0.137409
1295.2499,0.142362
1297.1136,0.148285
1298.9772,0.155359
1300.8409,0.163996
1302.7046,0.173281
1304.5682,0.180001
1306.4319,0.179395
1308.2956,0.166470
1310.1592,0.142434
1312.0229,0.117716
1313.8866,0.101530
1315.7503,0.095273
1317.6139,0.094905
1319.4776,0.096999
1321.3413,0.099603
1323.2049,0.102280
1325.0686,0.105228
1326.9323,0.108235
1328.7959,0.111080
1330.6596,0.113633
1332.5233,0.115690
1334.3869,0.116990
1336.2506,0.117895
1338.1143,0.119523
1339.9780,0.121814
1341.8416,0.122705
1343.7053,0.122784
1345.5690,0.123495
1347.4326,0.124476
1349.2963,0.125773
1351.1600,0.127446
1353.0236,0.129547
1354.8873,0.132130
1356.7510,0.134625
1358.6146,0.136765
1360.4783,0.139819
1362.3420,0.145028
1364.2056,0.149749
1366.0693,0.152290
1367.9330,0.156054
1369.7967,0.160414
1371.6603,0.163897
1373.5240,0.169188
1375.3877,0.175505
1377.2513,0.179492
1379.1150,0.184426
1380.9787,0.190984
1382.8423,0.197816
1384.7060,0.205255
1386.5697,0.214872
1388.4333,0.225600
1390.2970,0.231313
1392.1607,0.233684
1394.0244,0.233404
1395.8880,0.226298
1397.7517,0.214971
1399.6154,0.202197
1401.4790,0.190320
1403.3427,0.179926
1405.2064,0.164227
1407.0700,0.143371
1408.9337,0.123276
1410.7974,0.104796
1412.6610,0.091560
1414.5247,0.085348
1416.3884,0.084748
1418.2520,0.089938
1420.1157,0.099623
1421.9794,0.104411
1423.8431,0.102427
1425.7067,0.092858
1427.5704,0.082331
1429.4341,0.075954
1431.2977,0.073485
1433.1614,0.073413
1435.0251,0.075257
1436.8887,0.079823
1438.7524,0.082998
1440.6161,0.084436
1442.4797,0.086991
1444.3434,0.089251
1446.2071,0.091007
1448.0707,0.092142
1449.9344,0.090494
1451.7981,0.086674
1453.6618,0.082444
1455.5254,0.080348
1457.3891,0.082795
1459.2528,0.084306
1461.1164,0.083143
1462.9801,0.083011
1464.8438,0.083868
1466.7074,0.083010
1468.5711,0.080598
1470.4348,0.079361
1472.2984,0.080295
1474.1621,0.081655
1476.0258,0.081220
1477.8895,0.080893
1479.7531,0.080633
1481.6168,0.081012
1483.4805,0.081127
1485.3441,0.081040
1487.2078,0.082050
1489.0715,0.084848
1490.9351,0.086981
1492.7988,0.086250
1494.6625,0.086038
1496.5261,0.088736
1498.3898,0.091403
1500.2535,0.091871
1502.1171,0.091100
1503.9808,0.090543
1505.8445,0.093425
1507.7082,0.102061
1509.5718,0.101746
1511.4355,0.100825
1513.2992,0.101522
1515.1628,0.102847
1517.0265,0.105171
1518.8902,0.106667
1520.7538,0.108542
1522.6175,0.112249
1524.4812,0.112393
1526.3448,0.113787
1528.2085,0.115296
1530.0722,0.115532
1531.9359,0.116903
1533.7995,0.120414
1535.6632,0.120801
1537.5269,0.120180
1539.3905,0.124588
1541.2542,0.132825
1543.1179,0.134167
1544.9815,0.135938
1546.8452,0.137425
1548.7089,0.139212
1550.5725,0.142500
1552.4362,0.144820
1554.2999,0.146512
1556.1635,0.149205
1558.0272,0.155280
1559.8909,0.169560
1561.7546,0.166976
1563.6182,0.165837
1565.4819,0.168562
1567.3456,0.171966
1569.2092,0.176930
1571.0729,0.182301
1572.9366,0.183567
1574.8002,0.187551
1576.6639,0.196019
1578.5276,0.200260
1580.3912,0.201602
1582.2549,0.205031
1584.1186,0.208235
1585.9822,0.210842
1587.8459,0.212490
1589.7096,0.213443
1591.5733,0.213508
1593.4369,0.213301
1595.3006,0.212249
1597.1643,0.210180
1599.0279,0.207475
1600.8916,0.205077
1602.7553,0.202748
1604.6189,0.200395
1606.4826,0.198122
1608.3463,0.196021
1610.2099,0.193519
1612.0736,0.189917
1613.9373,0.185352
1615.8010,0.179897
1617.6646,0.170618
1619.5283,0.161445
1621.3920,0.154710
1623.2556,0.146285
1625.1193,0.136311
1626.9830,0.127383
1628.8466,0.116737
1630.7103,0.105964
1632.5740,0.097426
1634.4376,0.089322
1636.3013,0.079877
1638.1650,0.074189
1640.0286,0.072896
1641.8923,0.071866
1643.7560,0.072023
1645.6197,0.073870
1647.4833,0.077655
1649.3470,0.079574
1651.2107,0.081445
1653.0743,0.086893
1654.9380,0.092096
1656.8017,0.091657
1658.6653,0.092208
1660.5290,0.092413
1662.3927,0.092054
1664.2563,0.090454
1666.1200,0.088530
1667.9837,0.086653
1669.8474,0.084759
1671.7110,0.083629
1673.5747,0.084376
1675.4384,0.086693
1677.3020,0.089526
1679.1657,0.092085
1681.0294,0.096114
1682.8930,0.100556
1684.7567,0.106751
1686.6204,0.108442
1688.4840,0.107647
1690.3477,0.106360
1692.2114,0.103717
1694.0750,0.100530
1695.9387,0.096693
1697.8024,0.091674
1699.6661,0.088003
1701.5297,0.079254
1703.3934,0.072271
1705.2571,0.064263
1707.1207,0.053471
1708.9844,0.046121
1710.8481,0.041102
1712.7117,0.036845
1714.5754,0.033987
1716.4391,0.031559
1718.3027,0.030177
1720.1664,0.028984
1722.0301,0.028148
1723.8937,0.026399
1725.7574,0.024336
1727.6211,0.022323
1729.4848,0.020626
1731.3484,0.019047
1733.2121,0.018217
1735.0758,0.016638
1736.9394,0.015798
1738.8031,0.015550
1740.6668,0.015202
1742.5304,0.014732
1744.3941,0.014489
1746.2578,0.013983
1748.1214,0.013645
1749.9851,0.013041
1751.8488,0.012764
1753.7125,0.012534
1755.5761,0.012577
1757.4398,0.012407
1759.3035,0.012408
1761.1671,0.012286
1763.0308,0.012120
1764.8945,0.012059
1766.7581,0.012323
1768.6218,0.012249
1770.4855,0.012063
1772.3491,0.011881
1774.2128,0.011886
1776.0765,0.011664
1777.9401,0.011794
1779.8038,0.012017
1781.6675,0.012183
1783.5312,0.012146
1785.3948,0.012454
1787.2585,0.012346
1789.1222,0.012336
1790.9858,0.012442
1792.8495,0.012641
1794.7132,0.012457
1796.5768,0.012523
1798.4405,0.012518
1800.3042,0.012727
1802.1678,0.012796
1804.0315,0.012838
1805.8952,0.012925
1807.7589,0.013292
1809.6225,0.013418
1811.4862,0.013456
1813.3499,0.013174
1815.2135,0.013239
1817.0772,0.013274
1818.9409,0.013427
1820.8045,0.013455
1822.6682,0.013543
1824.5319,0.013534
1826.3955,0.013533
1828.2592,0.013400
1830.1229,0.013412
1831.9865,0.013260
1833.8502,0.013389
1835.7139,0.013472
1837.5776,0.013619
1839.4412,0.013506
1841.3049,0.013426
1843.1686,0.013129
1845.0322,0.013070
1846.8959,0.013084
1848.7596,0.013397
1850.6232,0.013478
1852.4869,0.013680
1854.3506,0.013809
1856.2142,0.013725
1858.0779,0.013632
1859.9416,0.013969
1861.8052,0.013863
1863.6689,0.013810
1865.5326,0.013790
1867.3963,0.013874
1869.2599,0.013448
1871.1236,0.013522
1872.9873,0.013981
1874.8509,0.014086
1876.7146,0.013916
1878.5783,0.014193
1880.4419,0.014170
1882.3056,0.014541
1884.1693,0.014774
1886.0329,0.015045
1887.8966,0.014813
1889.7603,0.014836
1891.6240,0.015102
1893.4876,0.015529
1895.3513,0.015644
1897.2150,0.015493
1899.0786,0.015687
1900.9423,0.016269
1902.8060,0.016193
1904.6696,0.016218
1906.5333,0.016180
1908.3970,0.016386
1910.2606,0.016413
1912.1243,0.016502
1913.9880,0.016200
1915.8516,0.016335
1917.7153,0.016013
1919.5790,0.015787
1921.4427,0.015638
1923.3063,0.015362
1925.1700,0.015214
1927.0337,0.015706
1928.8973,0.015206
1930.7610,0.015027
1932.6247,0.014696
1934.4883,0.014585
1936.3520,0.014235
1938.2157,0.014025
1940.0793,0.013301
1941.9430,0.013019
1943.8067,0.012555
1945.6704,0.012327
1947.5340,0.011512
1949.3977,0.011409
1951.2614,0.011512
1953.1250,0.011608
1954.9887,0.010956
1956.8524,0.010426
1958.7160,0.009455
1960.5797,0.009363
1962.4434,0.008061
1964.3070,0.006231
1966.1707,0.005856
1968.0344,0.006220
1969.8980,0.005362
1971.7617,0.006186
1973.6254,0.006490
1975.4891,0.006880
1977.3527,0.005509
1979.2164,0.007347
1981.0801,0.009117
1982.9437,0.008729
1984.8074,0.008135
1986.6711,0.008533
1988.5347,0.009603
1990.3984,0.010217
1992.2621,0.009373
1994.1257,0.009041
1995.9894,0.009061
1997.8531,0.010179
1999.7167,0.009654
2001.5804,0.007842
2003.4441,0.006612
2005.3078,0.007096
2007.1714,0.007784
2009.0351,0.008081
2010.8988,0.008220
2012.7624,0.009169
2014.6261,0.009186
2016.4898,0.008721
2018.3534,0.006870
2020.2171,0.006557
2022.0808,0.006700
2023.9444,0.007537
2025.8081,0.007520
2027.6718,0.007670
2029.5355,0.006477
2031.3991,0.006486
2033.2628,0.007120
2035.1265,0.007632
2036.9901,0.008319
2038.8538,0.008971
2040.7175,0.008406
2042.5811,0.009383
2044.4448,0.010116
2046.3085,0.010604
2048.1721,0.010812
2050.0358,0.011895
2051.8995,0.012757
2053.7631,0.013058
2055.6268,0.012393
2057.4905,0.012607
2059.3542,0.012873
2061.2178,0.013000
2063.0815,0.013544
2064.9452,0.014273
2066.8088,0.014222
2068.6725,0.014772
2070.5362,0.014262
2072.3998,0.014350
2074.2635,0.014463
2076.1272,0.015087
2077.9908,0.015592
2079.8545,0.015882
2081.7182,0.015867
2083.5819,0.015843
2085.4455,0.015691
2087.3092,0.016131
2089.1729,0.016390
2091.0365,0.016304
2092.9002,0.016203
2094.7639,0.016255
2096.6275,0.016015
2098.4912,0.016785
2100.3549,0.017041
2102.2185,0.016425
2104.0822,0.015952
2105.9459,0.016426
2107.8095,0.016209
2109.6732,0.016246
2111.5369,0.016561
2113.4006,0.017093
2115.2642,0.016675
2117.1279,0.016578
2118.9916,0.017065
2120.8552,0.016954
2122.7189,0.016716
2124.5826,0.017007
2126.4462,0.016443
2128.3099,0.016293
2130.1736,0.015626
2132.0372,0.014687
2133.9009,0.013872
2135.7646,0.014022
2137.6282,0.014564
2139.4919,0.014333
2141.3556,0.013644
2143.2193,0.013155
2145.0829,0.011411
2146.9466,0.010587
2148.8103,0.010748
2150.6739,0.011109
2152.5376,0.011123
2154.4013,0.010397
2156.2649,0.007482
2158.1286,0.006649
2159.9923,0.007288
2161.8559,0.008783
2163.7196,0.009499
2165.5833,0.010638
2167.4470,0.010337
2169.3106,0.011366
2171.1743,0.010573
2173.0380,0.010425
2174.9016,0.011163
2176.7653,0.011818
2178.6290,0.011392
2180.4926,0.011232
2182.3563,0.011059
2184.2200,0.011947
2186.0836,0.012079
2187.9473,0.012370
2189.8110,0.013056
2191.6746,0.013943
2193.5383,0.013904
2195.4020,0.013968
2197.2657,0.013473
2199.1293,0.013795
2200.9930,0.013831
2202.8567,0.014863
2204.7203,0.015884
2206.5840,0.016198
2208.4477,0.015955
2210.3113,0.015979
2212.1750,0.016085
2214.0387,0.016410
2215.9023,0.016405
2217.7660,0.016822
2219.6297,0.017589
2221.4934,0.017727
2223.3570,0.018310
2225.2207,0.018778
2227.0844,0.017743
2228.9480,0.017424
2230.8117,0.017395
2232.6754,0.018069
2234.5390,0.018711
2236.4027,0.018807
2238.2664,0.019177
2240.1300,0.019136
2241.9937,0.018946
2243.8574,0.020031
2245.7210,0.020710
2247.5847,0.020393
2249.4484,0.020177
2251.3121,0.020094
2253.1757,0.019809
2255.0394,0.020814
2256.9031,0.021620
2258.7667,0.021698
2260.6304,0.021433
2262.4941,0.021233
2264.3577,0.021269
2266.2214,0.021778
2268.0851,0.022218
2269.9487,0.022561
2271.8124,0.022995
2273.6761,0.023558
2275.5397,0.024179
2277.4034,0.024702
2279.2671,0.024703
2281.1308,0.025216
2282.9944,0.025261
2284.8581,0.025465
2286.7218,0.025756
2288.5854,0.025685
2290.4491,0.025369
2292.3128,0.025326
2294.1764,0.025716
2296.0401,0.025888
2297.9038,0.026152
2299.7674,0.026448
2301.6311,0.026179
2303.4948,0.026185
2305.3585,0.025945
2307.2221,0.026282
2309.0858,0.026607
2310.9495,0.026684
2312.8131,0.026639
2314.6768,0.026244
2316.5405,0.026077
2318.4041,0.026287
2320.2678,0.026464
2322.1315,0.026700
2323.9951,0.027070
2325.8588,0.026811
2327.7225,0.026081
2329.5861,0.025705
2331.4498,0.025591
2333.3135,0.025459
2335.1772,0.024979
2337.0408,0.025182
2338.9045,0.025602
2340.7682,0.025802
2342.6318,0.025966
2344.4955,0.026212
2346.3592,0.026167
2348.2228,0.025591
2350.0865,0.025083
2351.9502,0.025053
2353.8138,0.025374
2355.6775,0.025597
2357.5412,0.025602
2359.4049,0.025453
2361.2685,0.025029
2363.1322,0.025107
2364.9959,0.025408
2366.8595,0.025718
2368.7232,0.026344
2370.5869,0.026877
2372.4505,0.026896
2374.3142,0.026850
2376.1779,0.026810
2378.0415,0.026956
2379.9052,0.027060
2381.7689,0.026976
2383.6325,0.026956
2385.4962,0.026987
2387.3599,0.027063
2389.2236,0.027219
2391.0872,0.027430
2392.9509,0.027554
2394.8146,0.027243
2396.6782,0.027133
2398.5419,0.027441
2400.4056,0.027577
2402.2692,0.027350
2404.1329,0.027543
2405.9966,0.027810
2407.8602,0.027863
2409.7239,0.028072
2411.5876,0.028215
2413.4512,0.028078
2415.3149,0.028014
2417.1786,0.028473
2419.0423,0.028585
2420.9059,0.028546
2422.7696,0.028649
2424.6333,0.028802
2426.4969,0.028690
2428.3606,0.028675
2430.2243,0.029264
2432.0879,0.029276
2433.9516,0.028853
2435.8153,0.028948
2437.6789,0.029240
2439.5426,0.029092
2441.4063,0.028998
2443.2700,0.028923
2445.1336,0.028635
2446.9973,0.028595
2448.8610,0.029140
2450.7246,0.029182
2452.5883,0.028731
2454.4520,0.028833
2456.3156,0.028986
2458.1793,0.028890
2460.0430,0.028950
2461.9066,0.028894
2463.7703,0.029101
2465.6340,0.029162
2467.4976,0.028490
2469.3613,0.028275
2471.2250,0.028479
2473.0887,0.028500
2474.9523,0.028606
2476.8160,0.028561
2478.6797,0.028760
2480.5433,0.028844
2482.4070,0.029061
2484.2707,0.029285
2486.1343,0.029301
2487.9980,0.029131
2489.8617,0.029288
2491.7253,0.029475
2493.5890,0.029462
2495.4527,0.029644
2497.3164,0.029932
2499.1800,0.029549
2501.0437,0.029365
2502.9074,0.029863
2504.7710,0.030082
2506.6347,0.029985
2508.4984,0.030016
2510.3620,0.029831
2512.2257,0.030006
2514.0894,0.030454
2515.9530,0.030374
2517.8167,0.029973
2519.6804,0.030442
2521.5440,0.030808
2523.4077,0.030538
2525.2714,0.030611
2527.1351,0.030856
2528.9987,0.030506
2530.8624,0.030654
2532.7261,0.030929
2534.5897,0.030814
2536.4534,0.030525
2538.3171,0.030671
2540.1807,0.030726
2542.0444,0.030488
2543.9081,0.030776
2545.7717,0.030889
2547.6354,0.030298
2549.4991,0.030020
2551.3627,0.030064
2553.2264,0.030354
2555.0901,0.030557
2556.9538,0.030540
2558.8174,0.030623
2560.6811,0.030840
2562.5448,0.030870
2564.4084,0.030991
2566.2721,0.031210
2568.1358,0.031172
2569.9994,0.030640
2571.8631,0.030792
2573.7268,0.031210
2575.5904,0.031715
2577.4541,0.031678
2579.3178,0.031453
2581.1815,0.031717
2583.0451,0.032015
2584.9088,0.032100
2586.7725,0.032152
2588.6361,0.032189
2590.4998,0.032604
2592.3635,0.032631
2594.2271,0.032383
2596.0908,0.032619
2597.9545,0.033002
2599.8181,0.033275
2601.6818,0.033165
2603.5455,0.033165
2605.4091,0.033368
2607.2728,0.033188
2609.1365,0.033321
2611.0002,0.033457
2612.8638,0.033376
2614.7275,0.033566
2616.5912,0.033874
2618.4548,0.034021
2620.3185,0.034170
2622.1822,0.034422
2624.0458,0.034717
2625.9095,0.034999
2627.7732,0.035252
2629.6368,0.035241
2631.5005,0.035307
2633.3642,0.035603
2635.2279,0.036002
2637.0915,0.036307
2638.9552,0.036515
2640.8189,0.036812
2642.6825,0.036986
2644.5462,0.037135
2646.4099,0.037258
2648.2735,0.037273
2650.1372,0.037377
2652.0009,0.037518
2653.8645,0.037626
2655.7282,0.037687
2657.5919,0.037604
2659.4555,0.037672
2661.3192,0.037885
2663.1829,0.037956
2665.0466,0.038004
2666.9102,0.037916
2668.7739,0.037953
2670.6376,0.038152
2672.5012,0.038045
2674.3649,0.038113
2676.2286,0.038439
2678.0922,0.038597
2679.9559,0.038693
2681.8196,0.038983
2683.6832,0.039385
2685.5469,0.039342
2687.4106,0.039282
2689.2742,0.039477
2691.1379,0.039868
2693.0016,0.040214
2694.8653,0.040257
2696.7289,0.040482
2698.5926,0.040977
2700.4563,0.041262
2702.3199,0.041401
2704.1836,0.041738
2706.0473,0.042013
2707.9109,0.042213
2709.7746,0.042346
2711.6383,0.042841
2713.5019,0.043303
2715.3656,0.043664
2717.2293,0.043892
2719.0930,0.044130
2720.9566,0.044281
2722.8203,0.044692
2724.6840,0.045270
2726.5476,0.045681
2728.4113,0.046156
2730.2750,0.046680
2732.1386,0.046980
2734.0023,0.047356
2735.8660,0.047966
2737.7296,0.048601
2739.5933,0.049128
2741.4570,0.049651
2743.3206,0.050093
2745.1843,0.050332
2747.0480,0.050767
2748.9117,0.051592
2750.7753,0.052322
2752.6390,0.052898
2754.5027,0.053285
2756.3663,0.053735
2758.2300,0.054392
2760.0937,0.054888
2761.9573,0.055420
2763.8210,0.056210
2765.6847,0.056787
2767.5483,0.057277
2769.4120,0.057862
2771.2757,0.058487
2773.1394,0.059087
2775.0030,0.060166
2776.8667,0.061239
2778.7304,0.061656
2780.5940,0.061674
2782.4577,0.061889
2784.3214,0.062133
2786.1850,0.061894
2788.0487,0.061326
2789.9124,0.061028
2791.7760,0.060588
2793.6397,0.059987
2795.5034,0.059272
2797.3670,0.058671
2799.2307,0.058290
2801.0944,0.057872
2802.9581,0.057281
2804.8217,0.056809
2806.6854,0.056238
2808.5491,0.055910
2810.4127,0.055775
2812.2764,0.055781
2814.1401,0.055442
2816.0037,0.055133
2817.8674,0.055332
2819.7311,0.055595
2821.5947,0.055581
2823.4584,0.055595
2825.3221,0.055666
2827.1857,0.055581
2829.0494,0.055310
2830.9131,0.054818
2832.7768,0.054444
2834.6404,0.054410
2836.5041,0.054376
2838.3678,0.054854
2840.2314,0.055584
2842.0951,0.055676
2843.9588,0.055722
2845.8224,0.056250
2847.6861,0.056779
2849.5498,0.057456
2851.4134,0.058196
2853.2771,0.058739
2855.1408,0.059548
2857.0045,0.060268
2858.8681,0.060956
2860.7318,0.061633
2862.5955,0.062167
2864.4591,0.062484
2866.3228,0.062727
2868.1865,0.062915
2870.0501,0.063068
2871.9138,0.063386
2873.7775,0.063994
2875.6411,0.064722
2877.5048,0.065102
2879.3685,0.065404
2881.2321,0.065888
2883.0958,0.066196
2884.9595,0.066607
2886.8232,0.067241
2888.6868,0.067773
2890.5505,0.068367
2892.4142,0.068843
2894.2778,0.069400
2896.1415,0.070062
2898.0052,0.070727
2899.8688,0.070990
2901.7325,0.070696
2903.5962,0.070627
2905.4598,0.070710
2907.3235,0.070735
2909.1872,0.071350
2911.0509,0.072055
2912.9145,0.072519
2914.7782,0.072726
2916.6419,0.073344
2918.5055,0.074329
2920.3692,0.075193
2922.2329,0.075746
2924.0965,0.076094
2925.9602,0.076800
2927.8239,0.077584
2929.6875,0.078349
2931.5512,0.079052
2933.4149,0.079386
2935.2785,0.079952
2937.1422,0.080523
2939.0059,0.080973
2940.8696,0.081175
2942.7332,0.081289
2944.5969,0.081493
2946.4606,0.082024
2948.3242,0.082695
2950.1879,0.083135
2952.0516,0.083434
2953.9152,0.083823
2955.7789,0.084161
2957.6426,0.084287
2959.5062,0.084514
2961.3699,0.085572
2963.2336,0.086357
2965.0972,0.086951
2966.9609,0.088311
2968.8246,0.089645
2970.6883,0.090177
2972.5519,0.090833
2974.4156,0.091572
2976.2793,0.092160
2978.1429,0.092650
2980.0066,0.093386
2981.8703,0.093905
2983.7339,0.094229
2985.5976,0.094581
2987.4613,0.095091
2989.3249,0.095302
2991.1886,0.095981
2993.0523,0.097238
2994.9160,0.098345
2996.7796,0.098990
2998.6433,0.099602
3000.5070,0.100268
3002.3706,0.101268
3004.2343,0.102342
3006.0980,0.103125
3007.9616,0.103955
3009.8253,0.104783
3011.6890,0.105488
3013.5526,0.106419
3015.4163,0.107101
3017.2800,0.107855
3019.1436,0.108094
3021.0073,0.108226
3022.8710,0.108736
3024.7347,0.109311
3026.5983,0.109514
3028.4620,0.109869
3030.3257,0.110283
3032.1893,0.110674
3034.0530,0.110819
3035.9167,0.111244
3037.7803,0.111784
3039.6440,0.112224
3041.5077,0.112514
3043.3713,0.113003
3045.2350,0.113655
3047.0987,0.113869
3048.9624,0.113697
3050.8260,0.114166
3052.6897,0.114640
3054.5534,0.114659
3056.4170,0.114840
3058.2807,0.115219
3060.1444,0.114918
3062.0080,0.114821
3063.8717,0.115212
3065.7354,0.115499
3067.5990,0.115304
3069.4627,0.115269
3071.3264,0.115119
3073.1900,0.114778
3075.0537,0.114281
3076.9174,0.114088
3078.7811,0.113952
3080.6447,0.113909
3082.5084,0.113376
3084.3721,0.112854
3086.2357,0.112517
3088.0994,0.112302
3089.9631,0.111873
3091.8267,0.111214
3093.6904,0.109903
3095.5541,0.108322
3097.4177,0.107595
3099.2814,0.107214
3101.1451,0.106030
3103.0087,0.104689
3104.8724,0.103568
3106.7361,0.102697
3108.5998,0.101836
3110.4634,0.101067
3112.3271,0.099744
3114.1908,0.098480
3116.0544,0.097759
3117.9181,0.097201
3119.7818,0.096129
3121.6454,0.095090
3123.5091,0.094465
3125.3728,0.093545
3127.2364,0.092253
3129.1001,0.091502
3130.9638,0.090883
3132.8275,0.090161
3134.6911,0.088846
3136.5548,0.087640
3138.4185,0.087473
3140.2821,0.087589
3142.1458,0.087336
3144.0095,0.086736
3145.8731,0.085688
3147.7368,0.084814
3149.6005,0.084065
3151.4641,0.083454
3153.3278,0.083199
3155.1915,0.083427
3157.0551,0.082762
3158.9188,0.081928
3160.7825,0.081315
3162.6462,0.080522
3164.5098,0.079922
3166.3735,0.079920
3168.2372,0.079519
3170.1008,0.078565
3171.9645,0.078073
3173.8282,0.077937
3175.6918,0.077294
3177.5555,0.076653
3179.4192,0.076493
3181.2828,0.076479
3183.1465,0.076123
3185.0102,0.075670
3186.8739,0.075197
3188.7375,0.075323
3190.6012,0.075595
3192.4649,0.075339
3194.3285,0.074729
3196.1922,0.074865
3198.0559,0.074972
3199.9195,0.074778
3201.7832,0.075050
3203.6469,0.074993
3205.5105,0.074669
3207.3742,0.075057
3209.2379,0.075579
3211.1015,0.075725
3212.9652,0.075665
3214.8289,0.075295
3216.6926,0.074747
3218.5562,0.075210
3220.4199,0.075889
3222.2836,0.075843
3224.1472,0.075903
3226.0109,0.076125
3227.8746,0.076360
3229.7382,0.077143
3231.6019,0.077237
3233.4656,0.077137
3235.3292,0.077656
3237.1929,0.078172
3239.0566,0.078498
3240.9202,0.078898
3242.7839,0.078953
3244.6476,0.078462
3246.5113,0.078661
3248.3749,0.079966
3250.2386,0.080585
3252.1023,0.080467
3253.9659,0.080250
3255.8296,0.080308
3257.6933,0.080828
3259.5569,0.081203
3261.4206,0.081502
3263.2843,0.082360
3265.1479,0.082920
3267.0116,0.082655
3268.8753,0.082215
3270.7390,0.082545
3272.6026,0.083239
3274.4663,0.083519
3276.3300,0.083103
3278.1936,0.082208
3280.0573,0.081314
3281.9210,0.080886
3283.7846,0.080974
3285.6483,0.080748
3287.5120,0.079547
3289.3756,0.078490
3291.2393,0.077866
3293.1030,0.077840
3294.9666,0.077536
3296.8303,0.076514
3298.6940,0.075465
3300.5577,0.074675
3302.4213,0.073641
3304.2850,0.072597
3306.1487,0.071768
3308.0123,0.071752
3309.8760,0.071868
3311.7397,0.070975
3313.6033,0.070097
3315.4670,0.070076
3317.3307,0.069827
3319.1943,0.070237
3321.0580,0.070673
3322.9217,0.070261
3324.7854,0.070588
3326.6490,0.071351
3328.5127,0.071732
3330.3764,0.071679
3332.2400,0.071270
3334.1037,0.071238
3335.9674,0.071064
3337.8310,0.071066
3339.6947,0.070702
3341.5584,0.068675
3343.4220,0.066731
3345.2857,0.065260
3347.1494,0.063685
3349.0130,0.062631
3350.8767,0.061466
3352.7404,0.059979
3354.6041,0.058902
3356.4677,0.058906
3358.3314,0.058377
3360.1951,0.056975
3362.0587,0.055890
3363.9224,0.055167
3365.7861,0.054247
3367.6497,0.053465
3369.5134,0.053434
3371.3771,0.054387
3373.2407,0.055041
3375.1044,0.054680
3376.9681,0.054119
3378.8317,0.053629
3380.6954,0.053675
3382.5591,0.054368
3384.4228,0.054930
3386.2864,0.055475
3388.1501,0.055724
3390.0138,0.055744
3391.8774,0.056200
3393.7411,0.057915
3395.6048,0.059793
3397.4684,0.059402
3399.3321,0.057389
3401.1958,0.056737
3403.0594,0.057015
3404.9231,0.056171
3406.7868,0.055090
3408.6505,0.054468
3410.5141,0.053048
3412.3778,0.050640
3414.2415,0.048290
3416.1051,0.046697
3417.9688,0.044893
3419.8325,0.043531
3421.6961,0.043077
3423.5598,0.041491
3425.4235,0.039506
3427.2871,0.038137
3429.1508,0.036675
3431.0145,0.036189
3432.8781,0.036216
3434.7418,0.035001
3436.6055,0.033278
3438.4692,0.031806
3440.3328,0.031073
3442.1965,0.031090
3444.0602,0.030784
3445.9238,0.029687
3447.7875,0.028801
3449.6512,0.028855
3451.5148,0.028652
3453.3785,0.027575
3455.2422,0.026599
3457.1058,0.026685
3458.9695,0.026871
3460.8332,0.026442
3462.6969,0.025843
3464.5605,0.025166
3466.4242,0.024754
3468.2879,0.024197
3470.1515,0.022998
3472.0152,0.022578
3473.8789,0.023698
3475.7425,0.023825
3477.6062,0.022019
3479.4699,0.020299
3481.3335,0.020098
3483.1972,0.020467
3485.0609,0.020194
3486.9245,0.019738
3488.7882,0.018964
3490.6519,0.018457
3492.5156,0.018788
3494.3792,0.018991
3496.2429,0.018103
3498.1066,0.016830
3499.9702,0.016388
3501.8339,0.016042
3503.6976,0.015545
3505.5612,0.014762
3507.4249,0.014135
3509.2886,0.014702
3511.1522,0.014267
3513.0159,0.013287
3514.8796,0.013038
3516.7432,0.012482
3518.6069,0.012326
3520.4706,0.011979
3522.3343,0.010877
3524.1979,0.010330
3526.0616,0.010932
3527.9253,0.011345
3529.7889,0.010742
3531.6526,0.010496
3533.5163,0.011066
3535.3799,0.010498
3537.2436,0.009463
3539.1073,0.009391
3540.9709,0.009331
3542.8346,0.009115
3544.6983,0.009214
3546.5620,0.009100
3548.4256,0.007878
3550.2893,0.007168
3552.1530,0.008022
3554.0166,0.008727
3555.8803,0.008493
3557.7440,0.008301
3559.6076,0.008030
3561.4713,0.007984
3563.3350,0.008106
3565.1986,0.007421
3567.0623,0.006059
3568.9260,0.005390
3570.7896,0.006766
3572.6533,0.007756
3574.5170,0.007338
3576.3807,0.007939
3578.2443,0.008597
3580.1080,0.007305
3581.9717,0.006727
3583.8353,0.007328
3585.6990,0.006388
3587.5627,0.004937
3589.4263,0.005207
3591.2900,0.005750
3593.1537,0.006195
3595.0173,0.006320
3596.8810,0.006122
3598.7447,0.006758
3600.6084,0.007080
3602.4720,0.006900
3604.3357,0.006976
3606.1994,0.006903
3608.0630,0.006823
3609.9267,0.006423
3611.7904,0.006262
3613.6540,0.006517
3615.5177,0.006007
3617.3814,0.005890
3619.2450,0.006437
3621.1087,0.006329
3622.9724,0.005965
3624.8360,0.006180
3626.6997,0.006027
3628.5634,0.005402
3630.4271,0.004765
3632.2907,0.004872
3634.1544,0.005588
3636.0181,0.006725
3637.8817,0.007498
3639.7454,0.007300
3641.6091,0.007036
3643.4727,0.007195
3645.3364,0.007069
3647.2001,0.006472
3649.0637,0.005502
3650.9274,0.005066
3652.7911,0.005528
3654.6547,0.006464
3656.5184,0.007299
3658.3821,0.007494
3660.2458,0.007318
3662.1094,0.007344
3663.9731,0.007270
3665.8368,0.007271
3667.7004,0.007178
3669.5641,0.006841
3671.4278,0.006029
3673.2914,0.005461
3675.1551,0.005875
3677.0188,0.005431
3678.8824,0.005445
3680.7461,0.006750
3682.6098,0.007466
3684.4735,0.007721
3686.3371,0.008075
3688.2008,0.007517
3690.0645,0.005507
3691.9281,0.005258
3693.7918,0.006803
3695.6555,0.007600
3697.5191,0.007913
3699.3828,0.008125
3701.2465,0.008329
3703.1101,0.007849
3704.9738,0.007180
3706.8375,0.007447
3708.7011,0.007845
3710.5648,0.007690
3712.4285,0.006769
3714.2922,0.006620
3716.1558,0.007763
3718.0195,0.008605
3719.8832,0.008547
3721.7468,0.008079
3723.6105,0.008246
3725.4742,0.007974
3727.3378,0.007135
3729.2015,0.007118
3731.0652,0.007766
3732.9288,0.007933
3734.7925,0.007236
3736.6562,0.006620
3738.5199,0.006796
3740.3835,0.006959
3742.2472,0.006987
3744.1109,0.006937
3745.9745,0.005939
3747.8382,0.005719
3749.7019,0.006628
3751.5655,0.005747
3753.4292,0.004744
3755.2929,0.006434
3757.1565,0.008306
3759.0202,0.008993
3760.8839,0.009011
3762.7475,0.009219
3764.6112,0.009451
3766.4749,0.009034
3768.3386,0.008717
3770.2022,0.009014
3772.0659,0.008936
3773.9296,0.008702
3775.7932,0.009002
3777.6569,0.009394
3779.5206,0.009643
3781.3842,0.009827
3783.2479,0.009992
3785.1116,0.010400
3786.9752,0.010280
3788.8389,0.009596
3790.7026,0.009592
3792.5662,0.009610
3794.4299,0.009213
3796.2936,0.009159
3798.1573,0.008926
3800.0209,0.008508
3801.8846,0.008618
3803.7483,0.008457
3805.6119,0.008368
3807.4756,0.008391
3809.3393,0.008677
3811.2029,0.009509
3813.0666,0.010051
3814.9303,0.009693
3816.7939,0.008946
3818.6576,0.008801
3820.5213,0.009078
3822.3850,0.009656
3824.2486,0.009565
3826.1123,0.009510
3827.9760,0.009668
3829.8396,0.009366
3831.7033,0.009281
3833.5670,0.010233
3835.4306,0.011140
3837.2943,0.010098
3839.1580,0.008720
3841.0216,0.008895
3842.8853,0.008976
3844.7490,0.009346
3846.6126,0.009758
3848.4763,0.009677
3850.3400,0.009208
3852.2037,0.008597
3854.0673,0.007872
3855.9310,0.007637
3857.7947,0.008936
3859.6583,0.010092
3861.5220,0.010211
3863.3857,0.009754
3865.2493,0.009336
3867.1130,0.009336
3868.9767,0.009858
3870.8403,0.009586
3872.7040,0.008664
3874.5677,0.009657
3876.4314,0.010779
3878.2950,0.010245
3880.1587,0.010183
3882.0224,0.009842
3883.8860,0.009076
3885.7497,0.009744
3887.6134,0.010223
3889.4770,0.010225
3891.3407,0.010410
3893.2044,0.010514
3895.0680,0.010365
3896.9317,0.010556
3898.7954,0.010631
3900.6590,0.010544
3902.5227,0.010063
3904.3864,0.009564
3906.2501,0.009852
3908.1137,0.010364
3909.9774,0.010927
3911.8411,0.011393
3913.7047,0.011178
3915.5684,0.010632
3917.4321,0.010389
3919.2957,0.010809
3921.1594,0.010739
3923.0231,0.010552
3924.8867,0.010915
3926.7504,0.011388
3928.6141,0.011354
3930.4777,0.011003
3932.3414,0.010980
3934.2051,0.011182
3936.0688,0.011020
3937.9324,0.011297
3939.7961,0.011746
3941.6598,0.011614
3943.5234,0.011198
3945.3871,0.011240
3947.2508,0.011582
3949.1144,0.011472
3950.9781,0.011238
3952.8418,0.011345
3954.7054,0.011446
3956.5691,0.011431
3958.4328,0.011442
3960.2965,0.011689
3962.1601,0.012026
3964.0238,0.012046
3965.8875,0.011527
3967.7511,0.011156
3969.6148,0.011396
3971.4785,0.011894
3973.3421,0.011721
3975.2058,0.011488
3977.0695,0.012094
3978.9331,0.012041
3980.7968,0.011699
3982.6605,0.011870
3984.5241,0.012021
3986.3878,0.011773
3988.2515,0.011718
3990.1152,0.011905
3991.9788,0.011890
3993.8425,0.011877
3995.7062,0.012405
3997.5698,0.012721
3999.4335,0.011978
