Wavenumber,Intensity
650.4205,0.226866
652.2841,0.220758
654.1478,0.219047
656.0115,0.218403
657.8751,0.217857
659.7388,0.216522
661.6025,0.216034
663.4661,0.214193
665.3298,0.212739
667.1935,0.215174
669.0571,0.218305
670.9208,0.214562
672.7845,0.210918
674.6481,0.206708
676.5118,0.205333
678.3755,0.203669
680.2392,0.201708
682.1028,0.200125
683.9665,0.199426
685.8302,0.198067
687.6938,0.197062
689.5575,0.196657
691.4212,0.195998
693.2848,0.193980
695.1485,0.193058
697.0122,0.192615
698.8758,0.193455
700.7395,0.193810
702.6032,0.192653
704.4669,0.189850
706.3305,0.185655
708.1942,0.179350
710.0579,0.172936
711.9215,0.165786
713.7852,0.159163
715.6489,0.152981
717.5125,0.147602
719.3762,0.142883
721.2399,0.138893
723.1035,0.134310
724.9672,0.130506
726.8309,0.127199
728.6945,0.124159
730.5582,0.120828
732.4219,0.117328
734.2856,0.113776
736.1492,0.110932
738.0129,0.109690
739.8766,0.110488
741.7402,0.112096
743.6039,0.113414
745.4676,0.113651
747.3312,0.113663
749.1949,0.113181
751.0586,0.112242
752.9222,0.110975
754.7859,0.109601
756.6496,0.108229
758.5132,0.107349
760.3769,0.106493
762.2406,0.105906
764.1043,0.105853
765.9679,0.105586
767.8316,0.104864
769.6953,0.104208
771.5589,0.103697
773.4226,0.104082
775.2863,0.105149
777.1499,0.105840
779.0136,0.106001
780.8773,0.106492
782.7409,0.107227
784.6046,0.108232
786.4683,0.109309
788.3320,0.110492
790.1956,0.111823
792.0593,0.113101
793.9230,0.114350
795.7866,0.115682
797.6503,0.116665
799.5140,0.117436
801.3776,0.118107
803.2413,0.118482
805.1050,0.118227
806.9686,0.117460
808.8323,0.115723
810.6960,0.113362
812.5596,0.110597
814.4233,0.107827
816.2870,0.105216
818.1507,0.102650
820.0143,0.100081
821.8780,0.098225
823.7417,0.097377
825.6053,0.097441
827.4690,0.098312
829.3327,0.098793
831.1963,0.094687
833.0600,0.085711
834.9237,0.077733
836.7873,0.073724
838.6510,0.072297
840.5147,0.071915
842.3784,0.071617
844.2420,0.071305
846.1057,0.070935
847.9694,0.070708
849.8330,0.070681
851.6967,0.070518
853.5604,0.070240
855.4240,0.070257
857.2877,0.070410
859.1514,0.070494
861.0150,0.070365
862.8787,0.070398
864.7424,0.070600
866.6060,0.070676
868.4697,0.070762
870.3334,0.071159
872.1971,0.071426
874.0607,0.071316
875.9244,0.071252
877.7881,0.071290
879.6517,0.071335
881.5154,0.071371
883.3791,0.071566
885.2427,0.071914
887.1064,0.072190
888.9701,0.072632
890.8337,0.073173
892.6974,0.073705
894.5611,0.074440
896.4247,0.075643
898.2884,0.077127
900.1521,0.078783
902.0158,0.080866
903.8794,0.083410
905.7431,0.086364
907.6068,0.090018
909.4704,0.094589
911.3341,0.100373
913.1978,0.107256
915.0614,0.111737
916.9251,0.106998
918.7888,0.094772
920.6524,0.084429
922.5161,0.079764
924.3798,0.078570
926.2435,0.078598
928.1071,0.079045
929.9708,0.079527
931.8345,0.079857
933.6981,0.080295
935.5618,0.080982
937.4255,0.081585
939.2891,0.081991
941.1528,0.082542
943.0165,0.083107
944.8801,0.083800
946.7438,0.084839
948.6075,0.085985
950.4711,0.087008
952.3348,0.088152
954.1985,0.089504
956.0622,0.090993
957.9258,0.092435
959.7895,0.093851
961.6532,0.095370
963.5168,0.097036
965.3805,0.098943
967.2442,0.101379
969.1078,0.104220
970.9715,0.107009
972.8352,0.110076
974.6988,0.114857
976.5625,0.122650
978.4262,0.135690
980.2899,0.154417
982.1535,0.163420
984.0172,0.144123
985.8809,0.116559
987.7445,0.103885
989.6082,0.102432
991.4719,0.103875
993.3355,0.106001
995.1992,0.108264
997.0629,0.110624
998.9265,0.113067
1000.7902,0.115655
1002.6539,0.118532
1004.5175,0.121474
1006.3812,0.124369
1008.2449,0.127427
1010.1086,0.130290
1011.9722,0.132520
1013.8359,0.134106
1015.6996,0.135213
1017.5632,0.135752
1019.4269,0.135886
1021.2906,0.135739
1023.1542,0.135356
1025.0179,0.135062
1026.8816,0.135071
1028.7452,0.135238
1030.6089,0.135511
1032.4726,0.135955
1034.3362,0.136724
1036.1999,0.137784
1038.0636,0.139201
1039.9273,0.140966
1041.7909,0.143202
1043.6546,0.145876
1045.5183,0.148624
1047.3819,0.150463
1049.2456,0.149444
1051.1093,0.143956
1052.9729,0.135268
1054.8366,0.127043
1056.7003,0.121786
1058.5639,0.119383
1060.4276,0.118844
1062.2913,0.119244
1064.1550,0.120041
1066.0186,0.121075
1067.8823,0.122431
1069.7460,0.124089
1071.6096,0.125868
1073.4733,0.127646
1075.3370,0.129632
1077.2006,0.131780
1079.0643,0.133880
1080.9280,0.135840
1082.7916,0.137720
1084.6553,0.139497
1086.5190,0.141315
1088.3826,0.143293
1090.2463,0.145776
1092.1100,0.148958
1093.9737,0.152638
1095.8373,0.156803
1097.7010,0.161520
1099.5647,0.166482
1101.4283,0.171503
1103.2920,0.175871
1105.1557,0.178324
1107.0193,0.177566
1108.8830,0.172653
1110.7467,0.163704
1112.6103,0.152386
1114.4740,0.140832
1116.3377,0.130488
1118.2014,0.121956
1120.0650,0.115442
1121.9287,0.110811
1123.7924,0.107561
1125.6560,0.104929
1127.5197,0.102607
1129.3834,0.100390
1131.2470,0.098256
1133.1107,0.096417
1134.9744,0.095091
1136.8380,0.094210
1138.7017,0.093598
1140.5654,0.093195
1142.4290,0.093104
1144.2927,0.093112
1146.1564,0.093101
1148.0201,0.093273
1149.8837,0.093651
1151.7474,0.094175
1153.6111,0.094811
1155.4747,0.095446
1157.3384,0.096289
1159.2021,0.097304
1161.0657,0.098385
1162.9294,0.099709
1164.7931,0.101509
1166.6567,0.103766
1168.5204,0.106478
1170.3841,0.109182
1172.2477,0.110994
1174.1114,0.110536
1175.9751,0.107227
1177.8388,0.102601
1179.7024,0.098801
1181.5661,0.096640
1183.4298,0.095759
1185.2934,0.095627
1187.1571,0.095889
1189.0208,0.096125
1190.8844,0.096236
1192.7481,0.096345
1194.6118,0.096628
1196.4754,0.096970
1198.3391,0.097292
1200.2028,0.097489
1202.0665,0.097488
1203.9301,0.097419
1205.7938,0.097380
1207.6575,0.097329
1209.5211,0.097455
1211.3848,0.097763
1213.2485,0.098180
1215.1121,0.098703
1216.9758,0.099440
1218.8395,0.100338
1220.7031,0.101300
1222.5668,0.102268
1224.4305,0.103202
1226.2941,0.104031
1228.1578,0.104807
1230.0215,0.105416
1231.8852,0.105881
1233.7488,0.106213
1235.6125,0.106521
1237.4762,0.106849
1239.3398,0.107159
1241.2035,0.107358
1243.0672,0.107551
1244.9308,0.107598
1246.7945,0.107444
1248.6582,0.107238
1250.5218,0.107096
1252.3855,0.107011
1254.2492,0.106962
1256.1129,0.106911
1257.9765,0.106972
1259.8402,0.107249
1261.7039,0.107723
1263.5675,0.108231
1265.4312,0.108709
1267.2949,0.108982
1269.1585,0.108960
1271.0222,0.108786
1272.8859,0.108581
1274.7495,0.108562
1276.6132,0.108944
1278.4769,0.109737
1280.3405,0.110831
1282.2042,0.111961
1284.0679,0.113038
1285.9316,0.114382
1287.7952,0.116248
1289.6589,0.118345
1291.5226,0.120835
1293.3862,0.123958
1295.2499,0.127851
1297.1136,0.132597
1298.9772,0.138234
1300.8409,0.144980
1302.7046,0.152306
1304.5682,0.157863
1306.4319,0.158289
1308.2956,0.149632
1310.1592,0.132608
1312.0229,0.115386
1313.8866,0.104101
1315.7503,0.099441
1317.6139,0.099247
1319.4776,0.101130
1321.3413,0.102842
1323.2049,0.104387
1325.0686,0.106527
1326.9323,0.109010
1328.7959,0.111445
1330.6596,0.113622
1332.5233,0.115288
1334.3869,0.116382
1336.2506,0.117387
1338.1143,0.119735
1339.9780,0.122092
1341.8416,0.121068
1343.7053,0.119307
1345.5690,0.118867
1347.4326,0.119173
1349.2963,0.119809
1351.1600,0.120640
1353.0236,0.121804
1354.8873,0.123945
1356.7510,0.126064
1358.6146,0.127574
1360.4783,0.130423
1362.3420,0.136370
1364.2056,0.140621
1366.0693,0.141802
1367.9330,0.145082
1369.7967,0.149316
1371.6603,0.152539
1373.5240,0.158820
1375.3877,0.165657
1377.2513,0.168541
1379.1150,0.172410
1380.9787,0.178364
1382.8423,0.183724
1384.7060,0.189573
1386.5697,0.198761
1388.4333,0.208414
1390.2970,0.211387
1392.1607,0.212159
1394.0244,0.213788
1395.8880,0.210528
1397.7517,0.202815
1399.6154,0.192955
1401.4790,0.182956
1403.3427,0.174963
1405.2064,0.164458
1407.0700,0.149000
1408.9337,0.133190
1410.7974,0.119290
1412.6610,0.109052
1414.5247,0.103636
1416.3884,0.103309
1418.2520,0.109789
1420.1157,0.118004
1421.9794,0.119994
1423.8431,0.117814
1425.7067,0.110396
1427.5704,0.102580
1429.4341,0.099215
1431.2977,0.098933
1433.1614,0.098572
1435.0251,0.100961
1436.8887,0.106789
1438.7524,0.108789
1440.6161,0.107665
1442.4797,0.108289
1444.3434,0.109520
1446.2071,0.110913
1448.0707,0.112453
1449.9344,0.110597
1451.7981,0.106618
1453.6618,0.102948
1455.5254,0.103754
1457.3891,0.110194
1459.2528,0.110261
1461.1164,0.103800
1462.9801,0.101865
1464.8438,0.102928
1466.7074,0.102078
1468.5711,0.098032
1470.4348,0.096943
1472.2984,0.100527
1474.1621,0.103264
1476.0258,0.100861
1477.8895,0.098481
1479.7531,0.097708
1481.6168,0.098264
1483.4805,0.098497
1485.3441,0.098802
1487.2078,0.101782
1489.0715,0.108459
1490.9351,0.112196
1492.7988,0.109572
1494.6625,0.108767
1496.5261,0.114316
1498.3898,0.119966
1500.2535,0.120067
1502.1171,0.118591
1503.9808,0.118310
1505.8445,0.125026
1507.7082,0.143520
1509.5718,0.140128
1511.4355,0.135204
1513.2992,0.134092
1515.1628,0.135915
1517.0265,0.139316
1518.8902,0.141121
1520.7538,0.143551
1522.6175,0.148515
1524.4812,0.147648
1526.3448,0.147323
1528.2085,0.148037
1530.0722,0.145707
1531.9359,0.146209
1533.7995,0.150135
1535.6632,0.149368
1537.5269,0.147331
1539.3905,0.153479
1541.2542,0.165587
1543.1179,0.163066
1544.9815,0.161315
1546.8452,0.158998
1548.7089,0.158591
1550.5725,0.160407
1552.4362,0.161692
1554.2999,0.161230
1556.1635,0.163424
1558.0272,0.170749
1559.8909,0.186135
1561.7546,0.176813
1563.6182,0.171599
1565.4819,0.172027
1567.3456,0.174370
1569.2092,0.178054
1571.0729,0.181284
1572.9366,0.179648
1574.8002,0.181801
1576.6639,0.190033
1578.5276,0.192014
1580.3912,0.190080
1582.2549,0.191103
1584.1186,0.192976
1585.9822,0.194052
1587.8459,0.195112
1589.7096,0.195557
1591.5733,0.195459
1593.4369,0.194957
1595.3006,0.194258
1597.1643,0.192476
1599.0279,0.190581
1600.8916,0.189129
1602.7553,0.188040
1604.6189,0.186615
1606.4826,0.185864
1608.3463,0.185685
1610.2099,0.185352
1612.0736,0.183237
1613.9373,0.180927
1615.8010,0.179538
1617.6646,0.176150
1619.5283,0.169090
1621.3920,0.163762
1623.2556,0.159312
1625.1193,0.153510
1626.9830,0.146977
1628.8466,0.138977
1630.7103,0.130487
1632.5740,0.123489
1634.4376,0.119034
1636.3013,0.114473
1638.1650,0.109295
1640.0286,0.105302
1641.8923,0.102941
1643.7560,0.102663
1645.6197,0.104735
1647.4833,0.108643
1649.3470,0.107502
1651.2107,0.106933
1653.0743,0.112040
1654.9380,0.115675
1656.8017,0.110460
1658.6653,0.107564
1660.5290,0.106688
1662.3927,0.105591
1664.2563,0.102438
1666.1200,0.098825
1667.9837,0.096596
1669.8474,0.095955
1671.7110,0.093566
1673.5747,0.091859
1675.4384,0.091765
1677.3020,0.092677
1679.1657,0.092670
1681.0294,0.094345
1682.8930,0.098659
1684.7567,0.101879
1686.6204,0.101123
1688.4840,0.096810
1690.3477,0.093223
1692.2114,0.088849
1694.0750,0.085481
1695.9387,0.081551
1697.8024,0.078419
1699.6661,0.074490
1701.5297,0.065981
1703.3934,0.060838
1705.2571,0.053781
1707.1207,0.046251
1708.9844,0.040001
1710.8481,0.035512
1712.7117,0.032763
1714.5754,0.031468
1716.4391,0.031704
1718.3027,0.030354
1720.1664,0.027447
1722.0301,0.025435
1723.8937,0.023463
1725.7574,0.021990
1727.6211,0.020214
1729.4848,0.019594
1731.3484,0.019409
1733.2121,0.019953
1735.0758,0.018328
1736.9394,0.017721
1738.8031,0.015952
1740.6668,0.016287
1742.5304,0.016093
1744.3941,0.015624
1746.2578,0.015907
1748.1214,0.016531
1749.9851,0.017052
1751.8488,0.015764
1753.7125,0.014167
1755.5761,0.013694
1757.4398,0.013617
1759.3035,0.014365
1761.1671,0.013788
1763.0308,0.014179
1764.8945,0.013308
1766.7581,0.013005
1768.6218,0.013602
1770.4855,0.015013
1772.3491,0.014703
1774.2128,0.014971
1776.0765,0.013161
1777.9401,0.012814
1779.8038,0.013216
1781.6675,0.013406
1783.5312,0.013353
1785.3948,0.013083
1787.2585,0.013219
1789.1222,0.013239
1790.9858,0.014045
1792.8495,0.014829
1794.7132,0.014473
1796.5768,0.013590
1798.4405,0.013469
1800.3042,0.013709
1802.1678,0.013859
1804.0315,0.013644
1805.8952,0.013200
1807.7589,0.013255
1809.6225,0.013674
1811.4862,0.013850
1813.3499,0.013475
1815.2135,0.012806
1817.0772,0.012713
1818.9409,0.013228
1820.8045,0.013104
1822.6682,0.013313
1824.5319,0.013591
1826.3955,0.013887
1828.2592,0.014044
1830.1229,0.013885
1831.9865,0.014001
1833.8502,0.013070
1835.7139,0.012924
1837.5776,0.013192
1839.4412,0.012976
1841.3049,0.013002
1843.1686,0.013671
1845.0322,0.014640
1846.8959,0.014479
1848.7596,0.013287
1850.6232,0.012952
1852.4869,0.012768
1854.3506,0.012960
1856.2142,0.013334
1858.0779,0.013475
1859.9416,0.013500
1861.8052,0.013205
1863.6689,0.013231
1865.5326,0.013610
1867.3963,0.014622
1869.2599,0.015038
1871.1236,0.014491
1872.9873,0.013230
1874.8509,0.012971
1876.7146,0.012792
1878.5783,0.012840
1880.4419,0.013082
1882.3056,0.013456
1884.1693,0.013478
1886.0329,0.013573
1887.8966,0.013802
1889.7603,0.014188
1891.6240,0.013990
1893.4876,0.013341
1895.3513,0.013372
1897.2150,0.013570
1899.0786,0.013151
1900.9423,0.013268
1902.8060,0.013314
1904.6696,0.013519
1906.5333,0.013345
1908.3970,0.013582
1910.2606,0.013812
1912.1243,0.013847
1913.9880,0.013160
1915.8516,0.013594
1917.7153,0.013796
1919.5790,0.013932
1921.4427,0.013760
1923.3063,0.013595
1925.1700,0.013182
1927.0337,0.012413
1928.8973,0.012319
1930.7610,0.012233
1932.6247,0.012392
1934.4883,0.013305
1936.3520,0.013452
1938.2157,0.012882
1940.0793,0.012360
1941.9430,0.012596
1943.8067,0.012809
1945.6704,0.012267
1947.5340,0.011301
1949.3977,0.011369
1951.2614,0.011267
1953.1250,0.011432
1954.9887,0.010459
1956.8524,0.010958
1958.7160,0.010088
1960.5797,0.009417
1962.4434,0.008714
1964.3070,0.008792
1966.1707,0.008644
1968.0344,0.008909
1969.8980,0.007922
1971.7617,0.006630
1973.6254,0.006015
1975.4891,0.006529
1977.3527,0.006770
1979.2164,0.008521
1981.0801,0.009191
1982.9437,0.009479
1984.8074,0.009135
1986.6711,0.009977
1988.5347,0.010674
1990.3984,0.011104
1992.2621,0.009970
1994.1257,0.010424
1995.9894,0.010148
1997.8531,0.010195
1999.7167,0.010376
2001.5804,0.010798
2003.4441,0.010237
2005.3078,0.010187
2007.1714,0.010157
2009.0351,0.010069
2010.8988,0.008384
2012.7624,0.007900
2014.6261,0.007694
2016.4898,0.007818
2018.3534,0.007408
2020.2171,0.009015
2022.0808,0.009154
2023.9444,0.008521
2025.8081,0.006977
2027.6718,0.007267
2029.5355,0.007542
2031.3991,0.007790
2033.2628,0.007534
2035.1265,0.007821
2036.9901,0.007674
2038.8538,0.008945
2040.7175,0.009358
2042.5811,0.010358
2044.4448,0.011355
2046.3085,0.011996
2048.1721,0.012344
2050.0358,0.013136
2051.8995,0.013284
2053.7631,0.012702
2055.6268,0.012408
2057.4905,0.013110
2059.3542,0.013512
2061.2178,0.014082
2063.0815,0.014406
2064.9452,0.014471
2066.8088,0.014279
2068.6725,0.015376
2070.5362,0.015474
2072.3998,0.015555
2074.2635,0.015504
2076.1272,0.015338
2077.9908,0.015150
2079.8545,0.015783
2081.7182,0.016009
2083.5819,0.016308
2085.4455,0.016360
2087.3092,0.016377
2089.1729,0.016033
2091.0365,0.016366
2092.9002,0.015974
2094.7639,0.015811
2096.6275,0.016680
2098.4912,0.017039
2100.3549,0.016788
2102.2185,0.017111
2104.0822,0.016758
2105.9459,0.016689
2107.8095,0.016850
2109.6732,0.017162
2111.5369,0.017376
2113.4006,0.017384
2115.2642,0.017196
2117.1279,0.017312
2118.9916,0.016647
2120.8552,0.016527
2122.7189,0.016446
2124.5826,0.016605
2126.4462,0.016355
2128.3099,0.016115
2130.1736,0.016248
2132.0372,0.015554
2133.9009,0.014605
2135.7646,0.014298
2137.6282,0.014065
2139.4919,0.015147
2141.3556,0.014736
2143.2193,0.013205
2145.0829,0.011690
2146.9466,0.011697
2148.8103,0.011746
2150.6739,0.011924
2152.5376,0.010468
2154.4013,0.008344
2156.2649,0.006769
2158.1286,0.007676
2159.9923,0.009326
2161.8559,0.010432
2163.7196,0.010775
2165.5833,0.011765
2167.4470,0.011480
2169.3106,0.012006
2171.1743,0.011844
2173.0380,0.011481
2174.9016,0.011519
2176.7653,0.012191
2178.6290,0.011751
2180.4926,0.012512
2182.3563,0.012741
2184.2200,0.013181
2186.0836,0.013355
2187.9473,0.013794
2189.8110,0.013479
2191.6746,0.013139
2193.5383,0.013068
2195.4020,0.013342
2197.2657,0.013728
2199.1293,0.014832
2200.9930,0.015197
2202.8567,0.014708
2204.7203,0.014568
2206.5840,0.015921
2208.4477,0.016669
2210.3113,0.016975
2212.1750,0.016514
2214.0387,0.016101
2215.9023,0.016358
2217.7660,0.016301
2219.6297,0.015772
2221.4934,0.016292
2223.3570,0.017188
2225.2207,0.017594
2227.0844,0.017543
2228.9480,0.018215
2230.8117,0.018820
2232.6754,0.018308
2234.5390,0.017632
2236.4027,0.018012
2238.2664,0.018597
2240.1300,0.019374
2241.9937,0.019357
2243.8574,0.018934
2245.7210,0.018850
2247.5847,0.019671
2249.4484,0.019594
2251.3121,0.019788
2253.1757,0.019938
2255.0394,0.019907
2256.9031,0.019758
2258.7667,0.019989
2260.6304,0.020350
2262.4941,0.020907
2264.3577,0.021157
2266.2214,0.021460
2268.0851,0.021445
2269.9487,0.021678
2271.8124,0.021933
2273.6761,0.022296
2275.5397,0.022864
2277.4034,0.023077
2279.2671,0.022930
2281.1308,0.023500
2282.9944,0.023956
2284.8581,0.024227
2286.7218,0.023929
2288.5854,0.023762
2290.4491,0.024003
2292.3128,0.024340
2294.1764,0.024550
2296.0401,0.024700
2297.9038,0.024565
2299.7674,0.024581
2301.6311,0.024872
2303.4948,0.025075
2305.3585,0.025104
2307.2221,0.025348
2309.0858,0.025141
2310.9495,0.024896
2312.8131,0.024723
2314.6768,0.025081
2316.5405,0.025496
2318.4041,0.025287
2320.2678,0.025228
2322.1315,0.025537
2323.9951,0.025497
2325.8588,0.025307
2327.7225,0.024421
2329.5861,0.023766
2331.4498,0.023949
2333.3135,0.023761
2335.1772,0.023899
2337.0408,0.024227
2338.9045,0.024253
2340.7682,0.024060
2342.6318,0.023738
2344.4955,0.023915
2346.3592,0.024149
2348.2228,0.024198
2350.0865,0.023785
2351.9502,0.023315
2353.8138,0.023338
2355.6775,0.023145
2357.5412,0.023197
2359.4049,0.022897
2361.2685,0.022846
2363.1322,0.023311
2364.9959,0.023618
2366.8595,0.024109
2368.7232,0.024201
2370.5869,0.024785
2372.4505,0.025434
2374.3142,0.025420
2376.1779,0.025457
2378.0415,0.025820
2379.9052,0.025527
2381.7689,0.025417
2383.6325,0.025475
2385.4962,0.025333
2387.3599,0.025222
2389.2236,0.025063
2391.0872,0.025205
2392.9509,0.025213
2394.8146,0.024965
2396.6782,0.025083
2398.5419,0.025177
2400.4056,0.025186
2402.2692,0.025364
2404.1329,0.025402
2405.9966,0.025458
2407.8602,0.025720
2409.7239,0.025876
2411.5876,0.025892
2413.4512,0.025959
2415.3149,0.025933
2417.1786,0.025908
2419.0423,0.026037
2420.9059,0.026111
2422.7696,0.026160
2424.6333,0.026387
2426.4969,0.026515
2428.3606,0.026715
2430.2243,0.026849
2432.0879,0.026591
2433.9516,0.026532
2435.8153,0.026638
2437.6789,0.026513
2439.5426,0.026845
2441.4063,0.027124
2443.2700,0.026760
2445.1336,0.026518
2446.9973,0.026811
2448.8610,0.027029
2450.7246,0.027181
2452.5883,0.027138
2454.4520,0.027038
2456.3156,0.026869
2458.1793,0.026547
2460.0430,0.026368
2461.9066,0.026778
2463.7703,0.026912
2465.6340,0.026656
2467.4976,0.026562
2469.3613,0.026856
2471.2250,0.027004
2473.0887,0.026846
2474.9523,0.026828
2476.8160,0.026973
2478.6797,0.027299
2480.5433,0.027313
2482.4070,0.027195
2484.2707,0.027286
2486.1343,0.027698
2487.9980,0.027885
2489.8617,0.027835
2491.7253,0.028157
2493.5890,0.028102
2495.4527,0.028186
2497.3164,0.028285
2499.1800,0.028345
2501.0437,0.028602
2502.9074,0.028375
2504.7710,0.028234
2506.6347,0.028250
2508.4984,0.028369
2510.3620,0.028476
2512.2257,0.028495
2514.0894,0.028753
2515.9530,0.028784
2517.8167,0.028686
2519.6804,0.028624
2521.5440,0.029003
2523.4077,0.029203
2525.2714,0.029464
2527.1351,0.029853
2528.9987,0.029537
2530.8624,0.029313
2532.7261,0.029757
2534.5897,0.030159
2536.4534,0.030001
2538.3171,0.029572
2540.1807,0.029826
2542.0444,0.030146
2543.9081,0.030041
2545.7717,0.029766
2547.6354,0.029986
2549.4991,0.030014
2551.3627,0.029886
2553.2264,0.030149
2555.0901,0.030336
2556.9538,0.030163
2558.8174,0.030364
2560.6811,0.030366
2562.5448,0.030652
2564.4084,0.030884
2566.2721,0.030771
2568.1358,0.030637
2569.9994,0.030950
2571.8631,0.031162
2573.7268,0.031210
2575.5904,0.031475
2577.4541,0.031949
2579.3178,0.031772
2581.1815,0.031651
2583.0451,0.032033
2584.9088,0.032649
2586.7725,0.032832
2588.6361,0.032732
2590.4998,0.032808
2592.3635,0.032998
2594.2271,0.032893
2596.0908,0.033103
2597.9545,0.033406
2599.8181,0.033516
2601.6818,0.033715
2603.5455,0.034170
2605.4091,0.034436
2607.2728,0.034733
2609.1365,0.034741
2611.0002,0.034683
2612.8638,0.034811
2614.7275,0.035231
2616.5912,0.035473
2618.4548,0.035390
2620.3185,0.035246
2622.1822,0.035478
2624.0458,0.035897
2625.9095,0.036420
2627.7732,0.036701
2629.6368,0.037095
2631.5005,0.037365
2633.3642,0.037497
2635.2279,0.037578
2637.0915,0.037753
2638.9552,0.037886
2640.8189,0.038037
2642.6825,0.038220
2644.5462,0.038319
2646.4099,0.038385
2648.2735,0.038634
2650.1372,0.038820
2652.0009,0.038933
2653.8645,0.038912
2655.7282,0.039185
2657.5919,0.039355
2659.4555,0.039389
2661.3192,0.039465
2663.1829,0.039532
2665.0466,0.039547
2666.9102,0.039636
2668.7739,0.039458
2670.6376,0.039460
2672.5012,0.039737
2674.3649,0.040156
2676.2286,0.040342
2678.0922,0.040402
2679.9559,0.040618
2681.8196,0.040952
2683.6832,0.040852
2685.5469,0.040859
2687.4106,0.041087
2689.2742,0.041234
2691.1379,0.041392
2693.0016,0.041710
2694.8653,0.042053
2696.7289,0.042371
2698.5926,0.042505
2700.4563,0.042840
2702.3199,0.043267
2704.1836,0.043501
2706.0473,0.043711
2707.9109,0.044060
2709.7746,0.044418
2711.6383,0.044796
2713.5019,0.044980
2715.3656,0.045318
2717.2293,0.045595
2719.0930,0.045835
2720.9566,0.045936
2722.8203,0.046289
2724.6840,0.046757
2726.5476,0.047394
2728.4113,0.048088
2730.2750,0.048347
2732.1386,0.048325
2734.0023,0.048538
2735.8660,0.048869
2737.7296,0.049571
2739.5933,0.050232
2741.4570,0.050606
2743.3206,0.050889
2745.1843,0.051362
2747.0480,0.051771
2748.9117,0.052344
2750.7753,0.053001
2752.6390,0.053537
2754.5027,0.053739
2756.3663,0.054202
2758.2300,0.054645
2760.0937,0.055090
2761.9573,0.055695
2763.8210,0.056327
2765.6847,0.056640
2767.5483,0.057106
2769.4120,0.057652
2771.2757,0.058330
2773.1394,0.058992
2775.0030,0.059663
2776.8667,0.060294
2778.7304,0.060841
2780.5940,0.061073
2782.4577,0.061230
2784.3214,0.061271
2786.1850,0.061388
2788.0487,0.061244
2789.9124,0.060818
2791.7760,0.060358
2793.6397,0.060113
2795.5034,0.059635
2797.3670,0.059196
2799.2307,0.058932
2801.0944,0.058839
2802.9581,0.058511
2804.8217,0.058150
2806.6854,0.057885
2808.5491,0.057918
2810.4127,0.057674
2812.2764,0.057800
2814.1401,0.058035
2816.0037,0.058057
2817.8674,0.058067
2819.7311,0.058391
2821.5947,0.058514
2823.4584,0.058728
2825.3221,0.058938
2827.1857,0.058763
2829.0494,0.058281
2830.9131,0.057993
2832.7768,0.057525
2834.6404,0.057590
2836.5041,0.057966
2838.3678,0.058331
2840.2314,0.058828
2842.0951,0.059325
2843.9588,0.059526
2845.8224,0.059787
2847.6861,0.060254
2849.5498,0.061222
2851.4134,0.061878
2853.2771,0.062330
2855.1408,0.062800
2857.0045,0.063519
2858.8681,0.064012
2860.7318,0.064793
2862.5955,0.065562
2864.4591,0.065916
2866.3228,0.066137
2868.1865,0.066629
2870.0501,0.066909
2871.9138,0.067183
2873.7775,0.067484
2875.6411,0.068135
2877.5048,0.068495
2879.3685,0.068576
2881.2321,0.068682
2883.0958,0.069067
2884.9595,0.069317
2886.8232,0.069756
2888.6868,0.070081
2890.5505,0.070701
2892.4142,0.071243
2894.2778,0.071631
2896.1415,0.072156
2898.0052,0.072899
2899.8688,0.072991
2901.7325,0.072799
2903.5962,0.072851
2905.4598,0.073169
2907.3235,0.073372
2909.1872,0.073725
2911.0509,0.074140
2912.9145,0.074898
2914.7782,0.075809
2916.6419,0.076724
2918.5055,0.077232
2920.3692,0.077835
2922.2329,0.078248
2924.0965,0.079040
2925.9602,0.079897
2927.8239,0.080551
2929.6875,0.081186
2931.5512,0.082034
2933.4149,0.082598
2935.2785,0.082838
2937.1422,0.082760
2939.0059,0.083113
2940.8696,0.083305
2942.7332,0.083477
2944.5969,0.083770
2946.4606,0.084060
2948.3242,0.084169
2950.1879,0.084537
2952.0516,0.084627
2953.9152,0.084903
2955.7789,0.085236
2957.6426,0.085587
2959.5062,0.085841
2961.3699,0.086485
2963.2336,0.087054
2965.0972,0.087366
2966.9609,0.087533
2968.8246,0.088408
2970.6883,0.089227
2972.5519,0.089806
2974.4156,0.090286
2976.2793,0.090924
2978.1429,0.091074
2980.0066,0.091313
2981.8703,0.091442
2983.7339,0.091531
2985.5976,0.091547
2987.4613,0.091846
2989.3249,0.092066
2991.1886,0.092428
2993.0523,0.093046
2994.9160,0.094041
2996.7796,0.094721
2998.6433,0.095372
3000.5070,0.095638
3002.3706,0.095986
3004.2343,0.096572
3006.0980,0.097441
3007.9616,0.097847
3009.8253,0.098760
3011.6890,0.099579
3013.5526,0.100326
3015.4163,0.100900
3017.2800,0.101531
3019.1436,0.101850
3021.0073,0.102113
3022.8710,0.102292
3024.7347,0.102890
3026.5983,0.103412
3028.4620,0.103997
3030.3257,0.104369
3032.1893,0.104899
3034.0530,0.105320
3035.9167,0.105882
3037.7803,0.106021
3039.6440,0.106199
3041.5077,0.106557
3043.3713,0.107164
3045.2350,0.107424
3047.0987,0.107644
3048.9624,0.107716
3050.8260,0.108075
3052.6897,0.108544
3054.5534,0.109067
3056.4170,0.109136
3058.2807,0.109134
3060.1444,0.108757
3062.0080,0.108865
3063.8717,0.109093
3065.7354,0.109771
3067.5990,0.110116
3069.4627,0.109989
3071.3264,0.109633
3073.1900,0.109618
3075.0537,0.109192
3076.9174,0.109018
3078.7811,0.108604
3080.6447,0.108470
3082.5084,0.108641
3084.3721,0.108183
3086.2357,0.107169
3088.0994,0.107185
3089.9631,0.107077
3091.8267,0.106509
3093.6904,0.105433
3095.5541,0.104503
3097.4177,0.103823
3099.2814,0.103447
3101.1451,0.102828
3103.0087,0.102158
3104.8724,0.101080
3106.7361,0.100230
3108.5998,0.099395
3110.4634,0.099027
3112.3271,0.098462
3114.1908,0.098013
3116.0544,0.097823
3117.9181,0.097718
3119.7818,0.096917
3121.6454,0.096122
3123.5091,0.095549
3125.3728,0.094952
3127.2364,0.093585
3129.1001,0.092547
3130.9638,0.092282
3132.8275,0.092811
3134.6911,0.092171
3136.5548,0.091177
3138.4185,0.090617
3140.2821,0.090643
3142.1458,0.090458
3144.0095,0.090317
3145.8731,0.090193
3147.7368,0.090012
3149.6005,0.089269
3151.4641,0.089111
3153.3278,0.089014
3155.1915,0.089090
3157.0551,0.088858
3158.9188,0.088597
3160.7825,0.087911
3162.6462,0.087409
3164.5098,0.086728
3166.3735,0.086521
3168.2372,0.086434
3170.1008,0.085997
3171.9645,0.085636
3173.8282,0.086374
3175.6918,0.086155
3177.5555,0.085720
3179.4192,0.085929
3181.2828,0.086022
3183.1465,0.085505
3185.0102,0.085392
3186.8739,0.085193
3188.7375,0.085116
3190.6012,0.085010
3192.4649,0.085032
3194.3285,0.084934
3196.1922,0.085277
3198.0559,0.085401
3199.9195,0.085660
3201.7832,0.085665
3203.6469,0.085592
3205.5105,0.085543
3207.3742,0.085960
3209.2379,0.086134
3211.1015,0.086408
3212.9652,0.085894
3214.8289,0.085857
3216.6926,0.085970
3218.5562,0.086290
3220.4199,0.086363
3222.2836,0.086717
3224.1472,0.086951
3226.0109,0.087367
3227.8746,0.087223
3229.7382,0.086974
3231.6019,0.086693
3233.4656,0.087557
3235.3292,0.088579
3237.1929,0.088708
3239.0566,0.087916
3240.9202,0.088506
3242.7839,0.089211
3244.6476,0.089418
3246.5113,0.089352
3248.3749,0.089595
3250.2386,0.089944
3252.1023,0.090484
3253.9659,0.090534
3255.8296,0.091070
3257.6933,0.091432
3259.5569,0.091735
3261.4206,0.091776
3263.2843,0.091920
3265.1479,0.091627
3267.0116,0.091732
3268.8753,0.092120
3270.7390,0.092277
3272.6026,0.091582
3274.4663,0.091938
3276.3300,0.092380
3278.1936,0.092332
3280.0573,0.091484
3281.9210,0.090977
3283.7846,0.090229
3285.6483,0.089513
3287.5120,0.089023
3289.3756,0.088829
3291.2393,0.087921
3293.1030,0.087381
3294.9666,0.086264
3296.8303,0.085539
3298.6940,0.084906
3300.5577,0.084233
3302.4213,0.083136
3304.2850,0.082488
3306.1487,0.081912
3308.0123,0.082077
3309.8760,0.081713
3311.7397,0.080723
3313.6033,0.079693
3315.4670,0.079304
3317.3307,0.079023
3319.1943,0.079654
3321.0580,0.079364
3322.9217,0.078833
3324.7854,0.079502
3326.6490,0.080942
3328.5127,0.080905
3330.3764,0.080583
3332.2400,0.079514
3334.1037,0.078856
3335.9674,0.078555
3337.8310,0.078232
3339.6947,0.076856
3341.5584,0.075648
3343.4220,0.074932
3345.2857,0.074786
3347.1494,0.074058
3349.0130,0.072636
3350.8767,0.070622
3352.7404,0.069627
3354.6041,0.068531
3356.4677,0.067780
3358.3314,0.066299
3360.1951,0.064640
3362.0587,0.064006
3363.9224,0.064534
3365.7861,0.064389
3367.6497,0.065062
3369.5134,0.064996
3371.3771,0.063953
3373.2407,0.063280
3375.1044,0.063579
3376.9681,0.063296
3378.8317,0.062901
3380.6954,0.062656
3382.5591,0.063217
3384.4228,0.063501
3386.2864,0.063657
3388.1501,0.063462
3390.0138,0.064036
3391.8774,0.064422
3393.7411,0.065659
3395.6048,0.066165
3397.4684,0.065782
3399.3321,0.064829
3401.1958,0.064850
3403.0594,0.063861
3404.9231,0.062080
3406.7868,0.060262
3408.6505,0.059482
3410.5141,0.058571
3412.3778,0.057111
3414.2415,0.055460
3416.1051,0.055303
3417.9688,0.053900
3419.8325,0.052486
3421.6961,0.051282
3423.5598,0.050121
3425.4235,0.048923
3427.2871,0.048010
3429.1508,0.045681
3431.0145,0.043993
3432.8781,0.043431
3434.7418,0.043763
3436.6055,0.042655
3438.4692,0.042123
3440.3328,0.041873
3442.1965,0.040840
3444.0602,0.040301
3445.9238,0.040909
3447.7875,0.040137
3449.6512,0.039524
3451.5148,0.039671
3453.3785,0.038483
3455.2422,0.036826
3457.1058,0.037069
3458.9695,0.035866
3460.8332,0.034738
3462.6969,0.035468
3464.5605,0.036392
3466.4242,0.034601
3468.2879,0.033078
3470.1515,0.033042
3472.0152,0.033520
3473.8789,0.033028
3475.7425,0.033546
3477.6062,0.032480
3479.4699,0.031523
3481.3335,0.031221
3483.1972,0.031318
3485.0609,0.030269
3486.9245,0.030292
3488.7882,0.030347
3490.6519,0.029970
3492.5156,0.028544
3494.3792,0.028558
3496.2429,0.028502
3498.1066,0.028451
3499.9702,0.028439
3501.8339,0.028641
3503.6976,0.027768
3505.5612,0.026456
3507.4249,0.024791
3509.2886,0.023983
3511.1522,0.024654
3513.0159,0.025503
3514.8796,0.024754
3516.7432,0.025080
3518.6069,0.024978
3520.4706,0.024118
3522.3343,0.023281
3524.1979,0.023398
3526.0616,0.023215
3527.9253,0.023766
3529.7889,0.022629
3531.6526,0.021591
3533.5163,0.021208
3535.3799,0.021978
3537.2436,0.021413
3539.1073,0.020917
3540.9709,0.020762
3542.8346,0.020754
3544.6983,0.020880
3546.5620,0.021547
3548.4256,0.020574
3550.2893,0.019454
3552.1530,0.019311
3554.0166,0.020122
3555.8803,0.019580
3557.7440,0.018492
3559.6076,0.017991
3561.4713,0.018531
3563.3350,0.018719
3565.1986,0.019306
3567.0623,0.019219
3568.9260,0.020465
3570.7896,0.020639
3572.6533,0.018660
3574.5170,0.016514
3576.3807,0.017137
3578.2443,0.017313
3580.1080,0.017091
3581.9717,0.016660
3583.8353,0.017156
3585.6990,0.016738
3587.5627,0.016906
3589.4263,0.017057
3591.2900,0.017441
3593.1537,0.016727
3595.0173,0.016987
3596.8810,0.017196
3598.7447,0.016778
3600.6084,0.016317
3602.4720,0.016478
3604.3357,0.015872
3606.1994,0.015242
3608.0630,0.015520
3609.9267,0.017054
3611.7904,0.016508
3613.6540,0.016471
3615.5177,0.016509
3617.3814,0.016827
3619.2450,0.015651
3621.1087,0.015157
3622.9724,0.015220
3624.8360,0.015135
3626.6997,0.014341
3628.5634,0.015244
3630.4271,0.015936
3632.2907,0.015942
3634.1544,0.015556
3636.0181,0.015054
3637.8817,0.015307
3639.7454,0.014200
3641.6091,0.014073
3643.4727,0.014198
3645.3364,0.013535
3647.2001,0.014370
3649.0637,0.015254
3650.9274,0.018322
3652.7911,0.017275
3654.6547,0.015365
3656.5184,0.014657
3658.3821,0.014264
3660.2458,0.014503
3662.1094,0.013268
3663.9731,0.013220
3665.8368,0.013834
3667.7004,0.013681
3669.5641,0.014958
3671.4278,0.016206
3673.2914,0.016913
3675.1551,0.018879
3677.0188,0.019044
3678.8824,0.017802
3680.7461,0.015915
3682.6098,0.013347
3684.4735,0.013479
3686.3371,0.012977
3688.2008,0.014474
3690.0645,0.014387
3691.9281,0.016892
3693.7918,0.016799
3695.6555,0.015675
3697.5191,0.014765
3699.3828,0.014710
3701.2465,0.014448
3703.1101,0.013818
3704.9738,0.013549
3706.8375,0.013736
3708.7011,0.013337
3710.5648,0.014450
3712.4285,0.015327
3714.2922,0.016066
3716.1558,0.015305
3718.0195,0.013848
3719.8832,0.012796
3721.7468,0.013523
3723.6105,0.013764
3725.4742,0.014702
3727.3378,0.014891
3729.2015,0.014562
3731.0652,0.014268
3732.9288,0.013696
3734.7925,0.014128
3736.6562,0.016149
3738.5199,0.015148
3740.3835,0.016042
3742.2472,0.014326
3744.1109,0.014453
3745.9745,0.013350
3747.8382,0.015482
3749.7019,0.016760
3751.5655,0.015045
3753.4292,0.016716
3755.2929,0.015564
3757.1565,0.015019
3759.0202,0.014456
3760.8839,0.015138
3762.7475,0.014090
3764.6112,0.014060
3766.4749,0.014364
3768.3386,0.015111
3770.2022,0.015801
3772.0659,0.014877
3773.9296,0.015144
3775.7932,0.014277
3777.6569,0.013689
3779.5206,0.014222
3781.3842,0.014206
3783.2479,0.015028
3785.1116,0.014992
3786.9752,0.014660
3788.8389,0.015068
3790.7026,0.014335
3792.5662,0.013806
3794.4299,0.013573
3796.2936,0.014203
3798.1573,0.014045
3800.0209,0.014287
3801.8846,0.015625
3803.7483,0.016091
3805.6119,0.016820
3807.4756,0.015926
3809.3393,0.015023
3811.2029,0.015133
3813.0666,0.013420
3814.9303,0.013545
3816.7939,0.014897
3818.6576,0.015358
3820.5213,0.016704
3822.3850,0.015595
3824.2486,0.016677
3826.1123,0.016817
3827.9760,0.015063
3829.8396,0.014613
3831.7033,0.014831
3833.5670,0.014133
3835.4306,0.015272
3837.2943,0.015910
3839.1580,0.017390
3841.0216,0.017648
3842.8853,0.018087
3844.7490,0.017268
3846.6126,0.015689
3848.4763,0.015178
3850.3400,0.014048
3852.2037,0.014458
3854.0673,0.016681
3855.9310,0.017544
3857.7947,0.017879
3859.6583,0.015226
3861.5220,0.014519
3863.3857,0.015053
3865.2493,0.016675
3867.1130,0.016166
3868.9767,0.016431
3870.8403,0.016367
3872.7040,0.017587
3874.5677,0.018454
3876.4314,0.015648
3878.2950,0.016355
3880.1587,0.015828
3882.0224,0.015918
3883.8860,0.016556
3885.7497,0.017264
3887.6134,0.016543
3889.4770,0.017179
3891.3407,0.015669
3893.2044,0.015245
3895.0680,0.016374
3896.9317,0.015403
3898.7954,0.015201
3900.6590,0.016409
3902.5227,0.018052
3904.3864,0.018744
3906.2501,0.017956
3908.1137,0.017035
3909.9774,0.015624
3911.8411,0.015186
3913.7047,0.015348
3915.5684,0.015647
3917.4321,0.016135
3919.2957,0.016922
3921.1594,0.017187
3923.0231,0.016712
3924.8867,0.016602
3926.7504,0.016864
3928.6141,0.017584
3930.4777,0.016552
3932.3414,0.016573
3934.2051,0.017755
3936.0688,0.016938
3937.9324,0.015896
3939.7961,0.015257
3941.6598,0.016077
3943.5234,0.016782
3945.3871,0.017224
3947.2508,0.016537
3949.1144,0.016431
3950.9781,0.017213
3952.8418,0.016513
3954.7054,0.015910
3956.5691,0.016098
3958.4328,0.016044
3960.2965,0.016335
3962.1601,0.016237
3964.0238,0.016481
3965.8875,0.016638
3967.7511,0.016436
3969.6148,0.016134
3971.4785,0.016250
3973.3421,0.016250
3975.2058,0.016264
3977.0695,0.016451
3978.9331,0.016429
3980.7968,0.016493
3982.6605,0.016249
3984.5241,0.016067
3986.3878,0.016532
3988.2515,0.016733
3990.1152,0.016572
3991.9788,0.016264
3993.8425,0.016298
3995.7062,0.015971
3997.5698,0.016285
3999.4335,0.016565
