Wavenumber,Intensity
650.4205,0.230114
652.2841,0.226155
654.1478,0.224042
656.0115,0.223080
657.8751,0.222014
659.7388,0.219768
661.6025,0.219165
663.4661,0.218727
665.3298,0.218405
667.1935,0.222004
669.0571,0.226451
670.9208,0.220661
672.7845,0.214452
674.6481,0.208725
676.5118,0.206751
678.3755,0.205432
680.2392,0.204781
682.1028,0.203362
683.9665,0.202092
685.8302,0.201542
687.6938,0.200747
689.5575,0.197866
691.4212,0.196725
693.2848,0.195875
695.1485,0.195419
697.0122,0.196394
698.8758,0.197229
700.7395,0.196772
702.6032,0.195779
704.4669,0.191802
706.3305,0.187196
708.1942,0.181750
710.0579,0.173652
711.9215,0.165069
713.7852,0.158446
715.6489,0.152366
717.5125,0.146100
719.3762,0.139840
721.2399,0.135287
723.1035,0.131234
724.9672,0.126444
726.8309,0.122297
728.6945,0.118818
730.5582,0.114825
732.4219,0.110882
734.2856,0.107521
736.1492,0.105316
738.0129,0.104022
739.8766,0.103834
741.7402,0.105097
743.6039,0.107269
745.4676,0.108676
747.3312,0.108390
749.1949,0.107454
751.0586,0.106479
752.9222,0.105091
754.7859,0.103935
756.6496,0.103236
758.5132,0.102663
760.3769,0.101904
762.2406,0.101072
764.1043,0.100391
765.9679,0.100193
767.8316,0.100057
769.6953,0.099900
771.5589,0.099879
773.4226,0.100354
775.2863,0.101146
777.1499,0.101833
779.0136,0.102205
780.8773,0.102657
782.7409,0.103186
784.6046,0.104137
786.4683,0.105656
788.3320,0.107399
790.1956,0.109001
792.0593,0.110434
793.9230,0.111897
795.7866,0.113562
797.6503,0.115508
799.5140,0.116780
801.3776,0.117310
803.2413,0.117648
805.1050,0.117125
806.9686,0.116035
808.8323,0.114322
810.6960,0.111745
812.5596,0.108682
814.4233,0.105720
816.2870,0.102425
818.1507,0.099373
820.0143,0.096873
821.8780,0.094920
823.7417,0.094089
825.6053,0.094608
827.4690,0.096271
829.3327,0.096976
831.1963,0.091832
833.0600,0.081567
834.9237,0.073011
836.7873,0.068951
838.6510,0.067500
840.5147,0.066820
842.3784,0.066447
844.2420,0.066316
846.1057,0.066415
847.9694,0.066462
849.8330,0.066116
851.6967,0.065711
853.5604,0.065716
855.4240,0.065760
857.2877,0.065782
859.1514,0.065978
861.0150,0.065928
862.8787,0.065786
864.7424,0.065913
866.6060,0.066174
868.4697,0.066301
870.3334,0.066240
872.1971,0.066360
874.0607,0.066496
875.9244,0.066663
877.7881,0.067086
879.6517,0.067398
881.5154,0.067483
883.3791,0.067705
885.2427,0.068105
887.1064,0.068607
888.9701,0.069116
890.8337,0.069687
892.6974,0.070426
894.5611,0.071309
896.4247,0.072515
898.2884,0.074078
900.1521,0.075707
902.0158,0.077610
903.8794,0.080146
905.7431,0.083649
907.6068,0.088129
909.4704,0.093136
911.3341,0.099264
913.1978,0.106553
915.0614,0.110651
916.9251,0.104493
918.7888,0.090789
920.6524,0.079649
922.5161,0.074591
924.3798,0.073140
926.2435,0.073127
928.1071,0.073636
929.9708,0.074231
931.8345,0.074782
933.6981,0.075412
935.5618,0.076232
937.4255,0.077034
939.2891,0.077832
941.1528,0.078711
943.0165,0.079596
944.8801,0.080390
946.7438,0.081330
948.6075,0.082523
950.4711,0.083726
952.3348,0.084901
954.1985,0.086181
956.0622,0.087571
957.9258,0.089037
959.7895,0.090689
961.6532,0.092404
963.5168,0.094186
965.3805,0.096367
967.2442,0.098984
969.1078,0.101913
970.9715,0.104916
972.8352,0.108483
974.6988,0.114054
976.5625,0.123189
978.4262,0.138436
980.2899,0.160049
982.1535,0.169851
984.0172,0.146985
985.8809,0.115712
987.7445,0.101619
989.6082,0.099707
991.4719,0.100732
993.3355,0.102709
995.1992,0.105047
997.0629,0.107262
998.9265,0.109614
1000.7902,0.112133
1002.6539,0.114623
1004.5175,0.117233
1006.3812,0.119917
1008.2449,0.122439
1010.1086,0.124830
1011.9722,0.126967
1013.8359,0.128395
1015.6996,0.129199
1017.5632,0.129405
1019.4269,0.128886
1021.2906,0.127939
1023.1542,0.126895
1025.0179,0.126039
1026.8816,0.125502
1028.7452,0.125162
1030.6089,0.125028
1032.4726,0.125120
1034.3362,0.125526
1036.1999,0.126313
1038.0636,0.127503
1039.9273,0.129196
1041.7909,0.131335
1043.6546,0.133879
1045.5183,0.136595
1047.3819,0.138419
1049.2456,0.137366
1051.1093,0.131725
1052.9729,0.122720
1054.8366,0.114053
1056.7003,0.108228
1058.5639,0.105290
1060.4276,0.104411
1062.2913,0.104673
1064.1550,0.105272
1066.0186,0.106094
1067.8823,0.107268
1069.7460,0.108733
1071.6096,0.110530
1073.4733,0.112515
1075.3370,0.114655
1077.2006,0.116823
1079.0643,0.118889
1080.9280,0.120998
1082.7916,0.123061
1084.6553,0.125150
1086.5190,0.127540
1088.3826,0.130207
1090.2463,0.133275
1092.1100,0.136975
1093.9737,0.141230
1095.8373,0.146042
1097.7010,0.151513
1099.5647,0.157309
1101.4283,0.163129
1103.2920,0.168342
1105.1557,0.171603
1107.0193,0.171287
1108.8830,0.166297
1110.7467,0.156688
1112.6103,0.144311
1114.4740,0.131719
1116.3377,0.120555
1118.2014,0.111437
1120.0650,0.104493
1121.9287,0.099670
1123.7924,0.096487
1125.6560,0.093996
1127.5197,0.091619
1129.3834,0.089363
1131.2470,0.087307
1133.1107,0.085441
1134.9744,0.083882
1136.8380,0.082860
1138.7017,0.082298
1140.5654,0.082015
1142.4290,0.081934
1144.2927,0.081969
1146.1564,0.082081
1148.0201,0.082276
1149.8837,0.082648
1151.7474,0.083157
1153.6111,0.083785
1155.4747,0.084628
1157.3384,0.085631
1159.2021,0.086828
1161.0657,0.088333
1162.9294,0.090124
1164.7931,0.092229
1166.6567,0.094877
1168.5204,0.097984
1170.3841,0.100962
1172.2477,0.102791
1174.1114,0.102068
1175.9751,0.098307
1177.8388,0.093176
1179.7024,0.088861
1181.5661,0.086267
1183.4298,0.085145
1185.2934,0.084865
1187.1571,0.084885
1189.0208,0.085034
1190.8844,0.085274
1192.7481,0.085509
1194.6118,0.085785
1196.4754,0.086192
1198.3391,0.086596
1200.2028,0.086893
1202.0665,0.087142
1203.9301,0.087283
1205.7938,0.087269
1207.6575,0.087269
1209.5211,0.087382
1211.3848,0.087599
1213.2485,0.087988
1215.1121,0.088544
1216.9758,0.089244
1218.8395,0.090063
1220.7031,0.090887
1222.5668,0.091665
1224.4305,0.092503
1226.2941,0.093342
1228.1578,0.093985
1230.0215,0.094538
1231.8852,0.095104
1233.7488,0.095556
1235.6125,0.095917
1237.4762,0.096327
1239.3398,0.096763
1241.2035,0.097126
1243.0672,0.097450
1244.9308,0.097738
1246.7945,0.098005
1248.6582,0.098265
1250.5218,0.098494
1252.3855,0.098833
1254.2492,0.099235
1256.1129,0.099544
1257.9765,0.099876
1259.8402,0.100552
1261.7039,0.101428
1263.5675,0.102134
1265.4312,0.102737
1267.2949,0.103111
1269.1585,0.103093
1271.0222,0.102974
1272.8859,0.102973
1274.7495,0.103183
1276.6132,0.103861
1278.4769,0.104953
1280.3405,0.106228
1282.2042,0.107569
1284.0679,0.108830
1285.9316,0.110244
1287.7952,0.112295
1289.6589,0.114820
1291.5226,0.117648
1293.3862,0.121046
1295.2499,0.125328
1297.1136,0.130726
1298.9772,0.137096
1300.8409,0.144592
1302.7046,0.152786
1304.5682,0.159006
1306.4319,0.158971
1308.2956,0.148700
1310.1592,0.129401
1312.0229,0.109713
1313.8866,0.096772
1315.7503,0.091579
1317.6139,0.091398
1319.4776,0.093536
1321.3413,0.095713
1323.2049,0.097805
1325.0686,0.100356
1326.9323,0.102985
1328.7959,0.105624
1330.6596,0.108145
1332.5233,0.109997
1334.3869,0.110828
1336.2506,0.111245
1338.1143,0.112828
1339.9780,0.115381
1341.8416,0.115399
1343.7053,0.114080
1345.5690,0.114090
1347.4326,0.114886
1349.2963,0.116014
1351.1600,0.117276
1353.0236,0.118881
1354.8873,0.121354
1356.7510,0.123792
1358.6146,0.125478
1360.4783,0.128119
1362.3420,0.134205
1364.2056,0.139626
1366.0693,0.141066
1367.9330,0.144181
1369.7967,0.148581
1371.6603,0.151625
1373.5240,0.157529
1375.3877,0.165167
1377.2513,0.168812
1379.1150,0.173284
1380.9787,0.179535
1382.8423,0.185436
1384.7060,0.191683
1386.5697,0.201230
1388.4333,0.212608
1390.2970,0.216658
1392.1607,0.217490
1394.0244,0.218480
1395.8880,0.214684
1397.7517,0.205889
1399.6154,0.195848
1401.4790,0.184755
1403.3427,0.174882
1405.2064,0.161961
1407.0700,0.143718
1408.9337,0.125887
1410.7974,0.110301
1412.6610,0.099041
1414.5247,0.093120
1416.3884,0.092165
1418.2520,0.097827
1420.1157,0.107829
1421.9794,0.110717
1423.8431,0.108898
1425.7067,0.101561
1427.5704,0.092647
1429.4341,0.087898
1431.2977,0.086588
1433.1614,0.086020
1435.0251,0.087396
1436.8887,0.093607
1438.7524,0.096802
1440.6161,0.096031
1442.4797,0.097038
1444.3434,0.098123
1446.2071,0.099090
1448.0707,0.100606
1449.9344,0.099149
1451.7981,0.094815
1453.6618,0.090342
1455.5254,0.089061
1457.3891,0.096189
1459.2528,0.098387
1461.1164,0.093776
1462.9801,0.092063
1464.8438,0.093664
1466.7074,0.093305
1468.5711,0.089514
1470.4348,0.087209
1472.2984,0.089365
1474.1621,0.092869
1476.0258,0.091952
1477.8895,0.090719
1479.7531,0.089890
1481.6168,0.090653
1483.4805,0.090948
1485.3441,0.090445
1487.2078,0.091996
1489.0715,0.097024
1490.9351,0.101647
1492.7988,0.099998
1494.6625,0.098595
1496.5261,0.103074
1498.3898,0.108636
1500.2535,0.108911
1502.1171,0.106763
1503.9808,0.104750
1505.8445,0.109015
1507.7082,0.126713
1509.5718,0.124889
1511.4355,0.121016
1513.2992,0.120263
1515.1628,0.120769
1517.0265,0.123991
1518.8902,0.125629
1520.7538,0.127661
1522.6175,0.133690
1524.4812,0.132875
1526.3448,0.133429
1528.2085,0.134598
1530.0722,0.133088
1531.9359,0.133517
1533.7995,0.137946
1535.6632,0.137187
1537.5269,0.133691
1539.3905,0.138558
1541.2542,0.152203
1543.1179,0.151742
1544.9815,0.151412
1546.8452,0.150175
1548.7089,0.149548
1550.5725,0.152090
1552.4362,0.152885
1554.2999,0.152674
1556.1635,0.153551
1558.0272,0.160742
1559.8909,0.183466
1561.7546,0.173796
1563.6182,0.167947
1565.4819,0.168954
1567.3456,0.170590
1569.2092,0.175176
1571.0729,0.180569
1572.9366,0.178506
1574.8002,0.180388
1576.6639,0.190715
1578.5276,0.194075
1580.3912,0.192446
1582.2549,0.194214
1584.1186,0.196321
1585.9822,0.197655
1587.8459,0.198483
1589.7096,0.198899
1591.5733,0.198483
1593.4369,0.197781
1595.3006,0.196851
1597.1643,0.194885
1599.0279,0.192321
1600.8916,0.190170
1602.7553,0.188545
1604.6189,0.186859
1606.4826,0.185281
1608.3463,0.184438
1610.2099,0.183250
1612.0736,0.180254
1613.9373,0.176520
1615.8010,0.174222
1617.6646,0.170542
1619.5283,0.162275
1621.3920,0.155972
1623.2556,0.150623
1625.1193,0.143284
1626.9830,0.135515
1628.8466,0.126800
1630.7103,0.117132
1632.5740,0.108981
1634.4376,0.102469
1636.3013,0.097747
1638.1650,0.093076
1640.0286,0.089940
1641.8923,0.087840
1643.7560,0.086822
1645.6197,0.087961
1647.4833,0.092318
1649.3470,0.092214
1651.2107,0.091129
1653.0743,0.097112
1654.9380,0.103998
1656.8017,0.099462
1658.6653,0.097222
1660.5290,0.096158
1662.3927,0.095745
1664.2563,0.094027
1666.1200,0.090764
1667.9837,0.088413
1669.8474,0.087827
1671.7110,0.086223
1673.5747,0.084801
1675.4384,0.086098
1677.3020,0.087822
1679.1657,0.087941
1681.0294,0.089728
1682.8930,0.092696
1684.7567,0.099240
1686.6204,0.099480
1688.4840,0.095929
1690.3477,0.092973
1692.2114,0.088876
1694.0750,0.084654
1695.9387,0.081025
1697.8024,0.076723
1699.6661,0.073189
1701.5297,0.067051
1703.3934,0.060413
1705.2571,0.053521
1707.1207,0.045570
1708.9844,0.039370
1710.8481,0.034721
1712.7117,0.030946
1714.5754,0.028336
1716.4391,0.026828
1718.3027,0.026745
1720.1664,0.025550
1722.0301,0.023998
1723.8937,0.022313
1725.7574,0.020459
1727.6211,0.018441
1729.4848,0.016908
1731.3484,0.015668
1733.2121,0.014963
1735.0758,0.014933
1736.9394,0.014298
1738.8031,0.013187
1740.6668,0.013185
1742.5304,0.013073
1744.3941,0.012860
1746.2578,0.012343
1748.1214,0.011783
1749.9851,0.011678
1751.8488,0.012046
1753.7125,0.011631
1755.5761,0.011063
1757.4398,0.011047
1759.3035,0.011195
1761.1671,0.010965
1763.0308,0.011338
1764.8945,0.011135
1766.7581,0.010874
1768.6218,0.010795
1770.4855,0.010663
1772.3491,0.010768
1774.2128,0.011405
1776.0765,0.010938
1777.9401,0.010616
1779.8038,0.010624
1781.6675,0.011149
1783.5312,0.011177
1785.3948,0.011163
1787.2585,0.011132
1789.1222,0.010895
1790.9858,0.010758
1792.8495,0.011360
1794.7132,0.011556
1796.5768,0.011256
1798.4405,0.010886
1800.3042,0.010943
1802.1678,0.011463
1804.0315,0.011794
1805.8952,0.011529
1807.7589,0.011350
1809.6225,0.011341
1811.4862,0.011627
1813.3499,0.011564
1815.2135,0.011167
1817.0772,0.010889
1818.9409,0.011192
1820.8045,0.011371
1822.6682,0.011244
1824.5319,0.011154
1826.3955,0.011372
1828.2592,0.011050
1830.1229,0.011255
1831.9865,0.011572
1833.8502,0.011226
1835.7139,0.010985
1837.5776,0.011156
1839.4412,0.011192
1841.3049,0.011081
1843.1686,0.010824
1845.0322,0.011256
1846.8959,0.011588
1848.7596,0.011547
1850.6232,0.011539
1852.4869,0.011408
1854.3506,0.011156
1856.2142,0.011395
1858.0779,0.011780
1859.9416,0.011952
1861.8052,0.011789
1863.6689,0.011899
1865.5326,0.011691
1867.3963,0.011423
1869.2599,0.011610
1871.1236,0.011880
1872.9873,0.011398
1874.8509,0.011449
1876.7146,0.011560
1878.5783,0.011449
1880.4419,0.011218
1882.3056,0.011376
1884.1693,0.011536
1886.0329,0.011796
1887.8966,0.011589
1889.7603,0.011430
1891.6240,0.011602
1893.4876,0.011746
1895.3513,0.011619
1897.2150,0.011732
1899.0786,0.011390
1900.9423,0.011059
1902.8060,0.011046
1904.6696,0.011541
1906.5333,0.011677
1908.3970,0.011729
1910.2606,0.011597
1912.1243,0.012027
1913.9880,0.011988
1915.8516,0.011863
1917.7153,0.011840
1919.5790,0.011747
1921.4427,0.011125
1923.3063,0.010743
1925.1700,0.010648
1927.0337,0.011067
1928.8973,0.011194
1930.7610,0.011259
1932.6247,0.011050
1934.4883,0.011375
1936.3520,0.011107
1938.2157,0.010719
1940.0793,0.010075
1941.9430,0.010245
1943.8067,0.010701
1945.6704,0.010184
1947.5340,0.008862
1949.3977,0.009842
1951.2614,0.010696
1953.1250,0.010807
1954.9887,0.009925
1956.8524,0.009320
1958.7160,0.008655
1960.5797,0.007731
1962.4434,0.007173
1964.3070,0.008101
1966.1707,0.007310
1968.0344,0.006774
1969.8980,0.006116
1971.7617,0.005184
1973.6254,0.003824
1975.4891,0.004928
1977.3527,0.006049
1979.2164,0.007148
1981.0801,0.007985
1982.9437,0.007590
1984.8074,0.006903
1986.6711,0.008048
1988.5347,0.008375
1990.3984,0.008874
1992.2621,0.009048
1994.1257,0.008610
1995.9894,0.009184
1997.8531,0.009681
1999.7167,0.007985
2001.5804,0.007964
2003.4441,0.007250
2005.3078,0.007415
2007.1714,0.007142
2009.0351,0.006345
2010.8988,0.005771
2012.7624,0.006026
2014.6261,0.005103
2016.4898,0.005996
2018.3534,0.006839
2020.2171,0.006772
2022.0808,0.005278
2023.9444,0.004773
2025.8081,0.004955
2027.6718,0.005888
2029.5355,0.006527
2031.3991,0.006791
2033.2628,0.005840
2035.1265,0.006843
2036.9901,0.008118
2038.8538,0.007671
2040.7175,0.006991
2042.5811,0.007746
2044.4448,0.008815
2046.3085,0.009797
2048.1721,0.010405
2050.0358,0.010706
2051.8995,0.010420
2053.7631,0.011210
2055.6268,0.012488
2057.4905,0.012990
2059.3542,0.012371
2061.2178,0.012435
2063.0815,0.012873
2064.9452,0.013247
2066.8088,0.012810
2068.6725,0.013202
2070.5362,0.012928
2072.3998,0.012599
2074.2635,0.012614
2076.1272,0.013428
2077.9908,0.013905
2079.8545,0.014557
2081.7182,0.014925
2083.5819,0.015070
2085.4455,0.015474
2087.3092,0.016095
2089.1729,0.015373
2091.0365,0.014323
2092.9002,0.014147
2094.7639,0.014049
2096.6275,0.013906
2098.4912,0.014882
2100.3549,0.015016
2102.2185,0.015368
2104.0822,0.015868
2105.9459,0.015825
2107.8095,0.015144
2109.6732,0.015228
2111.5369,0.015753
2113.4006,0.016088
2115.2642,0.015772
2117.1279,0.015644
2118.9916,0.015515
2120.8552,0.015452
2122.7189,0.015043
2124.5826,0.014820
2126.4462,0.014307
2128.3099,0.014720
2130.1736,0.014307
2132.0372,0.013869
2133.9009,0.014410
2135.7646,0.014508
2137.6282,0.013493
2139.4919,0.013528
2141.3556,0.013178
2143.2193,0.012849
2145.0829,0.011504
2146.9466,0.010992
2148.8103,0.010633
2150.6739,0.009883
2152.5376,0.008695
2154.4013,0.006845
2156.2649,0.005891
2158.1286,0.007752
2159.9923,0.007648
2161.8559,0.008152
2163.7196,0.009171
2165.5833,0.010071
2167.4470,0.010034
2169.3106,0.009927
2171.1743,0.008728
2173.0380,0.009434
2174.9016,0.011359
2176.7653,0.012090
2178.6290,0.010042
2180.4926,0.009505
2182.3563,0.009812
2184.2200,0.011479
2186.0836,0.012031
2187.9473,0.011787
2189.8110,0.011829
2191.6746,0.011557
2193.5383,0.012519
2195.4020,0.014263
2197.2657,0.013947
2199.1293,0.013193
2200.9930,0.013839
2202.8567,0.014167
2204.7203,0.013813
2206.5840,0.014623
2208.4477,0.014749
2210.3113,0.014363
2212.1750,0.014647
2214.0387,0.015535
2215.9023,0.015365
2217.7660,0.014924
2219.6297,0.014824
2221.4934,0.016033
2223.3570,0.016640
2225.2207,0.016634
2227.0844,0.016074
2228.9480,0.015947
2230.8117,0.016427
2232.6754,0.016720
2234.5390,0.016847
2236.4027,0.017185
2238.2664,0.017375
2240.1300,0.017046
2241.9937,0.016741
2243.8574,0.017414
2245.7210,0.017999
2247.5847,0.018198
2249.4484,0.018349
2251.3121,0.018554
2253.1757,0.018454
2255.0394,0.018521
2256.9031,0.018403
2258.7667,0.018611
2260.6304,0.018535
2262.4941,0.018791
2264.3577,0.019382
2266.2214,0.019525
2268.0851,0.019618
2269.9487,0.020454
2271.8124,0.021179
2273.6761,0.021455
2275.5397,0.021508
2277.4034,0.021608
2279.2671,0.021172
2281.1308,0.020849
2282.9944,0.021559
2284.8581,0.022018
2286.7218,0.022072
2288.5854,0.022391
2290.4491,0.022554
2292.3128,0.022554
2294.1764,0.022650
2296.0401,0.022892
2297.9038,0.022843
2299.7674,0.022831
2301.6311,0.022850
2303.4948,0.022946
2305.3585,0.022932
2307.2221,0.023032
2309.0858,0.023283
2310.9495,0.023348
2312.8131,0.023053
2314.6768,0.023169
2316.5405,0.023019
2318.4041,0.023003
2320.2678,0.023273
2322.1315,0.023278
2323.9951,0.023214
2325.8588,0.023011
2327.7225,0.022442
2329.5861,0.022125
2331.4498,0.021992
2333.3135,0.022128
2335.1772,0.022169
2337.0408,0.022184
2338.9045,0.022162
2340.7682,0.022422
2342.6318,0.023015
2344.4955,0.023481
2346.3592,0.023129
2348.2228,0.022374
2350.0865,0.021451
2351.9502,0.020922
2353.8138,0.021095
2355.6775,0.021075
2357.5412,0.021335
2359.4049,0.021896
2361.2685,0.021661
2363.1322,0.021501
2364.9959,0.021627
2366.8595,0.022323
2368.7232,0.022938
2370.5869,0.022960
2372.4505,0.022646
2374.3142,0.022625
2376.1779,0.023263
2378.0415,0.023526
2379.9052,0.023407
2381.7689,0.023162
2383.6325,0.022973
2385.4962,0.023013
2387.3599,0.023036
2389.2236,0.022950
2391.0872,0.022997
2392.9509,0.023181
2394.8146,0.023312
2396.6782,0.023227
2398.5419,0.023242
2400.4056,0.023385
2402.2692,0.023496
2404.1329,0.023511
2405.9966,0.023462
2407.8602,0.023444
2409.7239,0.023480
2411.5876,0.023650
2413.4512,0.023984
2415.3149,0.024001
2417.1786,0.023860
2419.0423,0.024099
2420.9059,0.024408
2422.7696,0.024708
2424.6333,0.024440
2426.4969,0.023924
2428.3606,0.024314
2430.2243,0.024446
2432.0879,0.024428
2433.9516,0.024443
2435.8153,0.024064
2437.6789,0.024222
2439.5426,0.024405
2441.4063,0.024729
2443.2700,0.024937
2445.1336,0.024995
2446.9973,0.025145
2448.8610,0.024892
2450.7246,0.024651
2452.5883,0.024699
2454.4520,0.024654
2456.3156,0.024543
2458.1793,0.024767
2460.0430,0.024632
2461.9066,0.024271
2463.7703,0.024203
2465.6340,0.024145
2467.4976,0.024136
2469.3613,0.024280
2471.2250,0.024651
2473.0887,0.024911
2474.9523,0.024711
2476.8160,0.024381
2478.6797,0.024767
2480.5433,0.025119
2482.4070,0.025032
2484.2707,0.024909
2486.1343,0.024999
2487.9980,0.024903
2489.8617,0.025143
2491.7253,0.025732
2493.5890,0.025852
2495.4527,0.025435
2497.3164,0.025747
2499.1800,0.025912
2501.0437,0.025925
2502.9074,0.025915
2504.7710,0.025728
2506.6347,0.026221
2508.4984,0.026358
2510.3620,0.026158
2512.2257,0.026308
2514.0894,0.026159
2515.9530,0.026316
2517.8167,0.026600
2519.6804,0.026533
2521.5440,0.026271
2523.4077,0.027054
2525.2714,0.027302
2527.1351,0.026404
2528.9987,0.026741
2530.8624,0.027295
2532.7261,0.027048
2534.5897,0.027128
2536.4534,0.027098
2538.3171,0.027146
2540.1807,0.027193
2542.0444,0.027112
2543.9081,0.027265
2545.7717,0.027623
2547.6354,0.027666
2549.4991,0.027592
2551.3627,0.027844
2553.2264,0.027562
2555.0901,0.027199
2556.9538,0.027540
2558.8174,0.027546
2560.6811,0.027739
2562.5448,0.028309
2564.4084,0.028234
2566.2721,0.028021
2568.1358,0.028433
2569.9994,0.028478
2571.8631,0.028358
2573.7268,0.028436
2575.5904,0.028554
2577.4541,0.028813
2579.3178,0.029061
2581.1815,0.029099
2583.0451,0.029580
2584.9088,0.029804
2586.7725,0.029724
2588.6361,0.029594
2590.4998,0.029551
2592.3635,0.029649
2594.2271,0.030034
2596.0908,0.030726
2597.9545,0.031015
2599.8181,0.031123
2601.6818,0.031195
2603.5455,0.031244
2605.4091,0.031291
2607.2728,0.031563
2609.1365,0.031507
2611.0002,0.031459
2612.8638,0.031848
2614.7275,0.032326
2616.5912,0.032363
2618.4548,0.032367
2620.3185,0.032722
2622.1822,0.032923
2624.0458,0.032977
2625.9095,0.033342
2627.7732,0.033549
2629.6368,0.033483
2631.5005,0.033632
2633.3642,0.033983
2635.2279,0.034424
2637.0915,0.034788
2638.9552,0.035063
2640.8189,0.035367
2642.6825,0.035440
2644.5462,0.035498
2646.4099,0.035633
2648.2735,0.035770
2650.1372,0.035750
2652.0009,0.035716
2653.8645,0.035888
2655.7282,0.036037
2657.5919,0.036186
2659.4555,0.036419
2661.3192,0.036389
2663.1829,0.036415
2665.0466,0.036626
2666.9102,0.036772
2668.7739,0.036604
2670.6376,0.036528
2672.5012,0.036782
2674.3649,0.036858
2676.2286,0.036962
2678.0922,0.037136
2679.9559,0.037515
2681.8196,0.038020
2683.6832,0.038089
2685.5469,0.038110
2687.4106,0.038257
2689.2742,0.038450
2691.1379,0.038539
2693.0016,0.038850
2694.8653,0.039104
2696.7289,0.039373
2698.5926,0.039569
2700.4563,0.039721
2702.3199,0.040210
2704.1836,0.040562
2706.0473,0.040906
2707.9109,0.041223
2709.7746,0.041635
2711.6383,0.041813
2713.5019,0.041971
2715.3656,0.042264
2717.2293,0.042447
2719.0930,0.042831
2720.9566,0.043272
2722.8203,0.043585
2724.6840,0.044015
2726.5476,0.044547
2728.4113,0.044879
2730.2750,0.045252
2732.1386,0.045490
2734.0023,0.045809
2735.8660,0.046142
2737.7296,0.046618
2739.5933,0.047169
2741.4570,0.047680
2743.3206,0.048141
2745.1843,0.048447
2747.0480,0.048761
2748.9117,0.049466
2750.7753,0.050159
2752.6390,0.050693
2754.5027,0.051064
2756.3663,0.051557
2758.2300,0.052168
2760.0937,0.052588
2761.9573,0.053032
2763.8210,0.053473
2765.6847,0.053933
2767.5483,0.054626
2769.4120,0.055401
2771.2757,0.055947
2773.1394,0.056445
2775.0030,0.057161
2776.8667,0.057800
2778.7304,0.058166
2780.5940,0.058239
2782.4577,0.058278
2784.3214,0.058448
2786.1850,0.058603
2788.0487,0.058494
2789.9124,0.058210
2791.7760,0.057722
2793.6397,0.057325
2795.5034,0.056817
2797.3670,0.056226
2799.2307,0.056037
2801.0944,0.055955
2802.9581,0.055577
2804.8217,0.055014
2806.6854,0.054445
2808.5491,0.054158
2810.4127,0.054265
2812.2764,0.054361
2814.1401,0.054242
2816.0037,0.054193
2817.8674,0.054286
2819.7311,0.054662
2821.5947,0.054839
2823.4584,0.054802
2825.3221,0.054773
2827.1857,0.054467
2829.0494,0.054222
2830.9131,0.054098
2832.7768,0.053838
2834.6404,0.053853
2836.5041,0.053935
2838.3678,0.054101
2840.2314,0.054692
2842.0951,0.055425
2843.9588,0.055693
2845.8224,0.055625
2847.6861,0.055979
2849.5498,0.056947
2851.4134,0.057510
2853.2771,0.058074
2855.1408,0.058675
2857.0045,0.059349
2858.8681,0.060144
2860.7318,0.060736
2862.5955,0.061190
2864.4591,0.061602
2866.3228,0.061904
2868.1865,0.061997
2870.0501,0.062060
2871.9138,0.062504
2873.7775,0.062962
2875.6411,0.063494
2877.5048,0.063651
2879.3685,0.063811
2881.2321,0.064214
2883.0958,0.064679
2884.9595,0.065154
2886.8232,0.065758
2888.6868,0.066185
2890.5505,0.066626
2892.4142,0.067159
2894.2778,0.067424
2896.1415,0.067650
2898.0052,0.068205
2899.8688,0.068444
2901.7325,0.068317
2903.5962,0.068372
2905.4598,0.068747
2907.3235,0.068968
2909.1872,0.069166
2911.0509,0.069544
2912.9145,0.070112
2914.7782,0.070897
2916.6419,0.072156
2918.5055,0.072761
2920.3692,0.073230
2922.2329,0.073919
2924.0965,0.074551
2925.9602,0.075229
2927.8239,0.075972
2929.6875,0.076279
2931.5512,0.076893
2933.4149,0.077715
2935.2785,0.078535
2937.1422,0.078863
2939.0059,0.078982
2940.8696,0.079093
2942.7332,0.079323
2944.5969,0.079461
2946.4606,0.079613
2948.3242,0.079764
2950.1879,0.080184
2952.0516,0.080466
2953.9152,0.081013
2955.7789,0.081604
2957.6426,0.081571
2959.5062,0.081619
2961.3699,0.082418
2963.2336,0.083293
2965.0972,0.083937
2966.9609,0.084524
2968.8246,0.085337
2970.6883,0.085799
2972.5519,0.086494
2974.4156,0.087015
2976.2793,0.087378
2978.1429,0.088043
2980.0066,0.088888
2981.8703,0.089035
2983.7339,0.088921
2985.5976,0.088879
2987.4613,0.089128
2989.3249,0.089343
2991.1886,0.089758
2993.0523,0.090268
2994.9160,0.091735
2996.7796,0.092803
2998.6433,0.093337
3000.5070,0.093999
3002.3706,0.094531
3004.2343,0.094894
3006.0980,0.095517
3007.9616,0.095787
3009.8253,0.096550
3011.6890,0.097534
3013.5526,0.098601
3015.4163,0.099185
3017.2800,0.099420
3019.1436,0.099880
3021.0073,0.100921
3022.8710,0.101287
3024.7347,0.101039
3026.5983,0.101637
3028.4620,0.102244
3030.3257,0.102344
3032.1893,0.103232
3034.0530,0.103624
3035.9167,0.103780
3037.7803,0.104267
3039.6440,0.104441
3041.5077,0.104459
3043.3713,0.105135
3045.2350,0.105695
3047.0987,0.105988
3048.9624,0.106210
3050.8260,0.106458
3052.6897,0.106764
3054.5534,0.106830
3056.4170,0.106933
3058.2807,0.107615
3060.1444,0.107692
3062.0080,0.107574
3063.8717,0.107740
3065.7354,0.108074
3067.5990,0.108208
3069.4627,0.108388
3071.3264,0.107978
3073.1900,0.107887
3075.0537,0.107664
3076.9174,0.107211
3078.7811,0.106947
3080.6447,0.107094
3082.5084,0.107097
3084.3721,0.106486
3086.2357,0.105386
3088.0994,0.105081
3089.9631,0.104998
3091.8267,0.104377
3093.6904,0.103308
3095.5541,0.102244
3097.4177,0.101598
3099.2814,0.100926
3101.1451,0.100306
3103.0087,0.099866
3104.8724,0.098774
3106.7361,0.097681
3108.5998,0.096976
3110.4634,0.096642
3112.3271,0.095701
3114.1908,0.094694
3116.0544,0.093814
3117.9181,0.093310
3119.7818,0.093189
3121.6454,0.092643
3123.5091,0.091357
3125.3728,0.090331
3127.2364,0.089998
3129.1001,0.089981
3130.9638,0.089240
3132.8275,0.088235
3134.6911,0.087696
3136.5548,0.086839
3138.4185,0.085581
3140.2821,0.085663
3142.1458,0.086334
3144.0095,0.086186
3145.8731,0.085485
3147.7368,0.084773
3149.6005,0.084138
3151.4641,0.084158
3153.3278,0.084514
3155.1915,0.084705
3157.0551,0.084107
3158.9188,0.083158
3160.7825,0.082677
3162.6462,0.082109
3164.5098,0.081204
3166.3735,0.081123
3168.2372,0.081491
3170.1008,0.081017
3171.9645,0.079980
3173.8282,0.079486
3175.6918,0.079657
3177.5555,0.079692
3179.4192,0.079330
3181.2828,0.079550
3183.1465,0.079694
3185.0102,0.079536
3186.8739,0.079418
3188.7375,0.079145
3190.6012,0.079344
3192.4649,0.079642
3194.3285,0.078837
3196.1922,0.078312
3198.0559,0.078417
3199.9195,0.078797
3201.7832,0.078581
3203.6469,0.078541
3205.5105,0.078903
3207.3742,0.079286
3209.2379,0.079038
3211.1015,0.079217
3212.9652,0.079843
3214.8289,0.079741
3216.6926,0.079310
3218.5562,0.079819
3220.4199,0.080093
3222.2836,0.080009
3224.1472,0.079867
3226.0109,0.080202
3227.8746,0.080578
3229.7382,0.080409
3231.6019,0.080427
3233.4656,0.080435
3235.3292,0.080400
3237.1929,0.080589
3239.0566,0.081361
3240.9202,0.081996
3242.7839,0.081520
3244.6476,0.081471
3246.5113,0.082125
3248.3749,0.082900
3250.2386,0.082929
3252.1023,0.083127
3253.9659,0.083597
3255.8296,0.083679
3257.6933,0.083991
3259.5569,0.083970
3261.4206,0.083938
3263.2843,0.084935
3265.1479,0.084780
3267.0116,0.084319
3268.8753,0.085815
3270.7390,0.086976
3272.6026,0.086243
3274.4663,0.085815
3276.3300,0.085463
3278.1936,0.084326
3280.0573,0.083610
3281.9210,0.083968
3283.7846,0.083438
3285.6483,0.082772
3287.5120,0.082533
3289.3756,0.082075
3291.2393,0.081549
3293.1030,0.081172
3294.9666,0.079342
3296.8303,0.078076
3298.6940,0.077688
3300.5577,0.076761
3302.4213,0.076085
3304.2850,0.075489
3306.1487,0.074376
3308.0123,0.074002
3309.8760,0.074021
3311.7397,0.074506
3313.6033,0.074587
3315.4670,0.073553
3317.3307,0.073016
3319.1943,0.073049
3321.0580,0.072695
3322.9217,0.072717
3324.7854,0.073098
3326.6490,0.074213
3328.5127,0.074664
3330.3764,0.074238
3332.2400,0.073317
3334.1037,0.072665
3335.9674,0.072230
3337.8310,0.071876
3339.6947,0.071385
3341.5584,0.070799
3343.4220,0.069335
3345.2857,0.067648
3347.1494,0.067008
3349.0130,0.066179
3350.8767,0.064704
3352.7404,0.064355
3354.6041,0.063366
3356.4677,0.062236
3358.3314,0.061270
3360.1951,0.059586
3362.0587,0.058990
3363.9224,0.058700
3365.7861,0.057764
3367.6497,0.057658
3369.5134,0.057784
3371.3771,0.057242
3373.2407,0.057182
3375.1044,0.056895
3376.9681,0.056272
3378.8317,0.056615
3380.6954,0.056931
3382.5591,0.056286
3384.4228,0.056669
3386.2864,0.057798
3388.1501,0.058481
3390.0138,0.059377
3391.8774,0.059396
3393.7411,0.059746
3395.6048,0.060154
3397.4684,0.059376
3399.3321,0.059606
3401.1958,0.060142
3403.0594,0.059309
3404.9231,0.057430
3406.7868,0.055625
3408.6505,0.054948
3410.5141,0.053741
3412.3778,0.052199
3414.2415,0.050972
3416.1051,0.048914
3417.9688,0.046879
3419.8325,0.046050
3421.6961,0.045493
3423.5598,0.044726
3425.4235,0.043156
3427.2871,0.041253
3429.1508,0.040581
3431.0145,0.040191
3432.8781,0.038365
3434.7418,0.036328
3436.6055,0.035220
3438.4692,0.035521
3440.3328,0.035946
3442.1965,0.034949
3444.0602,0.034288
3445.9238,0.034245
3447.7875,0.034072
3449.6512,0.033502
3451.5148,0.032185
3453.3785,0.031651
3455.2422,0.031557
3457.1058,0.030949
3458.9695,0.030097
3460.8332,0.030143
3462.6969,0.030478
3464.5605,0.029240
3466.4242,0.028735
3468.2879,0.029158
3470.1515,0.028593
3472.0152,0.027451
3473.8789,0.026470
3475.7425,0.026616
3477.6062,0.026974
3479.4699,0.026786
3481.3335,0.025858
3483.1972,0.024916
3485.0609,0.024471
3486.9245,0.023882
3488.7882,0.024855
3490.6519,0.025402
3492.5156,0.023124
3494.3792,0.021703
3496.2429,0.022001
3498.1066,0.022126
3499.9702,0.022309
3501.8339,0.021253
3503.6976,0.020006
3505.5612,0.020397
3507.4249,0.020619
3509.2886,0.020472
3511.1522,0.019886
3513.0159,0.019150
3514.8796,0.019271
3516.7432,0.018008
3518.6069,0.016843
3520.4706,0.017879
3522.3343,0.018168
3524.1979,0.017482
3526.0616,0.017272
3527.9253,0.016935
3529.7889,0.016170
3531.6526,0.016404
3533.5163,0.016843
3535.3799,0.016361
3537.2436,0.016031
3539.1073,0.015921
3540.9709,0.015161
3542.8346,0.013773
3544.6983,0.012942
3546.5620,0.014223
3548.4256,0.015582
3550.2893,0.015080
3552.1530,0.014100
3554.0166,0.012873
3555.8803,0.012930
3557.7440,0.014070
3559.6076,0.014446
3561.4713,0.014182
3563.3350,0.013534
3565.1986,0.012155
3567.0623,0.010863
3568.9260,0.011816
3570.7896,0.013047
3572.6533,0.012833
3574.5170,0.013232
3576.3807,0.013521
3578.2443,0.012360
3580.1080,0.011734
3581.9717,0.012061
3583.8353,0.011944
3585.6990,0.010808
3587.5627,0.009011
3589.4263,0.009629
3591.2900,0.011287
3593.1537,0.011126
3595.0173,0.010791
3596.8810,0.010388
3598.7447,0.009958
3600.6084,0.010206
3602.4720,0.010739
3604.3357,0.010768
3606.1994,0.010204
3608.0630,0.009444
3609.9267,0.009764
3611.7904,0.010753
3613.6540,0.010379
3615.5177,0.010512
3617.3814,0.010434
3619.2450,0.009043
3621.1087,0.009433
3622.9724,0.010586
3624.8360,0.010648
3626.6997,0.010181
3628.5634,0.008606
3630.4271,0.008043
3632.2907,0.010603
3634.1544,0.011109
3636.0181,0.011080
3637.8817,0.010766
3639.7454,0.009858
3641.6091,0.009354
3643.4727,0.008868
3645.3364,0.008512
3647.2001,0.008633
3649.0637,0.008476
3650.9274,0.008628
3652.7911,0.010453
3654.6547,0.010464
3656.5184,0.009729
3658.3821,0.010695
3660.2458,0.011621
3662.1094,0.011149
3663.9731,0.010319
3665.8368,0.009553
3667.7004,0.009197
3669.5641,0.009367
3671.4278,0.010195
3673.2914,0.011562
3675.1551,0.011468
3677.0188,0.012319
3678.8824,0.013322
3680.7461,0.011247
3682.6098,0.009738
3684.4735,0.009014
3686.3371,0.008682
3688.2008,0.008862
3690.0645,0.009515
3691.9281,0.011186
3693.7918,0.012268
3695.6555,0.012454
3697.5191,0.012172
3699.3828,0.011571
3701.2465,0.010610
3703.1101,0.009817
3704.9738,0.010176
3706.8375,0.010036
3708.7011,0.008378
3710.5648,0.007242
3712.4285,0.008431
3714.2922,0.010252
3716.1558,0.010890
3718.0195,0.010494
3719.8832,0.009751
3721.7468,0.009319
3723.6105,0.009155
3725.4742,0.009122
3727.3378,0.009143
3729.2015,0.009739
3731.0652,0.009413
3732.9288,0.008242
3734.7925,0.008140
3736.6562,0.008770
3738.5199,0.009152
3740.3835,0.009032
3742.2472,0.008184
3744.1109,0.006915
3745.9745,0.007236
3747.8382,0.008892
3749.7019,0.008017
3751.5655,0.007740
3753.4292,0.009701
3755.2929,0.010888
3757.1565,0.010377
3759.0202,0.009548
3760.8839,0.010482
3762.7475,0.011641
3764.6112,0.011097
3766.4749,0.010374
3768.3386,0.010426
3770.2022,0.010434
3772.0659,0.010706
3773.9296,0.010838
3775.7932,0.010032
3777.6569,0.009581
3779.5206,0.010250
3781.3842,0.011198
3783.2479,0.011245
3785.1116,0.011073
3786.9752,0.011149
3788.8389,0.010995
3790.7026,0.010943
3792.5662,0.010811
3794.4299,0.010370
3796.2936,0.009944
3798.1573,0.009955
3800.0209,0.010145
3801.8846,0.009392
3803.7483,0.010367
3805.6119,0.011505
3807.4756,0.010447
3809.3393,0.010812
3811.2029,0.011379
3813.0666,0.010740
3814.9303,0.010035
3816.7939,0.009414
3818.6576,0.009889
3820.5213,0.009735
3822.3850,0.009931
3824.2486,0.012081
3826.1123,0.011254
3827.9760,0.010155
3829.8396,0.010746
3831.7033,0.010353
3833.5670,0.009923
3835.4306,0.010420
3837.2943,0.009953
3839.1580,0.009844
3841.0216,0.010784
3842.8853,0.011307
3844.7490,0.011418
3846.6126,0.011180
3848.4763,0.010710
3850.3400,0.009963
3852.2037,0.008432
3854.0673,0.007906
3855.9310,0.011478
3857.7947,0.013501
3859.6583,0.012567
3861.5220,0.011102
3863.3857,0.010582
3865.2493,0.010275
3867.1130,0.010075
3868.9767,0.010004
3870.8403,0.009730
3872.7040,0.010906
3874.5677,0.011487
3876.4314,0.011715
3878.2950,0.011789
3880.1587,0.010697
3882.0224,0.010859
3883.8860,0.011979
3885.7497,0.011196
3887.6134,0.011147
3889.4770,0.011880
3891.3407,0.011042
3893.2044,0.010573
3895.0680,0.011272
3896.9317,0.011380
3898.7954,0.010812
3900.6590,0.010450
3902.5227,0.011294
3904.3864,0.011746
3906.2501,0.012191
3908.1137,0.012700
3909.9774,0.012491
3911.8411,0.012323
3913.7047,0.012082
3915.5684,0.011962
3917.4321,0.011854
3919.2957,0.011916
3921.1594,0.012265
3923.0231,0.012144
3924.8867,0.011779
3926.7504,0.011980
3928.6141,0.012216
3930.4777,0.011931
3932.3414,0.012253
3934.2051,0.012864
3936.0688,0.012906
3937.9324,0.012419
3939.7961,0.011809
3941.6598,0.011366
3943.5234,0.011753
3945.3871,0.012500
3947.2508,0.012353
3949.1144,0.012265
3950.9781,0.013123
3952.8418,0.013275
3954.7054,0.012738
3956.5691,0.012363
3958.4328,0.012283
3960.2965,0.012378
3962.1601,0.012277
3964.0238,0.012256
3965.8875,0.012388
3967.7511,0.012303
3969.6148,0.012355
3971.4785,0.012633
3973.3421,0.012848
3975.2058,0.013022
3977.0695,0.012905
3978.9331,0.012648
3980.7968,0.012545
3982.6605,0.012423
3984.5241,0.012336
3986.3878,0.012366
3988.2515,0.012581
3990.1152,0.012908
3991.9788,0.013193
3993.8425,0.013125
3995.7062,0.013229
3997.5698,0.013456
3999.4335,0.013035
