Wavenumber,Intensity
650.4205,0.108842
652.2841,0.106527
654.1478,0.104238
656.0115,0.102474
657.8751,0.101515
659.7388,0.100733
661.6025,0.100825
663.4661,0.099509
665.3298,0.098079
667.1935,0.098050
669.0571,0.099676
670.9208,0.100007
672.7845,0.099589
674.6481,0.099402
676.5118,0.098128
678.3755,0.094749
680.2392,0.092839
682.1028,0.091224
683.9665,0.088617
685.8302,0.085991
687.6938,0.083399
689.5575,0.081431
691.4212,0.081125
693.2848,0.080278
695.1485,0.078588
697.0122,0.077678
698.8758,0.077699
700.7395,0.077981
702.6032,0.078078
704.4669,0.077063
706.3305,0.075104
708.1942,0.072641
710.0579,0.071033
711.9215,0.069464
713.7852,0.067033
715.6489,0.065174
717.5125,0.063733
719.3762,0.061885
721.2399,0.060453
723.1035,0.059310
724.9672,0.057261
726.8309,0.055369
728.6945,0.054074
730.5582,0.052575
732.4219,0.050861
734.2856,0.048754
736.1492,0.047151
738.0129,0.046710
739.8766,0.047024
741.7402,0.048159
743.6039,0.049537
745.4676,0.049932
747.3312,0.049950
749.1949,0.050028
751.0586,0.050150
752.9222,0.049985
754.7859,0.049608
756.6496,0.049577
758.5132,0.049690
760.3769,0.049480
762.2406,0.049595
764.1043,0.050388
765.9679,0.051636
767.8316,0.053415
769.6953,0.055670
771.5589,0.058359
773.4226,0.061681
775.2863,0.064428
777.1499,0.064102
779.0136,0.059867
780.8773,0.054637
782.7409,0.051228
784.6046,0.049671
786.4683,0.049353
788.3320,0.050052
790.1956,0.051273
792.0593,0.052292
793.9230,0.053634
795.7866,0.055371
797.6503,0.056643
799.5140,0.058197
801.3776,0.060512
803.2413,0.063789
805.1050,0.067936
806.9686,0.072737
808.8323,0.075933
810.6960,0.071460
812.5596,0.060043
814.4233,0.050013
816.2870,0.044979
818.1507,0.043173
820.0143,0.042236
821.8780,0.041725
823.7417,0.041853
825.6053,0.042593
827.4690,0.043905
829.3327,0.044998
831.1963,0.043977
833.0600,0.040969
834.9237,0.038351
836.7873,0.037723
838.6510,0.038693
840.5147,0.040267
842.3784,0.042256
844.2420,0.044444
846.1057,0.045994
847.9694,0.045897
849.8330,0.043684
851.6967,0.040432
853.5604,0.037328
855.4240,0.034214
857.2877,0.031374
859.1514,0.029527
861.0150,0.028736
862.8787,0.028538
864.7424,0.028472
866.6060,0.028436
868.4697,0.028671
870.3334,0.028954
872.1971,0.029203
874.0607,0.029364
875.9244,0.029504
877.7881,0.030017
879.6517,0.030621
881.5154,0.031073
883.3791,0.031604
885.2427,0.032156
887.1064,0.032782
888.9701,0.033604
890.8337,0.034741
892.6974,0.036031
894.5611,0.037216
896.4247,0.037862
898.2884,0.037303
900.1521,0.036086
902.0158,0.035213
903.8794,0.035066
905.7431,0.035885
907.6068,0.037373
909.4704,0.039179
911.3341,0.041542
913.1978,0.044440
915.0614,0.046433
916.9251,0.044926
918.7888,0.040468
920.6524,0.037002
922.5161,0.036412
924.3798,0.037361
926.2435,0.037132
928.1071,0.034582
929.9708,0.031530
931.8345,0.029938
933.6981,0.029626
935.5618,0.029854
937.4255,0.030384
939.2891,0.030791
941.1528,0.031066
943.0165,0.031508
944.8801,0.031936
946.7438,0.032280
948.6075,0.032805
950.4711,0.033393
952.3348,0.033741
954.1985,0.034095
956.0622,0.034678
957.9258,0.035225
959.7895,0.035717
961.6532,0.036335
963.5168,0.036984
965.3805,0.037680
967.2442,0.038566
969.1078,0.039652
970.9715,0.040843
972.8352,0.042141
974.6988,0.044033
976.5625,0.047409
978.4262,0.053151
980.2899,0.061315
982.1535,0.065904
984.0172,0.058911
985.8809,0.047385
987.7445,0.041546
989.6082,0.040712
991.4719,0.041443
993.3355,0.042757
995.1992,0.044535
997.0629,0.046391
998.9265,0.047078
1000.7902,0.045537
1002.6539,0.042614
1004.5175,0.040285
1006.3812,0.039591
1008.2449,0.039909
1010.1086,0.040468
1011.9722,0.041134
1013.8359,0.041773
1015.6996,0.042425
1017.5632,0.043274
1019.4269,0.044190
1021.2906,0.045054
1023.1542,0.045966
1025.0179,0.046997
1026.8816,0.048025
1028.7452,0.048985
1030.6089,0.050065
1032.4726,0.051477
1034.3362,0.053194
1036.1999,0.055053
1038.0636,0.057073
1039.9273,0.059453
1041.7909,0.062345
1043.6546,0.065764
1045.5183,0.069663
1047.3819,0.073683
1049.2456,0.076747
1051.1093,0.076398
1052.9729,0.070514
1054.8366,0.060901
1056.7003,0.052271
1058.5639,0.047339
1060.4276,0.045576
1062.2913,0.045378
1064.1550,0.045903
1066.0186,0.046923
1067.8823,0.048216
1069.7460,0.049734
1071.6096,0.051327
1073.4733,0.052990
1075.3370,0.055008
1077.2006,0.057465
1079.0643,0.060276
1080.9280,0.063256
1082.7916,0.065900
1084.6553,0.067400
1086.5190,0.067147
1088.3826,0.065333
1090.2463,0.063602
1092.1100,0.063724
1093.9737,0.065972
1095.8373,0.069535
1097.7010,0.073679
1099.5647,0.078038
1101.4283,0.082056
1103.2920,0.084522
1105.1557,0.084255
1107.0193,0.081305
1108.8830,0.076913
1110.7467,0.072098
1112.6103,0.067303
1114.4740,0.062925
1116.3377,0.059260
1118.2014,0.056495
1120.0650,0.054800
1121.9287,0.054159
1123.7924,0.054351
1125.6560,0.055127
1127.5197,0.055923
1129.3834,0.055881
1131.2470,0.054426
1133.1107,0.051834
1134.9744,0.049182
1136.8380,0.047266
1138.7017,0.046328
1140.5654,0.046287
1142.4290,0.046872
1144.2927,0.047734
1146.1564,0.048741
1148.0201,0.049956
1149.8837,0.051493
1151.7474,0.053418
1153.6111,0.055620
1155.4747,0.058155
1157.3384,0.061061
1159.2021,0.063813
1161.0657,0.065576
1162.9294,0.065575
1164.7931,0.063891
1166.6567,0.061088
1168.5204,0.057657
1170.3841,0.054529
1172.2477,0.052402
1174.1114,0.050800
1175.9751,0.049006
1177.8388,0.047182
1179.7024,0.045975
1181.5661,0.045546
1183.4298,0.045649
1185.2934,0.046109
1187.1571,0.046786
1189.0208,0.047668
1190.8844,0.048614
1192.7481,0.049685
1194.6118,0.051192
1196.4754,0.053073
1198.3391,0.055239
1200.2028,0.057382
1202.0665,0.058203
1203.9301,0.056201
1205.7938,0.052069
1207.6575,0.048398
1209.5211,0.046758
1211.3848,0.046656
1213.2485,0.047145
1215.1121,0.047811
1216.9758,0.048583
1218.8395,0.049374
1220.7031,0.050080
1222.5668,0.050745
1224.4305,0.051486
1226.2941,0.052148
1228.1578,0.052739
1230.0215,0.053400
1231.8852,0.054072
1233.7488,0.054748
1235.6125,0.055515
1237.4762,0.056293
1239.3398,0.057032
1241.2035,0.057837
1243.0672,0.058827
1244.9308,0.060037
1246.7945,0.061338
1248.6582,0.062626
1250.5218,0.064032
1252.3855,0.065389
1254.2492,0.066217
1256.1129,0.066082
1257.9765,0.065015
1259.8402,0.063614
1261.7039,0.062632
1263.5675,0.062519
1265.4312,0.063162
1267.2949,0.064174
1269.1585,0.065268
1271.0222,0.066384
1272.8859,0.067649
1274.7495,0.069118
1276.6132,0.070717
1278.4769,0.072208
1280.3405,0.073020
1282.2042,0.072445
1284.0679,0.070717
1285.9316,0.068946
1287.7952,0.068021
1289.6589,0.068068
1291.5226,0.069005
1293.3862,0.070834
1295.2499,0.073306
1297.1136,0.076165
1298.9772,0.079412
1300.8409,0.083129
1302.7046,0.087130
1304.5682,0.090496
1306.4319,0.091970
1308.2956,0.090155
1310.1592,0.084903
1312.0229,0.078726
1313.8866,0.073908
1315.7503,0.071098
1317.6139,0.069308
1319.4776,0.067787
1321.3413,0.067244
1323.2049,0.068316
1325.0686,0.070779
1326.9323,0.073858
1328.7959,0.076728
1330.6596,0.078652
1332.5233,0.078918
1334.3869,0.077211
1336.2506,0.073773
1338.1143,0.069221
1339.9780,0.064015
1341.8416,0.059551
1343.7053,0.057078
1345.5690,0.056128
1347.4326,0.056427
1349.2963,0.057626
1351.1600,0.059559
1353.0236,0.062154
1354.8873,0.065308
1356.7510,0.068419
1358.6146,0.070424
1360.4783,0.070350
1362.3420,0.068053
1364.2056,0.065100
1366.0693,0.064196
1367.9330,0.065206
1369.7967,0.067041
1371.6603,0.069149
1373.5240,0.071946
1375.3877,0.074774
1377.2513,0.076988
1379.1150,0.079643
1380.9787,0.082619
1382.8423,0.085540
1384.7060,0.088893
1386.5697,0.093079
1388.4333,0.097154
1390.2970,0.099857
1392.1607,0.102274
1394.0244,0.104248
1395.8880,0.103973
1397.7517,0.102755
1399.6154,0.100845
1401.4790,0.099181
1403.3427,0.098673
1405.2064,0.096478
1407.0700,0.091878
1408.9337,0.086517
1410.7974,0.080042
1412.6610,0.074158
1414.5247,0.071204
1416.3884,0.070435
1418.2520,0.069583
1420.1157,0.067007
1421.9794,0.066096
1423.8431,0.064761
1425.7067,0.060376
1427.5704,0.056099
1429.4341,0.052746
1431.2977,0.050525
1433.1614,0.049980
1435.0251,0.050774
1436.8887,0.052397
1438.7524,0.053653
1440.6161,0.054862
1442.4797,0.056585
1444.3434,0.058691
1446.2071,0.061149
1448.0707,0.063402
1449.9344,0.063234
1451.7981,0.059753
1453.6618,0.054832
1455.5254,0.052802
1457.3891,0.054068
1459.2528,0.055321
1461.1164,0.055887
1462.9801,0.057306
1464.8438,0.058859
1466.7074,0.059303
1468.5711,0.059322
1470.4348,0.060099
1472.2984,0.061659
1474.1621,0.062679
1476.0258,0.063082
1477.8895,0.063611
1479.7531,0.064515
1481.6168,0.065370
1483.4805,0.065492
1485.3441,0.065216
1487.2078,0.064701
1489.0715,0.063593
1490.9351,0.060912
1492.7988,0.058525
1494.6625,0.057431
1496.5261,0.055860
1498.3898,0.053437
1500.2535,0.051552
1502.1171,0.050256
1503.9808,0.049808
1505.8445,0.050301
1507.7082,0.049947
1509.5718,0.048539
1511.4355,0.048307
1513.2992,0.048318
1515.1628,0.048903
1517.0265,0.049459
1518.8902,0.049720
1520.7538,0.050622
1522.6175,0.051287
1524.4812,0.051692
1526.3448,0.052527
1528.2085,0.053188
1530.0722,0.053693
1531.9359,0.054938
1533.7995,0.056521
1535.6632,0.056663
1537.5269,0.057430
1539.3905,0.060048
1541.2542,0.062857
1543.1179,0.063371
1544.9815,0.064789
1546.8452,0.065995
1548.7089,0.067551
1550.5725,0.069385
1552.4362,0.071212
1554.2999,0.072882
1556.1635,0.075172
1558.0272,0.078565
1559.8909,0.082311
1561.7546,0.081666
1563.6182,0.082796
1565.4819,0.084875
1567.3456,0.087415
1569.2092,0.090035
1571.0729,0.092182
1572.9366,0.093986
1574.8002,0.096756
1576.6639,0.099222
1578.5276,0.100102
1580.3912,0.101128
1582.2549,0.102232
1584.1186,0.102767
1585.9822,0.102604
1587.8459,0.101714
1589.7096,0.100317
1591.5733,0.098872
1593.4369,0.097661
1595.3006,0.096586
1597.1643,0.096121
1599.0279,0.096521
1600.8916,0.097371
1602.7553,0.098224
1604.6189,0.099182
1606.4826,0.100371
1608.3463,0.101223
1610.2099,0.101058
1612.0736,0.100619
1613.9373,0.100976
1615.8010,0.101002
1617.6646,0.097154
1619.5283,0.094015
1621.3920,0.093015
1623.2556,0.089761
1625.1193,0.084668
1626.9830,0.081376
1628.8466,0.076797
1630.7103,0.072375
1632.5740,0.069872
1634.4376,0.067436
1636.3013,0.061510
1638.1650,0.056622
1640.0286,0.055091
1641.8923,0.053086
1643.7560,0.051737
1645.6197,0.050823
1647.4833,0.048800
1649.3470,0.047718
1651.2107,0.048695
1653.0743,0.047401
1654.9380,0.042894
1656.8017,0.043389
1658.6653,0.043679
1660.5290,0.043267
1662.3927,0.042519
1664.2563,0.041232
1666.1200,0.041118
1667.9837,0.041724
1669.8474,0.042194
1671.7110,0.042866
1673.5747,0.044703
1675.4384,0.046886
1677.3020,0.049824
1679.1657,0.053297
1681.0294,0.057360
1682.8930,0.060707
1684.7567,0.058387
1686.6204,0.054336
1688.4840,0.052462
1690.3477,0.048156
1692.2114,0.044001
1694.0750,0.041291
1695.9387,0.037607
1697.8024,0.033737
1699.6661,0.032578
1701.5297,0.027971
1703.3934,0.026277
1705.2571,0.024370
1707.1207,0.020978
1708.9844,0.018732
1710.8481,0.017153
1712.7117,0.015941
1714.5754,0.015386
1716.4391,0.014579
1718.3027,0.013505
1720.1664,0.012564
1722.0301,0.012541
1723.8937,0.012111
1725.7574,0.011525
1727.6211,0.010837
1729.4848,0.010336
1731.3484,0.009904
1733.2121,0.009851
1735.0758,0.008273
1736.9394,0.007965
1738.8031,0.008057
1740.6668,0.007697
1742.5304,0.007537
1744.3941,0.007672
1746.2578,0.007775
1748.1214,0.007798
1749.9851,0.007458
1751.8488,0.006936
1753.7125,0.006573
1755.5761,0.006854
1757.4398,0.006697
1759.3035,0.006715
1761.1671,0.006590
1763.0308,0.006343
1764.8945,0.006361
1766.7581,0.006640
1768.6218,0.006671
1770.4855,0.007063
1772.3491,0.006771
1774.2128,0.006365
1776.0765,0.006303
1777.9401,0.006354
1779.8038,0.006410
1781.6675,0.006531
1783.5312,0.006759
1785.3948,0.006786
1787.2585,0.006849
1789.1222,0.007023
1790.9858,0.007053
1792.8495,0.006664
1794.7132,0.006348
1796.5768,0.006549
1798.4405,0.006672
1800.3042,0.006651
1802.1678,0.006441
1804.0315,0.006537
1805.8952,0.006683
1807.7589,0.006803
1809.6225,0.006857
1811.4862,0.006922
1813.3499,0.006749
1815.2135,0.006616
1817.0772,0.006571
1818.9409,0.006736
1820.8045,0.006721
1822.6682,0.006911
1824.5319,0.007032
1826.3955,0.006905
1828.2592,0.006838
1830.1229,0.006833
1831.9865,0.006479
1833.8502,0.006484
1835.7139,0.006557
1837.5776,0.006720
1839.4412,0.006545
1841.3049,0.006692
1843.1686,0.006875
1845.0322,0.006552
1846.8959,0.006485
1848.7596,0.006732
1850.6232,0.006700
1852.4869,0.006862
1854.3506,0.006897
1856.2142,0.006790
1858.0779,0.006887
1859.9416,0.007222
1861.8052,0.007057
1863.6689,0.006691
1865.5326,0.006778
1867.3963,0.007290
1869.2599,0.007020
1871.1236,0.006921
1872.9873,0.007055
1874.8509,0.007028
1876.7146,0.006830
1878.5783,0.006949
1880.4419,0.007051
1882.3056,0.007295
1884.1693,0.007361
1886.0329,0.007492
1887.8966,0.007584
1889.7603,0.007325
1891.6240,0.006893
1893.4876,0.007108
1895.3513,0.006930
1897.2150,0.007038
1899.0786,0.007398
1900.9423,0.007724
1902.8060,0.007684
1904.6696,0.007305
1906.5333,0.006933
1908.3970,0.007552
1910.2606,0.007407
1912.1243,0.007259
1913.9880,0.007358
1915.8516,0.007753
1917.7153,0.007621
1919.5790,0.007407
1921.4427,0.007579
1923.3063,0.007265
1925.1700,0.006612
1927.0337,0.007047
1928.8973,0.007113
1930.7610,0.007563
1932.6247,0.007729
1934.4883,0.007396
1936.3520,0.007248
1938.2157,0.007703
1940.0793,0.007713
1941.9430,0.007312
1943.8067,0.007058
1945.6704,0.007415
1947.5340,0.007112
1949.3977,0.006951
1951.2614,0.007459
1953.1250,0.008026
1954.9887,0.007380
1956.8524,0.006806
1958.7160,0.006070
1960.5797,0.006009
1962.4434,0.006725
1964.3070,0.006334
1966.1707,0.004990
1968.0344,0.004401
1969.8980,0.003468
1971.7617,0.004438
1973.6254,0.004796
1975.4891,0.005693
1977.3527,0.006281
1979.2164,0.006297
1981.0801,0.006555
1982.9437,0.006796
1984.8074,0.007581
1986.6711,0.008529
1988.5347,0.008229
1990.3984,0.007693
1992.2621,0.007333
1994.1257,0.008418
1995.9894,0.007946
1997.8531,0.006944
1999.7167,0.007543
2001.5804,0.008132
2003.4441,0.007858
2005.3078,0.007877
2007.1714,0.007421
2009.0351,0.007190
2010.8988,0.007139
2012.7624,0.008387
2014.6261,0.008560
2016.4898,0.008478
2018.3534,0.008496
2020.2171,0.008270
2022.0808,0.007294
2023.9444,0.007265
2025.8081,0.007488
2027.6718,0.007865
2029.5355,0.008172
2031.3991,0.008977
2033.2628,0.008166
2035.1265,0.007981
2036.9901,0.009339
2038.8538,0.010420
2040.7175,0.009972
2042.5811,0.009271
2044.4448,0.008940
2046.3085,0.009723
2048.1721,0.010064
2050.0358,0.009921
2051.8995,0.010003
2053.7631,0.009961
2055.6268,0.010148
2057.4905,0.009735
2059.3542,0.008833
2061.2178,0.009003
2063.0815,0.009437
2064.9452,0.009894
2066.8088,0.009441
2068.6725,0.009054
2070.5362,0.008790
2072.3998,0.009442
2074.2635,0.009978
2076.1272,0.009936
2077.9908,0.009800
2079.8545,0.009770
2081.7182,0.009807
2083.5819,0.010045
2085.4455,0.009750
2087.3092,0.009897
2089.1729,0.009906
2091.0365,0.010076
2092.9002,0.009998
2094.7639,0.009511
2096.6275,0.009530
2098.4912,0.010124
2100.3549,0.010086
2102.2185,0.009570
2104.0822,0.009649
2105.9459,0.010547
2107.8095,0.010567
2109.6732,0.010467
2111.5369,0.010043
2113.4006,0.010218
2115.2642,0.010279
2117.1279,0.009806
2118.9916,0.009358
2120.8552,0.010000
2122.7189,0.010905
2124.5826,0.011105
2126.4462,0.010128
2128.3099,0.009524
2130.1736,0.008659
2132.0372,0.008432
2133.9009,0.008414
2135.7646,0.008816
2137.6282,0.009762
2139.4919,0.010006
2141.3556,0.009413
2143.2193,0.008319
2145.0829,0.007931
2146.9466,0.008129
2148.8103,0.008437
2150.6739,0.008178
2152.5376,0.007183
2154.4013,0.007464
2156.2649,0.006766
2158.1286,0.005853
2159.9923,0.007427
2161.8559,0.008317
2163.7196,0.007261
2165.5833,0.006889
2167.4470,0.007007
2169.3106,0.007173
2171.1743,0.007526
2173.0380,0.007697
2174.9016,0.007911
2176.7653,0.008101
2178.6290,0.007038
2180.4926,0.007594
2182.3563,0.008411
2184.2200,0.009130
2186.0836,0.010555
2187.9473,0.009992
2189.8110,0.008724
2191.6746,0.009608
2193.5383,0.009403
2195.4020,0.009295
2197.2657,0.009298
2199.1293,0.009048
2200.9930,0.009263
2202.8567,0.009905
2204.7203,0.009852
2206.5840,0.010363
2208.4477,0.010566
2210.3113,0.010380
2212.1750,0.010123
2214.0387,0.010371
2215.9023,0.010926
2217.7660,0.011342
2219.6297,0.011031
2221.4934,0.011371
2223.3570,0.011903
2225.2207,0.011553
2227.0844,0.011125
2228.9480,0.011281
2230.8117,0.011491
2232.6754,0.011831
2234.5390,0.011681
2236.4027,0.012224
2238.2664,0.012818
2240.1300,0.013040
2241.9937,0.013139
2243.8574,0.012993
2245.7210,0.013159
2247.5847,0.013576
2249.4484,0.013361
2251.3121,0.013163
2253.1757,0.012299
2255.0394,0.011989
2256.9031,0.012140
2258.7667,0.012584
2260.6304,0.012778
2262.4941,0.012984
2264.3577,0.013405
2266.2214,0.013751
2268.0851,0.013854
2269.9487,0.013795
2271.8124,0.013947
2273.6761,0.014661
2275.5397,0.015086
2277.4034,0.015018
2279.2671,0.015068
2281.1308,0.015460
2282.9944,0.015442
2284.8581,0.015403
2286.7218,0.015178
2288.5854,0.015102
2290.4491,0.015240
2292.3128,0.015564
2294.1764,0.015537
2296.0401,0.015650
2297.9038,0.015977
2299.7674,0.016045
2301.6311,0.015752
2303.4948,0.015858
2305.3585,0.015980
2307.2221,0.016027
2309.0858,0.016219
2310.9495,0.016364
2312.8131,0.016124
2314.6768,0.016005
2316.5405,0.015974
2318.4041,0.016443
2320.2678,0.016638
2322.1315,0.016488
2323.9951,0.016557
2325.8588,0.016670
2327.7225,0.016200
2329.5861,0.015823
2331.4498,0.015666
2333.3135,0.015786
2335.1772,0.015779
2337.0408,0.015578
2338.9045,0.015586
2340.7682,0.015610
2342.6318,0.015743
2344.4955,0.015916
2346.3592,0.015928
2348.2228,0.015849
2350.0865,0.015931
2351.9502,0.016238
2353.8138,0.016281
2355.6775,0.016096
2357.5412,0.016295
2359.4049,0.016322
2361.2685,0.015982
2363.1322,0.016126
2364.9959,0.016077
2366.8595,0.015951
2368.7232,0.016162
2370.5869,0.016528
2372.4505,0.016628
2374.3142,0.016678
2376.1779,0.016743
2378.0415,0.016606
2379.9052,0.016692
2381.7689,0.016963
2383.6325,0.016970
2385.4962,0.016881
2387.3599,0.017162
2389.2236,0.017461
2391.0872,0.017227
2392.9509,0.017173
2394.8146,0.016940
2396.6782,0.016813
2398.5419,0.017281
2400.4056,0.017653
2402.2692,0.017653
2404.1329,0.017468
2405.9966,0.017735
2407.8602,0.018088
2409.7239,0.017837
2411.5876,0.017603
2413.4512,0.017788
2415.3149,0.017755
2417.1786,0.017849
2419.0423,0.017910
2420.9059,0.018113
2422.7696,0.018725
2424.6333,0.018768
2426.4969,0.018505
2428.3606,0.018430
2430.2243,0.018472
2432.0879,0.018517
2433.9516,0.018492
2435.8153,0.018841
2437.6789,0.019478
2439.5426,0.019415
2441.4063,0.019146
2443.2700,0.019225
2445.1336,0.019220
2446.9973,0.019341
2448.8610,0.019493
2450.7246,0.019215
2452.5883,0.019065
2454.4520,0.019339
2456.3156,0.019305
2458.1793,0.019504
2460.0430,0.019715
2461.9066,0.019586
2463.7703,0.019576
2465.6340,0.019773
2467.4976,0.019916
2469.3613,0.020214
2471.2250,0.020344
2473.0887,0.020278
2474.9523,0.020473
2476.8160,0.020658
2478.6797,0.020865
2480.5433,0.021017
2482.4070,0.020969
2484.2707,0.020754
2486.1343,0.020791
2487.9980,0.021146
2489.8617,0.021317
2491.7253,0.021315
2493.5890,0.021193
2495.4527,0.021307
2497.3164,0.021498
2499.1800,0.021717
2501.0437,0.022264
2502.9074,0.022285
2504.7710,0.021942
2506.6347,0.022164
2508.4984,0.022126
2510.3620,0.022075
2512.2257,0.022336
2514.0894,0.022397
2515.9530,0.022215
2517.8167,0.022173
2519.6804,0.022338
2521.5440,0.022552
2523.4077,0.023020
2525.2714,0.023202
2527.1351,0.023086
2528.9987,0.023266
2530.8624,0.023467
2532.7261,0.023705
2534.5897,0.023925
2536.4534,0.024053
2538.3171,0.024201
2540.1807,0.023890
2542.0444,0.023836
2543.9081,0.023845
2545.7717,0.024161
2547.6354,0.024262
2549.4991,0.023915
2551.3627,0.023762
2553.2264,0.024062
2555.0901,0.024505
2556.9538,0.024199
2558.8174,0.023896
2560.6811,0.024018
2562.5448,0.023918
2564.4084,0.023726
2566.2721,0.024250
2568.1358,0.025208
2569.9994,0.024903
2571.8631,0.024019
2573.7268,0.024551
2575.5904,0.025480
2577.4541,0.025786
2579.3178,0.025700
2581.1815,0.025628
2583.0451,0.025953
2584.9088,0.026263
2586.7725,0.026288
2588.6361,0.026477
2590.4998,0.026620
2592.3635,0.026609
2594.2271,0.026634
2596.0908,0.026809
2597.9545,0.026932
2599.8181,0.027272
2601.6818,0.027707
2603.5455,0.027868
2605.4091,0.027786
2607.2728,0.027791
2609.1365,0.027696
2611.0002,0.027594
2612.8638,0.027586
2614.7275,0.027554
2616.5912,0.027506
2618.4548,0.027899
2620.3185,0.028057
2622.1822,0.027981
2624.0458,0.028056
2625.9095,0.028063
2627.7732,0.027938
2629.6368,0.027965
2631.5005,0.028043
2633.3642,0.028216
2635.2279,0.028443
2637.0915,0.028375
2638.9552,0.028350
2640.8189,0.028676
2642.6825,0.028744
2644.5462,0.028821
2646.4099,0.028619
2648.2735,0.028258
2650.1372,0.028271
2652.0009,0.028301
2653.8645,0.028234
2655.7282,0.028087
2657.5919,0.028033
2659.4555,0.027861
2661.3192,0.027930
2663.1829,0.027969
2665.0466,0.027723
2666.9102,0.027585
2668.7739,0.027687
2670.6376,0.027731
2672.5012,0.027844
2674.3649,0.028228
2676.2286,0.028564
2678.0922,0.028436
2679.9559,0.028478
2681.8196,0.028709
2683.6832,0.028849
2685.5469,0.028891
2687.4106,0.028997
2689.2742,0.029254
2691.1379,0.029410
2693.0016,0.029785
2694.8653,0.030080
2696.7289,0.030255
2698.5926,0.030384
2700.4563,0.030437
2702.3199,0.030670
2704.1836,0.030983
2706.0473,0.030959
2707.9109,0.030958
2709.7746,0.031110
2711.6383,0.031436
2713.5019,0.031860
2715.3656,0.031852
2717.2293,0.031568
2719.0930,0.031561
2720.9566,0.031757
2722.8203,0.031861
2724.6840,0.031985
2726.5476,0.032248
2728.4113,0.032448
2730.2750,0.032590
2732.1386,0.032642
2734.0023,0.032638
2735.8660,0.032674
2737.7296,0.032710
2739.5933,0.032663
2741.4570,0.032660
2743.3206,0.032569
2745.1843,0.032604
2747.0480,0.032834
2748.9117,0.033126
2750.7753,0.033216
2752.6390,0.033442
2754.5027,0.033548
2756.3663,0.033563
2758.2300,0.034102
2760.0937,0.034537
2761.9573,0.034549
2763.8210,0.034778
2765.6847,0.035243
2767.5483,0.035626
2769.4120,0.035873
2771.2757,0.036103
2773.1394,0.036466
2775.0030,0.036905
2776.8667,0.037342
2778.7304,0.037485
2780.5940,0.037351
2782.4577,0.037492
2784.3214,0.037635
2786.1850,0.037574
2788.0487,0.037551
2789.9124,0.037771
2791.7760,0.037762
2793.6397,0.037417
2795.5034,0.037148
2797.3670,0.036976
2799.2307,0.036563
2801.0944,0.036294
2802.9581,0.036212
2804.8217,0.036221
2806.6854,0.036103
2808.5491,0.036121
2810.4127,0.036221
2812.2764,0.036244
2814.1401,0.036126
2816.0037,0.035995
2817.8674,0.036044
2819.7311,0.036246
2821.5947,0.036272
2823.4584,0.036240
2825.3221,0.036482
2827.1857,0.036718
2829.0494,0.036819
2830.9131,0.036582
2832.7768,0.036274
2834.6404,0.036174
2836.5041,0.036215
2838.3678,0.036327
2840.2314,0.036529
2842.0951,0.036768
2843.9588,0.036904
2845.8224,0.037093
2847.6861,0.037379
2849.5498,0.037444
2851.4134,0.037562
2853.2771,0.037916
2855.1408,0.038540
2857.0045,0.038927
2858.8681,0.038845
2860.7318,0.039178
2862.5955,0.039510
2864.4591,0.039351
2866.3228,0.039270
2868.1865,0.039560
2870.0501,0.039771
2871.9138,0.039736
2873.7775,0.039705
2875.6411,0.040016
2877.5048,0.040113
2879.3685,0.040091
2881.2321,0.040401
2883.0958,0.040715
2884.9595,0.040706
2886.8232,0.040734
2888.6868,0.040912
2890.5505,0.041209
2892.4142,0.041209
2894.2778,0.041253
2896.1415,0.041711
2898.0052,0.042262
2899.8688,0.042375
2901.7325,0.042226
2903.5962,0.042080
2905.4598,0.042181
2907.3235,0.042202
2909.1872,0.042393
2911.0509,0.042714
2912.9145,0.042881
2914.7782,0.043074
2916.6419,0.043634
2918.5055,0.044166
2920.3692,0.044500
2922.2329,0.044572
2924.0965,0.044831
2925.9602,0.045218
2927.8239,0.045457
2929.6875,0.045546
2931.5512,0.045666
2933.4149,0.045854
2935.2785,0.046375
2937.1422,0.046648
2939.0059,0.046483
2940.8696,0.046383
2942.7332,0.046242
2944.5969,0.046378
2946.4606,0.046936
2948.3242,0.047273
2950.1879,0.047363
2952.0516,0.047227
2953.9152,0.047163
2955.7789,0.047398
2957.6426,0.047753
2959.5062,0.047614
2961.3699,0.047305
2963.2336,0.047174
2965.0972,0.047424
2966.9609,0.047690
2968.8246,0.047865
2970.6883,0.048168
2972.5519,0.048717
2974.4156,0.049024
2976.2793,0.049333
2978.1429,0.049599
2980.0066,0.049663
2981.8703,0.050116
2983.7339,0.050687
2985.5976,0.050663
2987.4613,0.050828
2989.3249,0.050812
2991.1886,0.050605
2993.0523,0.050643
2994.9160,0.050991
2996.7796,0.051327
2998.6433,0.051678
3000.5070,0.051962
3002.3706,0.052209
3004.2343,0.052263
3006.0980,0.052399
3007.9616,0.052640
3009.8253,0.052951
3011.6890,0.053108
3013.5526,0.053515
3015.4163,0.053684
3017.2800,0.053364
3019.1436,0.053291
3021.0073,0.053590
3022.8710,0.053651
3024.7347,0.053801
3026.5983,0.054018
3028.4620,0.053875
3030.3257,0.053660
3032.1893,0.053840
3034.0530,0.053744
3035.9167,0.053636
3037.7803,0.053930
3039.6440,0.054208
3041.5077,0.054225
3043.3713,0.054580
3045.2350,0.054659
3047.0987,0.054481
3048.9624,0.054510
3050.8260,0.054511
3052.6897,0.054582
3054.5534,0.054657
3056.4170,0.054534
3058.2807,0.054644
3060.1444,0.054592
3062.0080,0.054203
3063.8717,0.054213
3065.7354,0.054754
3067.5990,0.054725
3069.4627,0.054538
3071.3264,0.054859
3073.1900,0.054670
3075.0537,0.053971
3076.9174,0.054465
3078.7811,0.054947
3080.6447,0.054964
3082.5084,0.055174
3084.3721,0.054901
3086.2357,0.054208
3088.0994,0.054211
3089.9631,0.054302
3091.8267,0.054063
3093.6904,0.054171
3095.5541,0.054242
3097.4177,0.053730
3099.2814,0.053547
3101.1451,0.053650
3103.0087,0.053446
3104.8724,0.053000
3106.7361,0.052969
3108.5998,0.052842
3110.4634,0.052755
3112.3271,0.052701
3114.1908,0.052469
3116.0544,0.052382
3117.9181,0.052641
3119.7818,0.052609
3121.6454,0.052441
3123.5091,0.052364
3125.3728,0.052189
3127.2364,0.051683
3129.1001,0.051390
3130.9638,0.051129
3132.8275,0.051065
3134.6911,0.050776
3136.5548,0.050523
3138.4185,0.050953
3140.2821,0.051128
3142.1458,0.051173
3144.0095,0.051653
3145.8731,0.051605
3147.7368,0.051061
3149.6005,0.051128
3151.4641,0.051735
3153.3278,0.052031
3155.1915,0.052214
3157.0551,0.052081
3158.9188,0.051963
3160.7825,0.051791
3162.6462,0.051265
3164.5098,0.051015
3166.3735,0.051339
3168.2372,0.051251
3170.1008,0.051201
3171.9645,0.051163
3173.8282,0.051290
3175.6918,0.050943
3177.5555,0.050043
3179.4192,0.049392
3181.2828,0.048624
3183.1465,0.047793
3185.0102,0.047836
3186.8739,0.047813
3188.7375,0.047226
3190.6012,0.046617
3192.4649,0.046601
3194.3285,0.047034
3196.1922,0.047468
3198.0559,0.047432
3199.9195,0.047531
3201.7832,0.047508
3203.6469,0.047227
3205.5105,0.047521
3207.3742,0.047835
3209.2379,0.047834
3211.1015,0.047967
3212.9652,0.047800
3214.8289,0.047556
3216.6926,0.046925
3218.5562,0.046207
3220.4199,0.045938
3222.2836,0.045521
3224.1472,0.044496
3226.0109,0.043463
3227.8746,0.042664
3229.7382,0.042216
3231.6019,0.041576
3233.4656,0.041382
3235.3292,0.041617
3237.1929,0.042061
3239.0566,0.042061
3240.9202,0.040869
3242.7839,0.040483
3244.6476,0.040718
3246.5113,0.040289
3248.3749,0.040774
3250.2386,0.041537
3252.1023,0.041929
3253.9659,0.041872
3255.8296,0.041618
3257.6933,0.041890
3259.5569,0.042785
3261.4206,0.043364
3263.2843,0.043490
3265.1479,0.043152
3267.0116,0.042992
3268.8753,0.043355
3270.7390,0.043895
3272.6026,0.044029
3274.4663,0.043501
3276.3300,0.042948
3278.1936,0.043172
3280.0573,0.043514
3281.9210,0.043077
3283.7846,0.041961
3285.6483,0.041839
3287.5120,0.042235
3289.3756,0.041913
3291.2393,0.041154
3293.1030,0.040946
3294.9666,0.041270
3296.8303,0.041047
3298.6940,0.040530
3300.5577,0.040199
3302.4213,0.039508
3304.2850,0.039341
3306.1487,0.039586
3308.0123,0.039835
3309.8760,0.039784
3311.7397,0.039664
3313.6033,0.039190
3315.4670,0.038630
3317.3307,0.038644
3319.1943,0.039178
3321.0580,0.039376
3322.9217,0.039340
3324.7854,0.039058
3326.6490,0.038723
3328.5127,0.038389
3330.3764,0.038445
3332.2400,0.038555
3334.1037,0.038230
3335.9674,0.037152
3337.8310,0.036163
3339.6947,0.035792
3341.5584,0.036005
3343.4220,0.035940
3345.2857,0.035888
3347.1494,0.035322
3349.0130,0.033914
3350.8767,0.032791
3352.7404,0.032432
3354.6041,0.031800
3356.4677,0.031224
3358.3314,0.030974
3360.1951,0.030864
3362.0587,0.030301
3363.9224,0.029648
3365.7861,0.029362
3367.6497,0.029243
3369.5134,0.029679
3371.3771,0.030780
3373.2407,0.031258
3375.1044,0.031531
3376.9681,0.031831
3378.8317,0.031599
3380.6954,0.031450
3382.5591,0.032474
3384.4228,0.033671
3386.2864,0.034459
3388.1501,0.035146
3390.0138,0.036350
3391.8774,0.037089
3393.7411,0.037682
3395.6048,0.039275
3397.4684,0.040752
3399.3321,0.040593
3401.1958,0.040489
3403.0594,0.040523
3404.9231,0.039595
3406.7868,0.038335
3408.6505,0.036869
3410.5141,0.035602
3412.3778,0.034218
3414.2415,0.031499
3416.1051,0.029267
3417.9688,0.027837
3419.8325,0.026532
3421.6961,0.025446
3423.5598,0.023772
3425.4235,0.021552
3427.2871,0.020120
3429.1508,0.019460
3431.0145,0.019195
3432.8781,0.018091
3434.7418,0.017158
3436.6055,0.016815
3438.4692,0.015989
3440.3328,0.015103
3442.1965,0.015230
3444.0602,0.015646
3445.9238,0.015759
3447.7875,0.015175
3449.6512,0.013868
3451.5148,0.013264
3453.3785,0.013541
3455.2422,0.013835
3457.1058,0.013714
3458.9695,0.012580
3460.8332,0.011906
3462.6969,0.012616
3464.5605,0.013394
3466.4242,0.013396
3468.2879,0.013000
3470.1515,0.011715
3472.0152,0.011786
3473.8789,0.012604
3475.7425,0.012201
3477.6062,0.012015
3479.4699,0.012335
3481.3335,0.011417
3483.1972,0.010210
3485.0609,0.009637
3486.9245,0.009719
3488.7882,0.010034
3490.6519,0.010453
3492.5156,0.010264
3494.3792,0.009676
3496.2429,0.009071
3498.1066,0.009533
3499.9702,0.010228
3501.8339,0.009953
3503.6976,0.009598
3505.5612,0.010069
3507.4249,0.009790
3509.2886,0.009658
3511.1522,0.010014
3513.0159,0.009274
3514.8796,0.008343
3516.7432,0.008587
3518.6069,0.009223
3520.4706,0.009760
3522.3343,0.010224
3524.1979,0.009686
3526.0616,0.008048
3527.9253,0.007708
3529.7889,0.007920
3531.6526,0.008393
3533.5163,0.007979
3535.3799,0.007406
3537.2436,0.007212
3539.1073,0.006873
3540.9709,0.007547
3542.8346,0.007944
3544.6983,0.007200
3546.5620,0.007107
3548.4256,0.007298
3550.2893,0.007120
3552.1530,0.006899
3554.0166,0.007112
3555.8803,0.007606
3557.7440,0.008176
3559.6076,0.007956
3561.4713,0.007494
3563.3350,0.007157
3565.1986,0.006793
3567.0623,0.006218
3568.9260,0.005963
3570.7896,0.005909
3572.6533,0.006890
3574.5170,0.007055
3576.3807,0.006540
3578.2443,0.006816
3580.1080,0.007898
3581.9717,0.007871
3583.8353,0.007015
3585.6990,0.006850
3587.5627,0.006890
3589.4263,0.005578
3591.2900,0.005684
3593.1537,0.006922
3595.0173,0.007398
3596.8810,0.007517
3598.7447,0.007688
3600.6084,0.007557
3602.4720,0.007417
3604.3357,0.007285
3606.1994,0.007814
3608.0630,0.007879
3609.9267,0.006765
3611.7904,0.005997
3613.6540,0.006694
3615.5177,0.006795
3617.3814,0.006826
3619.2450,0.007293
3621.1087,0.006659
3622.9724,0.006778
3624.8360,0.007722
3626.6997,0.007418
3628.5634,0.007080
3630.4271,0.006682
3632.2907,0.005927
3634.1544,0.006517
3636.0181,0.006541
3637.8817,0.006733
3639.7454,0.007223
3641.6091,0.006869
3643.4727,0.007081
3645.3364,0.007870
3647.2001,0.008994
3649.0637,0.008939
3650.9274,0.007298
3652.7911,0.005887
3654.6547,0.005749
3656.5184,0.006827
3658.3821,0.006646
3660.2458,0.006472
3662.1094,0.007687
3663.9731,0.007905
3665.8368,0.007628
3667.7004,0.008242
3669.5641,0.008924
3671.4278,0.007655
3673.2914,0.006142
3675.1551,0.007353
3677.0188,0.007924
3678.8824,0.006718
3680.7461,0.007021
3682.6098,0.006849
3684.4735,0.007641
3686.3371,0.008215
3688.2008,0.008234
3690.0645,0.007556
3691.9281,0.006951
3693.7918,0.006732
3695.6555,0.006807
3697.5191,0.007367
3699.3828,0.007733
3701.2465,0.008019
3703.1101,0.008212
3704.9738,0.007808
3706.8375,0.007847
3708.7011,0.008497
3710.5648,0.009007
3712.4285,0.008049
3714.2922,0.007016
3716.1558,0.007210
3718.0195,0.007693
3719.8832,0.007829
3721.7468,0.008318
3723.6105,0.008539
3725.4742,0.007536
3727.3378,0.007125
3729.2015,0.006878
3731.0652,0.007544
3732.9288,0.008952
3734.7925,0.009046
3736.6562,0.008390
3738.5199,0.006466
3740.3835,0.006225
3742.2472,0.007362
3744.1109,0.008442
3745.9745,0.007672
3747.8382,0.006385
3749.7019,0.008161
3751.5655,0.008764
3753.4292,0.008302
3755.2929,0.007008
3757.1565,0.007110
3759.0202,0.007588
3760.8839,0.007872
3762.7475,0.007946
3764.6112,0.007852
3766.4749,0.008364
3768.3386,0.008519
3770.2022,0.008563
3772.0659,0.007707
3773.9296,0.007618
3775.7932,0.008163
3777.6569,0.008048
3779.5206,0.008279
3781.3842,0.008674
3783.2479,0.008806
3785.1116,0.008919
3786.9752,0.008595
3788.8389,0.008096
3790.7026,0.007820
3792.5662,0.008350
3794.4299,0.008813
3796.2936,0.009290
3798.1573,0.009582
3800.0209,0.008818
3801.8846,0.008422
3803.7483,0.007685
3805.6119,0.007274
3807.4756,0.008128
3809.3393,0.008358
3811.2029,0.008202
3813.0666,0.008468
3814.9303,0.008883
3816.7939,0.009285
3818.6576,0.008515
3820.5213,0.008978
3822.3850,0.009392
3824.2486,0.008092
3826.1123,0.008101
3827.9760,0.008913
3829.8396,0.009074
3831.7033,0.008638
3833.5670,0.008445
3835.4306,0.008464
3837.2943,0.008885
3839.1580,0.009690
3841.0216,0.009234
3842.8853,0.008229
3844.7490,0.008496
3846.6126,0.008308
3848.4763,0.007693
3850.3400,0.008009
3852.2037,0.009355
3854.0673,0.010333
3855.9310,0.009383
3857.7947,0.008394
3859.6583,0.008330
3861.5220,0.009353
3863.3857,0.010010
3865.2493,0.009370
3867.1130,0.009009
3868.9767,0.009176
3870.8403,0.009482
3872.7040,0.008561
3874.5677,0.008871
3876.4314,0.008117
3878.2950,0.007860
3880.1587,0.009493
3882.0224,0.010152
3883.8860,0.009063
3885.7497,0.009470
3887.6134,0.009270
3889.4770,0.008915
3891.3407,0.009701
3893.2044,0.009672
3895.0680,0.009161
3896.9317,0.009237
3898.7954,0.009598
3900.6590,0.010134
3902.5227,0.009820
3904.3864,0.009456
3906.2501,0.009067
3908.1137,0.008620
3909.9774,0.008752
3911.8411,0.009298
3913.7047,0.009636
3915.5684,0.009532
3917.4321,0.009583
3919.2957,0.009455
3921.1594,0.009318
3923.0231,0.009597
3924.8867,0.009730
3926.7504,0.009897
3928.6141,0.009585
3930.4777,0.009305
3932.3414,0.009394
3934.2051,0.009370
3936.0688,0.008920
3937.9324,0.008986
3939.7961,0.009596
3941.6598,0.010062
3943.5234,0.009912
3945.3871,0.010153
3947.2508,0.010869
3949.1144,0.010972
3950.9781,0.010140
3952.8418,0.009864
3954.7054,0.010267
3956.5691,0.010425
3958.4328,0.009607
3960.2965,0.009107
3962.1601,0.009245
3964.0238,0.009783
3965.8875,0.009960
3967.7511,0.010083
3969.6148,0.010225
3971.4785,0.010272
3973.3421,0.009941
3975.2058,0.009852
3977.0695,0.009885
3978.9331,0.010064
3980.7968,0.009907
3982.6605,0.010076
3984.5241,0.010016
3986.3878,0.009518
3988.2515,0.009358
3990.1152,0.010089
3991.9788,0.010483
3993.8425,0.010576
3995.7062,0.010559
3997.5698,0.010547
3999.4335,0.010294
