Wavenumber,Intensity
650.4205,0.191578
652.2841,0.188293
654.1478,0.184392
656.0115,0.178778
657.8751,0.176384
659.7388,0.172958
661.6025,0.170275
663.4661,0.168681
665.3298,0.166341
667.1935,0.167133
669.0571,0.169485
670.9208,0.165283
672.7845,0.164626
674.6481,0.165561
676.5118,0.165166
678.3755,0.163889
680.2392,0.163928
682.1028,0.164137
683.9665,0.164139
685.8302,0.163040
687.6938,0.162402
689.5575,0.162353
691.4212,0.162867
693.2848,0.163342
695.1485,0.164952
697.0122,0.165743
698.8758,0.166480
700.7395,0.166522
702.6032,0.165223
704.4669,0.162942
706.3305,0.159747
708.1942,0.154782
710.0579,0.149202
711.9215,0.142820
713.7852,0.136983
715.6489,0.132354
717.5125,0.128095
719.3762,0.123747
721.2399,0.119653
723.1035,0.115408
724.9672,0.111878
726.8309,0.108667
728.6945,0.105782
730.5582,0.104083
732.4219,0.101925
734.2856,0.098441
736.1492,0.096210
738.0129,0.094941
739.8766,0.094651
741.7402,0.096071
743.6039,0.097843
745.4676,0.098478
747.3312,0.098030
749.1949,0.096847
751.0586,0.095882
752.9222,0.094766
754.7859,0.093634
756.6496,0.092762
758.5132,0.092421
760.3769,0.091749
762.2406,0.090849
764.1043,0.090148
765.9679,0.089872
767.8316,0.089302
769.6953,0.089088
771.5589,0.089622
773.4226,0.090414
775.2863,0.090701
777.1499,0.091306
779.0136,0.092285
780.8773,0.093227
782.7409,0.094285
784.6046,0.095591
786.4683,0.096635
788.3320,0.097831
790.1956,0.099112
792.0593,0.100203
793.9230,0.100940
795.7866,0.102105
797.6503,0.103368
799.5140,0.104040
801.3776,0.103914
803.2413,0.103756
805.1050,0.103316
806.9686,0.102470
808.8323,0.101230
810.6960,0.099426
812.5596,0.096792
814.4233,0.094066
816.2870,0.091905
818.1507,0.090077
820.0143,0.088034
821.8780,0.086264
823.7417,0.085001
825.6053,0.084453
827.4690,0.084946
829.3327,0.085080
831.1963,0.081159
833.0600,0.073122
834.9237,0.066382
836.7873,0.063206
838.6510,0.061560
840.5147,0.060611
842.3784,0.060265
844.2420,0.059955
846.1057,0.059650
847.9694,0.059620
849.8330,0.059521
851.6967,0.059254
853.5604,0.059193
855.4240,0.059440
857.2877,0.059680
859.1514,0.059752
861.0150,0.059962
862.8787,0.060183
864.7424,0.060292
866.6060,0.060698
868.4697,0.061095
870.3334,0.061447
872.1971,0.061738
874.0607,0.062037
875.9244,0.062274
877.7881,0.062484
879.6517,0.062847
881.5154,0.063322
883.3791,0.063788
885.2427,0.064375
887.1064,0.064868
888.9701,0.065357
890.8337,0.065943
892.6974,0.066403
894.5611,0.066710
896.4247,0.066993
898.2884,0.067533
900.1521,0.068365
902.0158,0.069412
903.8794,0.070935
905.7431,0.073254
907.6068,0.076281
909.4704,0.079835
911.3341,0.084264
913.1978,0.089698
915.0614,0.092861
916.9251,0.088105
918.7888,0.077580
920.6524,0.069090
922.5161,0.065515
924.3798,0.064717
926.2435,0.064804
928.1071,0.065145
929.9708,0.065673
931.8345,0.066358
933.6981,0.067159
935.5618,0.068194
937.4255,0.069329
939.2891,0.070407
941.1528,0.071402
943.0165,0.072486
944.8801,0.073725
946.7438,0.074975
948.6075,0.076352
950.4711,0.077873
952.3348,0.079378
954.1985,0.080805
956.0622,0.082501
957.9258,0.084193
959.7895,0.085579
961.6532,0.087002
963.5168,0.088605
965.3805,0.090303
967.2442,0.092359
969.1078,0.094910
970.9715,0.097546
972.8352,0.100499
974.6988,0.104992
976.5625,0.112437
978.4262,0.124782
980.2899,0.142031
982.1535,0.150642
984.0172,0.134630
985.8809,0.111692
987.7445,0.101672
989.6082,0.101018
991.4719,0.102418
993.3355,0.104058
995.1992,0.105829
997.0629,0.107579
998.9265,0.109330
1000.7902,0.111077
1002.6539,0.112889
1004.5175,0.114853
1006.3812,0.116714
1008.2449,0.118464
1010.1086,0.120128
1011.9722,0.121675
1013.8359,0.123070
1015.6996,0.124180
1017.5632,0.125020
1019.4269,0.125749
1021.2906,0.126258
1023.1542,0.126574
1025.0179,0.126895
1026.8816,0.127192
1028.7452,0.127408
1030.6089,0.127726
1032.4726,0.128208
1034.3362,0.128785
1036.1999,0.129554
1038.0636,0.130770
1039.9273,0.132433
1041.7909,0.134434
1043.6546,0.136755
1045.5183,0.139053
1047.3819,0.140612
1049.2456,0.139994
1051.1093,0.135583
1052.9729,0.128181
1054.8366,0.120713
1056.7003,0.115414
1058.5639,0.112502
1060.4276,0.111096
1062.2913,0.110442
1064.1550,0.110154
1066.0186,0.110076
1067.8823,0.110225
1069.7460,0.110401
1071.6096,0.110491
1073.4733,0.110525
1075.3370,0.110522
1077.2006,0.110647
1079.0643,0.111101
1080.9280,0.111807
1082.7916,0.112751
1084.6553,0.113950
1086.5190,0.115321
1088.3826,0.116718
1090.2463,0.118163
1092.1100,0.119825
1093.9737,0.121875
1095.8373,0.124125
1097.7010,0.126785
1099.5647,0.129944
1101.4283,0.133260
1103.2920,0.136264
1105.1557,0.138187
1107.0193,0.137775
1108.8830,0.133932
1110.7467,0.126686
1112.6103,0.117521
1114.4740,0.108103
1116.3377,0.099514
1118.2014,0.092399
1120.0650,0.087122
1121.9287,0.083407
1123.7924,0.080711
1125.6560,0.078532
1127.5197,0.076419
1129.3834,0.074390
1131.2470,0.072641
1133.1107,0.071099
1134.9744,0.069756
1136.8380,0.068687
1138.7017,0.067926
1140.5654,0.067616
1142.4290,0.067686
1144.2927,0.067907
1146.1564,0.068180
1148.0201,0.068539
1149.8837,0.069126
1151.7474,0.069811
1153.6111,0.070332
1155.4747,0.070670
1157.3384,0.070882
1159.2021,0.070987
1161.0657,0.071052
1162.9294,0.071279
1164.7931,0.071923
1166.6567,0.072996
1168.5204,0.074326
1170.3841,0.075664
1172.2477,0.076288
1174.1114,0.075056
1175.9751,0.071671
1177.8388,0.067275
1179.7024,0.063508
1181.5661,0.061260
1183.4298,0.060274
1185.2934,0.059999
1187.1571,0.060189
1189.0208,0.060591
1190.8844,0.060961
1192.7481,0.061163
1194.6118,0.061192
1196.4754,0.061125
1198.3391,0.061072
1200.2028,0.061020
1202.0665,0.061031
1203.9301,0.061136
1205.7938,0.061366
1207.6575,0.061671
1209.5211,0.062049
1211.3848,0.062665
1213.2485,0.063520
1215.1121,0.064429
1216.9758,0.065401
1218.8395,0.066479
1220.7031,0.067539
1222.5668,0.068646
1224.4305,0.069876
1226.2941,0.071117
1228.1578,0.072319
1230.0215,0.073493
1231.8852,0.074717
1233.7488,0.075882
1235.6125,0.076774
1237.4762,0.077531
1239.3398,0.078248
1241.2035,0.078809
1243.0672,0.079366
1244.9308,0.079873
1246.7945,0.080241
1248.6582,0.080596
1250.5218,0.080988
1252.3855,0.081345
1254.2492,0.081647
1256.1129,0.081969
1257.9765,0.082423
1259.8402,0.083022
1261.7039,0.083566
1263.5675,0.084031
1265.4312,0.084499
1267.2949,0.084790
1269.1585,0.084792
1271.0222,0.084639
1272.8859,0.084406
1274.7495,0.084271
1276.6132,0.084579
1278.4769,0.085147
1280.3405,0.085779
1282.2042,0.086481
1284.0679,0.087197
1285.9316,0.088161
1287.7952,0.089564
1289.6589,0.091171
1291.5226,0.092965
1293.3862,0.095013
1295.2499,0.097491
1297.1136,0.100721
1298.9772,0.104742
1300.8409,0.109670
1302.7046,0.115149
1304.5682,0.119465
1306.4319,0.119914
1308.2956,0.113043
1310.1592,0.099030
1312.0229,0.084420
1313.8866,0.074604
1315.7503,0.070498
1317.6139,0.070153
1319.4776,0.071441
1321.3413,0.072954
1323.2049,0.074557
1325.0686,0.076450
1326.9323,0.078496
1328.7959,0.080545
1330.6596,0.082389
1332.5233,0.083802
1334.3869,0.084606
1336.2506,0.085203
1338.1143,0.086722
1339.9780,0.088830
1341.8416,0.089036
1343.7053,0.088568
1345.5690,0.088995
1347.4326,0.090021
1349.2963,0.091444
1351.1600,0.092902
1353.0236,0.094536
1354.8873,0.096884
1356.7510,0.099119
1358.6146,0.100775
1360.4783,0.103234
1362.3420,0.108128
1364.2056,0.111995
1366.0693,0.112958
1367.9330,0.115163
1369.7967,0.117985
1371.6603,0.119654
1373.5240,0.123182
1375.3877,0.127017
1377.2513,0.128190
1379.1150,0.130428
1380.9787,0.134033
1382.8423,0.137539
1384.7060,0.141432
1386.5697,0.148104
1388.4333,0.155666
1390.2970,0.158283
1392.1607,0.159660
1394.0244,0.161966
1395.8880,0.160357
1397.7517,0.154499
1399.6154,0.147729
1401.4790,0.140002
1403.3427,0.133508
1405.2064,0.124867
1407.0700,0.111865
1408.9337,0.098771
1410.7974,0.087204
1412.6610,0.078574
1414.5247,0.073882
1416.3884,0.073003
1418.2520,0.077114
1420.1157,0.083643
1421.9794,0.085119
1423.8431,0.083127
1425.7067,0.076420
1427.5704,0.069319
1429.4341,0.065302
1431.2977,0.063289
1433.1614,0.062021
1435.0251,0.062724
1436.8887,0.066239
1438.7524,0.067241
1440.6161,0.066696
1442.4797,0.067331
1444.3434,0.068033
1446.2071,0.068720
1448.0707,0.069429
1449.9344,0.067827
1451.7981,0.064954
1453.6618,0.061970
1455.5254,0.061669
1457.3891,0.066496
1459.2528,0.066858
1461.1164,0.063768
1462.9801,0.063076
1464.8438,0.064083
1466.7074,0.063224
1468.5711,0.060726
1470.4348,0.059690
1472.2984,0.061486
1474.1621,0.062853
1476.0258,0.061944
1477.8895,0.060830
1479.7531,0.060163
1481.6168,0.060427
1483.4805,0.060160
1485.3441,0.059681
1487.2078,0.060464
1489.0715,0.063307
1490.9351,0.065307
1492.7988,0.063610
1494.6625,0.062866
1496.5261,0.065282
1498.3898,0.067951
1500.2535,0.067716
1502.1171,0.066077
1503.9808,0.065072
1505.8445,0.068597
1507.7082,0.078772
1509.5718,0.076255
1511.4355,0.073931
1513.2992,0.073608
1515.1628,0.074570
1517.0265,0.076941
1518.8902,0.077752
1520.7538,0.079758
1522.6175,0.083330
1524.4812,0.082782
1526.3448,0.083721
1528.2085,0.084600
1530.0722,0.083646
1531.9359,0.084764
1533.7995,0.088355
1535.6632,0.087387
1537.5269,0.085785
1539.3905,0.090655
1541.2542,0.100584
1543.1179,0.099891
1544.9815,0.100017
1546.8452,0.099466
1548.7089,0.099829
1550.5725,0.102306
1552.4362,0.103564
1554.2999,0.104362
1556.1635,0.105980
1558.0272,0.113240
1559.8909,0.130990
1561.7546,0.122615
1563.6182,0.118824
1565.4819,0.120655
1567.3456,0.123208
1569.2092,0.128064
1571.0729,0.132601
1572.9366,0.131613
1574.8002,0.134756
1576.6639,0.144821
1578.5276,0.147584
1580.3912,0.146786
1582.2549,0.149328
1584.1186,0.152386
1585.9822,0.154622
1587.8459,0.156123
1589.7096,0.157387
1591.5733,0.158071
1593.4369,0.158138
1595.3006,0.157573
1597.1643,0.155925
1599.0279,0.153763
1600.8916,0.151852
1602.7553,0.149681
1604.6189,0.147009
1606.4826,0.144646
1608.3463,0.142912
1610.2099,0.140821
1612.0736,0.137412
1613.9373,0.133722
1615.8010,0.131563
1617.6646,0.127366
1619.5283,0.119655
1621.3920,0.114722
1623.2556,0.110881
1625.1193,0.104578
1626.9830,0.098097
1628.8466,0.091230
1630.7103,0.083770
1632.5740,0.077767
1634.4376,0.073711
1636.3013,0.069792
1638.1650,0.064686
1640.0286,0.062019
1641.8923,0.060399
1643.7560,0.059916
1645.6197,0.061472
1647.4833,0.064790
1649.3470,0.064190
1651.2107,0.064646
1653.0743,0.070937
1654.9380,0.074081
1656.8017,0.070421
1658.6653,0.069458
1660.5290,0.069564
1662.3927,0.069851
1664.2563,0.068319
1666.1200,0.065871
1667.9837,0.064719
1669.8474,0.064542
1671.7110,0.062935
1673.5747,0.062501
1675.4384,0.064415
1677.3020,0.065633
1679.1657,0.066202
1681.0294,0.068256
1682.8930,0.072225
1684.7567,0.078829
1686.6204,0.078975
1688.4840,0.077179
1690.3477,0.076254
1692.2114,0.073930
1694.0750,0.071876
1695.9387,0.070634
1697.8024,0.068038
1699.6661,0.066714
1701.5297,0.062111
1703.3934,0.056943
1705.2571,0.052566
1707.1207,0.046620
1708.9844,0.041910
1710.8481,0.038521
1712.7117,0.036029
1714.5754,0.034835
1716.4391,0.034422
1718.3027,0.034025
1720.1664,0.032167
1722.0301,0.030998
1723.8937,0.029626
1725.7574,0.027870
1727.6211,0.026208
1729.4848,0.024804
1731.3484,0.023247
1733.2121,0.022780
1735.0758,0.021364
1736.9394,0.019941
1738.8031,0.019381
1740.6668,0.018530
1742.5304,0.017581
1744.3941,0.016837
1746.2578,0.016215
1748.1214,0.015728
1749.9851,0.014972
1751.8488,0.014374
1753.7125,0.013584
1755.5761,0.013383
1757.4398,0.013229
1759.3035,0.013053
1761.1671,0.012878
1763.0308,0.012692
1764.8945,0.012338
1766.7581,0.012327
1768.6218,0.012147
1770.4855,0.012338
1772.3491,0.012704
1774.2128,0.012653
1776.0765,0.012146
1777.9401,0.012043
1779.8038,0.012393
1781.6675,0.012456
1783.5312,0.012385
1785.3948,0.012340
1787.2585,0.012181
1789.1222,0.012258
1790.9858,0.012661
1792.8495,0.012940
1794.7132,0.012753
1796.5768,0.012454
1798.4405,0.012323
1800.3042,0.012579
1802.1678,0.012672
1804.0315,0.012492
1805.8952,0.012324
1807.7589,0.012581
1809.6225,0.012872
1811.4862,0.012979
1813.3499,0.012721
1815.2135,0.012481
1817.0772,0.012315
1818.9409,0.012387
1820.8045,0.012472
1822.6682,0.012752
1824.5319,0.012907
1826.3955,0.012628
1828.2592,0.012443
1830.1229,0.012619
1831.9865,0.012554
1833.8502,0.012335
1835.7139,0.012175
1837.5776,0.012399
1839.4412,0.012376
1841.3049,0.012452
1843.1686,0.012530
1845.0322,0.012483
1846.8959,0.012526
1848.7596,0.012629
1850.6232,0.012466
1852.4869,0.012331
1854.3506,0.012335
1856.2142,0.012653
1858.0779,0.012713
1859.9416,0.012472
1861.8052,0.012207
1863.6689,0.012500
1865.5326,0.012606
1867.3963,0.012990
1869.2599,0.012890
1871.1236,0.012307
1872.9873,0.012275
1874.8509,0.012473
1876.7146,0.012525
1878.5783,0.012589
1880.4419,0.012160
1882.3056,0.011804
1884.1693,0.012097
1886.0329,0.012635
1887.8966,0.012477
1889.7603,0.012629
1891.6240,0.012946
1893.4876,0.012712
1895.3513,0.012292
1897.2150,0.012421
1899.0786,0.012361
1900.9423,0.012544
1902.8060,0.012628
1904.6696,0.012869
1906.5333,0.012585
1908.3970,0.012207
1910.2606,0.012414
1912.1243,0.012800
1913.9880,0.012470
1915.8516,0.012790
1917.7153,0.012912
1919.5790,0.012031
1921.4427,0.011628
1923.3063,0.012228
1925.1700,0.012260
1927.0337,0.012079
1928.8973,0.011989
1930.7610,0.012224
1932.6247,0.011987
1934.4883,0.012041
1936.3520,0.011828
1938.2157,0.011407
1940.0793,0.011333
1941.9430,0.011552
1943.8067,0.011427
1945.6704,0.010987
1947.5340,0.010408
1949.3977,0.011003
1951.2614,0.011318
1953.1250,0.011201
1954.9887,0.010241
1956.8524,0.009886
1958.7160,0.009215
1960.5797,0.008629
1962.4434,0.008255
1964.3070,0.008249
1966.1707,0.007451
1968.0344,0.006294
1969.8980,0.005123
1971.7617,0.006067
1973.6254,0.007530
1975.4891,0.008337
1977.3527,0.007779
1979.2164,0.008381
1981.0801,0.008579
1982.9437,0.008966
1984.8074,0.008834
1986.6711,0.009166
1988.5347,0.009414
1990.3984,0.009665
1992.2621,0.009854
1994.1257,0.009495
1995.9894,0.009201
1997.8531,0.009814
1999.7167,0.009670
2001.5804,0.008728
2003.4441,0.008196
2005.3078,0.009038
2007.1714,0.008574
2009.0351,0.007693
2010.8988,0.006516
2012.7624,0.006814
2014.6261,0.006581
2016.4898,0.006441
2018.3534,0.006229
2020.2171,0.007274
2022.0808,0.007768
2023.9444,0.007400
2025.8081,0.007397
2027.6718,0.007101
2029.5355,0.006682
2031.3991,0.006667
2033.2628,0.006097
2035.1265,0.007273
2036.9901,0.008293
2038.8538,0.008293
2040.7175,0.008480
2042.5811,0.009110
2044.4448,0.008976
2046.3085,0.010423
2048.1721,0.011409
2050.0358,0.012023
2051.8995,0.012238
2053.7631,0.011978
2055.6268,0.012224
2057.4905,0.012964
2059.3542,0.012934
2061.2178,0.013442
2063.0815,0.013631
2064.9452,0.013506
2066.8088,0.013212
2068.6725,0.013392
2070.5362,0.013650
2072.3998,0.013906
2074.2635,0.013878
2076.1272,0.013894
2077.9908,0.014047
2079.8545,0.014692
2081.7182,0.014501
2083.5819,0.014972
2085.4455,0.015569
2087.3092,0.015266
2089.1729,0.014571
2091.0365,0.014595
2092.9002,0.014713
2094.7639,0.015275
2096.6275,0.015467
2098.4912,0.015246
2100.3549,0.015014
2102.2185,0.014738
2104.0822,0.014907
2105.9459,0.015531
2107.8095,0.015826
2109.6732,0.015911
2111.5369,0.016015
2113.4006,0.016189
2115.2642,0.016085
2117.1279,0.015875
2118.9916,0.015266
2120.8552,0.014995
2122.7189,0.015073
2124.5826,0.014850
2126.4462,0.014115
2128.3099,0.014699
2130.1736,0.015553
2132.0372,0.014927
2133.9009,0.013939
2135.7646,0.013311
2137.6282,0.012621
2139.4919,0.013067
2141.3556,0.013521
2143.2193,0.013096
2145.0829,0.012313
2146.9466,0.011664
2148.8103,0.010345
2150.6739,0.009802
2152.5376,0.008497
2154.4013,0.007679
2156.2649,0.007836
2158.1286,0.006506
2159.9923,0.005838
2161.8559,0.008299
2163.7196,0.009739
2165.5833,0.010548
2167.4470,0.010880
2169.3106,0.011524
2171.1743,0.011176
2173.0380,0.010136
2174.9016,0.009310
2176.7653,0.010363
2178.6290,0.011190
2180.4926,0.011674
2182.3563,0.012189
2184.2200,0.013133
2186.0836,0.013375
2187.9473,0.012564
2189.8110,0.010984
2191.6746,0.011237
2193.5383,0.012679
2195.4020,0.013523
2197.2657,0.012862
2199.1293,0.013013
2200.9930,0.013955
2202.8567,0.014320
2204.7203,0.014178
2206.5840,0.013994
2208.4477,0.014743
2210.3113,0.015571
2212.1750,0.015265
2214.0387,0.015048
2215.9023,0.014708
2217.7660,0.014410
2219.6297,0.014529
2221.4934,0.015333
2223.3570,0.015429
2225.2207,0.015044
2227.0844,0.015458
2228.9480,0.015871
2230.8117,0.016227
2232.6754,0.017140
2234.5390,0.017545
2236.4027,0.017463
2238.2664,0.017161
2240.1300,0.017069
2241.9937,0.016835
2243.8574,0.017574
2245.7210,0.017735
2247.5847,0.017345
2249.4484,0.017150
2251.3121,0.017144
2253.1757,0.017358
2255.0394,0.017771
2256.9031,0.018182
2258.7667,0.018469
2260.6304,0.018248
2262.4941,0.018389
2264.3577,0.018724
2266.2214,0.018749
2268.0851,0.018836
2269.9487,0.019288
2271.8124,0.019539
2273.6761,0.019874
2275.5397,0.020170
2277.4034,0.020151
2279.2671,0.020594
2281.1308,0.020941
2282.9944,0.021197
2284.8581,0.021727
2286.7218,0.021806
2288.5854,0.021283
2290.4491,0.020960
2292.3128,0.021072
2294.1764,0.021425
2296.0401,0.021646
2297.9038,0.021592
2299.7674,0.021377
2301.6311,0.021286
2303.4948,0.021711
2305.3585,0.022175
2307.2221,0.022089
2309.0858,0.021828
2310.9495,0.022005
2312.8131,0.022133
2314.6768,0.022103
2316.5405,0.021880
2318.4041,0.022001
2320.2678,0.022360
2322.1315,0.022478
2323.9951,0.022535
2325.8588,0.022011
2327.7225,0.021292
2329.5861,0.021194
2331.4498,0.021257
2333.3135,0.021189
2335.1772,0.020952
2337.0408,0.020835
2338.9045,0.020944
2340.7682,0.021238
2342.6318,0.021822
2344.4955,0.022095
2346.3592,0.021807
2348.2228,0.021113
2350.0865,0.020639
2351.9502,0.020651
2353.8138,0.020892
2355.6775,0.021003
2357.5412,0.020689
2359.4049,0.020817
2361.2685,0.020995
2363.1322,0.021175
2364.9959,0.020774
2366.8595,0.020756
2368.7232,0.021502
2370.5869,0.021640
2372.4505,0.021612
2374.3142,0.021599
2376.1779,0.021511
2378.0415,0.021518
2379.9052,0.021719
2381.7689,0.021978
2383.6325,0.021941
2385.4962,0.021707
2387.3599,0.021583
2389.2236,0.021926
2391.0872,0.021973
2392.9509,0.021818
2394.8146,0.021738
2396.6782,0.021722
2398.5419,0.021898
2400.4056,0.022133
2402.2692,0.022080
2404.1329,0.021834
2405.9966,0.021783
2407.8602,0.021980
2409.7239,0.022237
2411.5876,0.022419
2413.4512,0.022260
2415.3149,0.022270
2417.1786,0.022536
2419.0423,0.022669
2420.9059,0.022781
2422.7696,0.022497
2424.6333,0.022465
2426.4969,0.022776
2428.3606,0.022836
2430.2243,0.022933
2432.0879,0.022967
2433.9516,0.022944
2435.8153,0.022884
2437.6789,0.022844
2439.5426,0.023103
2441.4063,0.023041
2443.2700,0.022955
2445.1336,0.023005
2446.9973,0.022868
2448.8610,0.022991
2450.7246,0.023098
2452.5883,0.023029
2454.4520,0.022940
2456.3156,0.023245
2458.1793,0.023232
2460.0430,0.023170
2461.9066,0.022992
2463.7703,0.022935
2465.6340,0.023131
2467.4976,0.022927
2469.3613,0.022678
2471.2250,0.022926
2473.0887,0.023017
2474.9523,0.022783
2476.8160,0.022969
2478.6797,0.022978
2480.5433,0.022830
2482.4070,0.023023
2484.2707,0.023187
2486.1343,0.023312
2487.9980,0.023447
2489.8617,0.023385
2491.7253,0.023588
2493.5890,0.023854
2495.4527,0.023776
2497.3164,0.023977
2499.1800,0.024277
2501.0437,0.024077
2502.9074,0.023898
2504.7710,0.023807
2506.6347,0.024179
2508.4984,0.024540
2510.3620,0.024387
2512.2257,0.024219
2514.0894,0.024264
2515.9530,0.024413
2517.8167,0.024500
2519.6804,0.024815
2521.5440,0.024981
2523.4077,0.024969
2525.2714,0.024891
2527.1351,0.024769
2528.9987,0.024624
2530.8624,0.024552
2532.7261,0.024828
2534.5897,0.025069
2536.4534,0.025021
2538.3171,0.024978
2540.1807,0.025173
2542.0444,0.025361
2543.9081,0.025153
2545.7717,0.025057
2547.6354,0.025157
2549.4991,0.025322
2551.3627,0.025694
2553.2264,0.025711
2555.0901,0.025581
2556.9538,0.025300
2558.8174,0.025351
2560.6811,0.025891
2562.5448,0.025844
2564.4084,0.025208
2566.2721,0.025545
2568.1358,0.026038
2569.9994,0.026236
2571.8631,0.026672
2573.7268,0.026706
2575.5904,0.026538
2577.4541,0.026748
2579.3178,0.027072
2581.1815,0.027119
2583.0451,0.027189
2584.9088,0.027217
2586.7725,0.026884
2588.6361,0.027137
2590.4998,0.027476
2592.3635,0.027308
2594.2271,0.027639
2596.0908,0.028103
2597.9545,0.028023
2599.8181,0.028328
2601.6818,0.028550
2603.5455,0.028362
2605.4091,0.028572
2607.2728,0.028759
2609.1365,0.028692
2611.0002,0.028963
2612.8638,0.029272
2614.7275,0.029266
2616.5912,0.029066
2618.4548,0.029392
2620.3185,0.029664
2622.1822,0.029621
2624.0458,0.029635
2625.9095,0.030047
2627.7732,0.030379
2629.6368,0.030587
2631.5005,0.030708
2633.3642,0.030946
2635.2279,0.031326
2637.0915,0.031600
2638.9552,0.031659
2640.8189,0.031778
2642.6825,0.031845
2644.5462,0.031886
2646.4099,0.032034
2648.2735,0.032288
2650.1372,0.032430
2652.0009,0.032563
2653.8645,0.032703
2655.7282,0.032758
2657.5919,0.032746
2659.4555,0.032916
2661.3192,0.033063
2663.1829,0.033101
2665.0466,0.033024
2666.9102,0.032967
2668.7739,0.033015
2670.6376,0.033003
2672.5012,0.033276
2674.3649,0.033550
2676.2286,0.033551
2678.0922,0.033733
2679.9559,0.034110
2681.8196,0.034306
2683.6832,0.034195
2685.5469,0.034241
2687.4106,0.034419
2689.2742,0.034578
2691.1379,0.034893
2693.0016,0.035134
2694.8653,0.035331
2696.7289,0.035492
2698.5926,0.035781
2700.4563,0.036082
2702.3199,0.036285
2704.1836,0.036455
2706.0473,0.036578
2707.9109,0.036733
2709.7746,0.037019
2711.6383,0.037257
2713.5019,0.037376
2715.3656,0.037607
2717.2293,0.038136
2719.0930,0.038490
2720.9566,0.038661
2722.8203,0.038797
2724.6840,0.038937
2726.5476,0.039383
2728.4113,0.040022
2730.2750,0.040172
2732.1386,0.039953
2734.0023,0.040094
2735.8660,0.040610
2737.7296,0.041232
2739.5933,0.041487
2741.4570,0.041707
2743.3206,0.042077
2745.1843,0.042499
2747.0480,0.042986
2748.9117,0.043638
2750.7753,0.044018
2752.6390,0.044051
2754.5027,0.044202
2756.3663,0.044692
2758.2300,0.045021
2760.0937,0.045482
2761.9573,0.045920
2763.8210,0.046590
2765.6847,0.047086
2767.5483,0.047143
2769.4120,0.047485
2771.2757,0.048053
2773.1394,0.048416
2775.0030,0.049131
2776.8667,0.049964
2778.7304,0.050284
2780.5940,0.050294
2782.4577,0.050279
2784.3214,0.050341
2786.1850,0.050307
2788.0487,0.049929
2789.9124,0.050040
2791.7760,0.049962
2793.6397,0.049464
2795.5034,0.049083
2797.3670,0.048982
2799.2307,0.048743
2801.0944,0.048370
2802.9581,0.047813
2804.8217,0.047599
2806.6854,0.047527
2808.5491,0.047528
2810.4127,0.047658
2812.2764,0.047669
2814.1401,0.047373
2816.0037,0.047357
2817.8674,0.047715
2819.7311,0.047858
2821.5947,0.047730
2823.4584,0.047893
2825.3221,0.048105
2827.1857,0.048102
2829.0494,0.048149
2830.9131,0.047857
2832.7768,0.047415
2834.6404,0.047239
2836.5041,0.047230
2838.3678,0.047717
2840.2314,0.048367
2842.0951,0.048748
2843.9588,0.049183
2845.8224,0.049722
2847.6861,0.049994
2849.5498,0.050357
2851.4134,0.051003
2853.2771,0.051590
2855.1408,0.051951
2857.0045,0.052442
2858.8681,0.052986
2860.7318,0.053579
2862.5955,0.053835
2864.4591,0.054305
2866.3228,0.054693
2868.1865,0.054824
2870.0501,0.055028
2871.9138,0.055394
2873.7775,0.055681
2875.6411,0.055996
2877.5048,0.056253
2879.3685,0.056718
2881.2321,0.057123
2883.0958,0.057416
2884.9595,0.057746
2886.8232,0.058197
2888.6868,0.058598
2890.5505,0.058988
2892.4142,0.059234
2894.2778,0.059374
2896.1415,0.059619
2898.0052,0.059790
2899.8688,0.060106
2901.7325,0.060406
2903.5962,0.060259
2905.4598,0.060234
2907.3235,0.060182
2909.1872,0.060283
2911.0509,0.060587
2912.9145,0.061028
2914.7782,0.061280
2916.6419,0.061671
2918.5055,0.062055
2920.3692,0.062429
2922.2329,0.062899
2924.0965,0.063420
2925.9602,0.063433
2927.8239,0.063626
2929.6875,0.064162
2931.5512,0.064706
2933.4149,0.064664
2935.2785,0.064805
2937.1422,0.065332
2939.0059,0.065584
2940.8696,0.065619
2942.7332,0.065662
2944.5969,0.065287
2946.4606,0.065256
2948.3242,0.065574
2950.1879,0.065937
2952.0516,0.065975
2953.9152,0.066032
2955.7789,0.066160
2957.6426,0.066607
2959.5062,0.066947
2961.3699,0.067092
2963.2336,0.067338
2965.0972,0.067995
2966.9609,0.068496
2968.8246,0.069093
2970.6883,0.070060
2972.5519,0.070454
2974.4156,0.070225
2976.2793,0.070463
2978.1429,0.071272
2980.0066,0.071774
2981.8703,0.071807
2983.7339,0.071976
2985.5976,0.072254
2987.4613,0.072784
2989.3249,0.073010
2991.1886,0.073570
2993.0523,0.074015
2994.9160,0.074469
2996.7796,0.075126
2998.6433,0.075979
3000.5070,0.076644
3002.3706,0.077073
3004.2343,0.077233
3006.0980,0.077998
3007.9616,0.078863
3009.8253,0.079508
3011.6890,0.080083
3013.5526,0.081177
3015.4163,0.081502
3017.2800,0.081472
3019.1436,0.081674
3021.0073,0.082281
3022.8710,0.082848
3024.7347,0.083124
3026.5983,0.083148
3028.4620,0.083515
3030.3257,0.084063
3032.1893,0.084742
3034.0530,0.084957
3035.9167,0.085117
3037.7803,0.085633
3039.6440,0.086005
3041.5077,0.086124
3043.3713,0.086824
3045.2350,0.087028
3047.0987,0.087091
3048.9624,0.087369
3050.8260,0.087699
3052.6897,0.088237
3054.5534,0.088885
3056.4170,0.088880
3058.2807,0.088809
3060.1444,0.088856
3062.0080,0.089218
3063.8717,0.089653
3065.7354,0.089884
3067.5990,0.090341
3069.4627,0.090632
3071.3264,0.090391
3073.1900,0.090119
3075.0537,0.089831
3076.9174,0.089963
3078.7811,0.089832
3080.6447,0.090106
3082.5084,0.090459
3084.3721,0.090466
3086.2357,0.090160
3088.0994,0.090074
3089.9631,0.089451
3091.8267,0.088773
3093.6904,0.088684
3095.5541,0.088626
3097.4177,0.087890
3099.2814,0.087537
3101.1451,0.087205
3103.0087,0.086488
3104.8724,0.085584
3106.7361,0.085296
3108.5998,0.085237
3110.4634,0.084697
3112.3271,0.083958
3114.1908,0.083637
3116.0544,0.082997
3117.9181,0.082587
3119.7818,0.082610
3121.6454,0.082338
3123.5091,0.081412
3125.3728,0.080468
3127.2364,0.079654
3129.1001,0.079652
3130.9638,0.079514
3132.8275,0.079477
3134.6911,0.079395
3136.5548,0.078532
3138.4185,0.077840
3140.2821,0.077858
3142.1458,0.077984
3144.0095,0.077801
3145.8731,0.076842
3147.7368,0.076149
3149.6005,0.076178
3151.4641,0.076309
3153.3278,0.076285
3155.1915,0.076449
3157.0551,0.076200
3158.9188,0.076210
3160.7825,0.075783
3162.6462,0.075128
3164.5098,0.074700
3166.3735,0.074519
3168.2372,0.074364
3170.1008,0.074060
3171.9645,0.074162
3173.8282,0.074009
3175.6918,0.073307
3177.5555,0.073075
3179.4192,0.073110
3181.2828,0.073189
3183.1465,0.072984
3185.0102,0.072797
3186.8739,0.073135
3188.7375,0.073468
3190.6012,0.073153
3192.4649,0.072670
3194.3285,0.072943
3196.1922,0.072992
3198.0559,0.072246
3199.9195,0.072882
3201.7832,0.073291
3203.6469,0.072907
3205.5105,0.072744
3207.3742,0.073210
3209.2379,0.073248
3211.1015,0.073650
3212.9652,0.073802
3214.8289,0.074092
3216.6926,0.074441
3218.5562,0.074625
3220.4199,0.074342
3222.2836,0.073552
3224.1472,0.073747
3226.0109,0.074389
3227.8746,0.074329
3229.7382,0.075020
3231.6019,0.075071
3233.4656,0.074902
3235.3292,0.075698
3237.1929,0.076584
3239.0566,0.076109
3240.9202,0.075715
3242.7839,0.075782
3244.6476,0.075711
3246.5113,0.075708
3248.3749,0.075542
3250.2386,0.075734
3252.1023,0.076782
3253.9659,0.077604
3255.8296,0.078503
3257.6933,0.078414
3259.5569,0.078342
3261.4206,0.078607
3263.2843,0.078956
3265.1479,0.078738
3267.0116,0.078042
3268.8753,0.077921
3270.7390,0.078279
3272.6026,0.077992
3274.4663,0.078891
3276.3300,0.079162
3278.1936,0.078212
3280.0573,0.077648
3281.9210,0.077962
3283.7846,0.077303
3285.6483,0.076751
3287.5120,0.076358
3289.3756,0.076346
3291.2393,0.076052
3293.1030,0.075617
3294.9666,0.074858
3296.8303,0.074329
3298.6940,0.073612
3300.5577,0.072772
3302.4213,0.072337
3304.2850,0.072574
3306.1487,0.071811
3308.0123,0.071108
3309.8760,0.070949
3311.7397,0.071084
3313.6033,0.070544
3315.4670,0.070518
3317.3307,0.070873
3319.1943,0.070562
3321.0580,0.069788
3322.9217,0.069729
3324.7854,0.070050
3326.6490,0.070786
3328.5127,0.071739
3330.3764,0.072145
3332.2400,0.071192
3334.1037,0.070012
3335.9674,0.069694
3337.8310,0.069374
3339.6947,0.068260
3341.5584,0.068328
3343.4220,0.068186
3345.2857,0.066510
3347.1494,0.065459
3349.0130,0.065176
3350.8767,0.063724
3352.7404,0.062929
3354.6041,0.061957
3356.4677,0.061013
3358.3314,0.060860
3360.1951,0.060973
3362.0587,0.060168
3363.9224,0.059012
3365.7861,0.057911
3367.6497,0.057913
3369.5134,0.058278
3371.3771,0.058290
3373.2407,0.058398
3375.1044,0.057911
3376.9681,0.057377
3378.8317,0.058340
3380.6954,0.058292
3382.5591,0.058415
3384.4228,0.058719
3386.2864,0.057749
3388.1501,0.057128
3390.0138,0.058295
3391.8774,0.058549
3393.7411,0.058122
3395.6048,0.058672
3397.4684,0.060088
3399.3321,0.060268
3401.1958,0.059685
3403.0594,0.058933
3404.9231,0.057880
3406.7868,0.056484
3408.6505,0.056036
3410.5141,0.055688
3412.3778,0.054038
3414.2415,0.052177
3416.1051,0.049957
3417.9688,0.048903
3419.8325,0.048632
3421.6961,0.047001
3423.5598,0.045622
3425.4235,0.045193
3427.2871,0.044016
3429.1508,0.042787
3431.0145,0.041927
3432.8781,0.040674
3434.7418,0.039978
3436.6055,0.039281
3438.4692,0.038434
3440.3328,0.038170
3442.1965,0.037978
3444.0602,0.037443
3445.9238,0.037806
3447.7875,0.037924
3449.6512,0.036226
3451.5148,0.035010
3453.3785,0.035722
3455.2422,0.035205
3457.1058,0.033837
3458.9695,0.033936
3460.8332,0.034657
3462.6969,0.033789
3464.5605,0.032133
3466.4242,0.031501
3468.2879,0.032069
3470.1515,0.031586
3472.0152,0.030436
3473.8789,0.030583
3475.7425,0.031182
3477.6062,0.029705
3479.4699,0.028361
3481.3335,0.027691
3483.1972,0.027650
3485.0609,0.028637
3486.9245,0.028956
3488.7882,0.027568
3490.6519,0.027403
3492.5156,0.027855
3494.3792,0.026797
3496.2429,0.025051
3498.1066,0.024818
3499.9702,0.025045
3501.8339,0.025102
3503.6976,0.024931
3505.5612,0.023639
3507.4249,0.023316
3509.2886,0.024469
3511.1522,0.024213
3513.0159,0.022030
3514.8796,0.020653
3516.7432,0.021025
3518.6069,0.022004
3520.4706,0.022359
3522.3343,0.021383
3524.1979,0.021074
3526.0616,0.021225
3527.9253,0.020821
3529.7889,0.019512
3531.6526,0.018760
3533.5163,0.019414
3535.3799,0.019549
3537.2436,0.019417
3539.1073,0.019488
3540.9709,0.018673
3542.8346,0.017948
3544.6983,0.018124
3546.5620,0.017928
3548.4256,0.017396
3550.2893,0.017221
3552.1530,0.016000
3554.0166,0.015768
3555.8803,0.016311
3557.7440,0.016833
3559.6076,0.016633
3561.4713,0.016233
3563.3350,0.015475
3565.1986,0.014796
3567.0623,0.013785
3568.9260,0.012988
3570.7896,0.013275
3572.6533,0.014188
3574.5170,0.013879
3576.3807,0.013678
3578.2443,0.013712
3580.1080,0.013138
3581.9717,0.012811
3583.8353,0.013518
3585.6990,0.013800
3587.5627,0.013350
3589.4263,0.012050
3591.2900,0.011856
3593.1537,0.012431
3595.0173,0.012389
3596.8810,0.012174
3598.7447,0.011976
3600.6084,0.011820
3602.4720,0.011636
3604.3357,0.011029
3606.1994,0.010904
3608.0630,0.011155
3609.9267,0.011673
3611.7904,0.010999
3613.6540,0.009751
3615.5177,0.009668
3617.3814,0.010386
3619.2450,0.010717
3621.1087,0.010073
3622.9724,0.009406
3624.8360,0.010002
3626.6997,0.010811
3628.5634,0.010023
3630.4271,0.009261
3632.2907,0.008831
3634.1544,0.008717
3636.0181,0.009195
3637.8817,0.009543
3639.7454,0.009845
3641.6091,0.009022
3643.4727,0.008636
3645.3364,0.009040
3647.2001,0.009281
3649.0637,0.008255
3650.9274,0.006639
3652.7911,0.007010
3654.6547,0.007308
3656.5184,0.007419
3658.3821,0.007965
3660.2458,0.008866
3662.1094,0.009608
3663.9731,0.009082
3665.8368,0.008421
3667.7004,0.008084
3669.5641,0.008298
3671.4278,0.009065
3673.2914,0.008124
3675.1551,0.007260
3677.0188,0.008490
3678.8824,0.008077
3680.7461,0.008571
3682.6098,0.009029
3684.4735,0.008879
3686.3371,0.008611
3688.2008,0.008171
3690.0645,0.007951
3691.9281,0.008478
3693.7918,0.009093
3695.6555,0.009061
3697.5191,0.009082
3699.3828,0.008523
3701.2465,0.008085
3703.1101,0.008903
3704.9738,0.009200
3706.8375,0.008698
3708.7011,0.008487
3710.5648,0.008482
3712.4285,0.008085
3714.2922,0.008236
3716.1558,0.008390
3718.0195,0.008243
3719.8832,0.008487
3721.7468,0.008602
3723.6105,0.008686
3725.4742,0.008985
3727.3378,0.008951
3729.2015,0.007990
3731.0652,0.007727
3732.9288,0.008782
3734.7925,0.008896
3736.6562,0.007947
3738.5199,0.007577
3740.3835,0.008192
3742.2472,0.008673
3744.1109,0.008274
3745.9745,0.007376
3747.8382,0.006204
3749.7019,0.008065
3751.5655,0.008905
3753.4292,0.008458
3755.2929,0.008558
3757.1565,0.008791
3759.0202,0.009418
3760.8839,0.009775
3762.7475,0.009523
3764.6112,0.009291
3766.4749,0.009962
3768.3386,0.009424
3770.2022,0.009320
3772.0659,0.010049
3773.9296,0.010067
3775.7932,0.010001
3777.6569,0.009955
3779.5206,0.009925
3781.3842,0.009998
3783.2479,0.009575
3785.1116,0.008948
3786.9752,0.009046
3788.8389,0.009759
3790.7026,0.009802
3792.5662,0.009960
3794.4299,0.010085
3796.2936,0.009880
3798.1573,0.010125
3800.0209,0.009803
3801.8846,0.009245
3803.7483,0.009039
3805.6119,0.009112
3807.4756,0.009884
3809.3393,0.009823
3811.2029,0.009347
3813.0666,0.009702
3814.9303,0.009763
3816.7939,0.009616
3818.6576,0.008996
3820.5213,0.008608
3822.3850,0.008907
3824.2486,0.008873
3826.1123,0.009938
3827.9760,0.010525
3829.8396,0.010426
3831.7033,0.010426
3833.5670,0.010267
3835.4306,0.009951
3837.2943,0.010552
3839.1580,0.010471
3841.0216,0.009423
3842.8853,0.008664
3844.7490,0.009388
3846.6126,0.009965
3848.4763,0.010034
3850.3400,0.010351
3852.2037,0.010576
3854.0673,0.010274
3855.9310,0.010309
3857.7947,0.009945
3859.6583,0.009865
3861.5220,0.009739
3863.3857,0.010034
3865.2493,0.010271
3867.1130,0.010086
3868.9767,0.009196
3870.8403,0.010427
3872.7040,0.011215
3874.5677,0.011076
3876.4314,0.010933
3878.2950,0.010630
3880.1587,0.010231
3882.0224,0.009986
3883.8860,0.010411
3885.7497,0.011105
3887.6134,0.011111
3889.4770,0.010451
3891.3407,0.010816
3893.2044,0.011394
3895.0680,0.011148
3896.9317,0.011082
3898.7954,0.010788
3900.6590,0.010715
3902.5227,0.011056
3904.3864,0.011102
3906.2501,0.010442
3908.1137,0.010169
3909.9774,0.010793
3911.8411,0.011046
3913.7047,0.010755
3915.5684,0.011052
3917.4321,0.011513
3919.2957,0.011594
3921.1594,0.011126
3923.0231,0.011057
3924.8867,0.011142
3926.7504,0.011123
3928.6141,0.011106
3930.4777,0.011357
3932.3414,0.011497
3934.2051,0.011629
3936.0688,0.011456
3937.9324,0.011375
3939.7961,0.011033
3941.6598,0.011102
3943.5234,0.011657
3945.3871,0.012158
3947.2508,0.011752
3949.1144,0.011521
3950.9781,0.011739
3952.8418,0.011928
3954.7054,0.011907
3956.5691,0.012000
3958.4328,0.011616
3960.2965,0.011400
3962.1601,0.011511
3964.0238,0.011414
3965.8875,0.010965
3967.7511,0.011296
3969.6148,0.012104
3971.4785,0.012284
3973.3421,0.011984
3975.2058,0.011886
3977.0695,0.011472
3978.9331,0.011557
3980.7968,0.011861
3982.6605,0.011791
3984.5241,0.011849
3986.3878,0.011947
3988.2515,0.012155
3990.1152,0.012978
3991.9788,0.012618
3993.8425,0.011822
3995.7062,0.011832
3997.5698,0.011955
3999.4335,0.011665
