Wavenumber,Intensity
650.4205,0.118767
652.2841,0.118245
654.1478,0.117258
656.0115,0.115807
657.8751,0.115484
659.7388,0.114513
661.6025,0.115168
663.4661,0.116756
665.3298,0.119105
667.1935,0.120811
669.0571,0.120988
670.9208,0.118258
672.7845,0.115453
674.6481,0.113023
676.5118,0.110613
678.3755,0.109222
680.2392,0.109021
682.1028,0.106743
683.9665,0.104961
685.8302,0.104018
687.6938,0.103259
689.5575,0.103070
691.4212,0.102858
693.2848,0.102437
695.1485,0.101527
697.0122,0.101535
698.8758,0.102461
700.7395,0.102372
702.6032,0.101868
704.4669,0.100651
706.3305,0.098375
708.1942,0.094632
710.0579,0.090111
711.9215,0.085738
713.7852,0.081621
715.6489,0.077993
717.5125,0.075418
719.3762,0.072762
721.2399,0.069990
723.1035,0.067468
724.9672,0.064994
726.8309,0.062697
728.6945,0.061340
730.5582,0.060563
732.4219,0.059040
734.2856,0.056683
736.1492,0.054992
738.0129,0.054251
739.8766,0.054081
741.7402,0.054862
743.6039,0.056246
745.4676,0.056778
747.3312,0.056428
749.1949,0.056038
751.0586,0.056008
752.9222,0.055674
754.7859,0.055015
756.6496,0.054242
758.5132,0.053915
760.3769,0.053807
762.2406,0.053496
764.1043,0.053073
765.9679,0.053262
767.8316,0.053391
769.6953,0.053090
771.5589,0.052828
773.4226,0.053198
775.2863,0.053423
777.1499,0.053843
779.0136,0.054591
780.8773,0.055296
782.7409,0.056289
784.6046,0.057625
786.4683,0.058614
788.3320,0.059402
790.1956,0.060323
792.0593,0.061449
793.9230,0.062508
795.7866,0.063442
797.6503,0.064291
799.5140,0.065204
801.3776,0.065885
803.2413,0.066315
805.1050,0.066035
806.9686,0.065247
808.8323,0.064227
810.6960,0.063115
812.5596,0.061837
814.4233,0.060510
816.2870,0.059073
818.1507,0.057720
820.0143,0.056553
821.8780,0.055327
823.7417,0.054514
825.6053,0.054539
827.4690,0.055274
829.3327,0.055800
831.1963,0.053355
833.0600,0.047882
834.9237,0.042865
836.7873,0.040305
838.6510,0.039388
840.5147,0.039025
842.3784,0.038772
844.2420,0.038786
846.1057,0.039166
847.9694,0.039500
849.8330,0.039889
851.6967,0.040400
853.5604,0.040963
855.4240,0.041442
857.2877,0.041721
859.1514,0.041849
861.0150,0.041409
862.8787,0.040832
864.7424,0.040820
866.6060,0.040953
868.4697,0.040801
870.3334,0.040747
872.1971,0.040839
874.0607,0.040798
875.9244,0.040838
877.7881,0.041194
879.6517,0.041549
881.5154,0.041826
883.3791,0.042173
885.2427,0.042610
887.1064,0.043150
888.9701,0.043642
890.8337,0.044101
892.6974,0.044724
894.5611,0.045520
896.4247,0.046382
898.2884,0.047461
900.1521,0.048780
902.0158,0.050262
903.8794,0.052041
905.7431,0.054171
907.6068,0.056676
909.4704,0.059481
911.3341,0.062549
913.1978,0.066020
915.0614,0.067899
916.9251,0.064453
918.7888,0.057093
920.6524,0.051192
922.5161,0.048569
924.3798,0.047841
926.2435,0.047888
928.1071,0.048532
929.9708,0.049467
931.8345,0.050408
933.6981,0.051499
935.5618,0.052567
937.4255,0.053180
939.2891,0.053392
941.1528,0.053705
943.0165,0.054291
944.8801,0.055075
946.7438,0.055945
948.6075,0.056705
950.4711,0.057646
952.3348,0.058851
954.1985,0.060161
956.0622,0.061443
957.9258,0.062535
959.7895,0.063543
961.6532,0.064602
963.5168,0.065779
965.3805,0.067203
967.2442,0.068996
969.1078,0.070993
970.9715,0.072973
972.8352,0.075275
974.6988,0.078660
976.5625,0.083964
978.4262,0.092356
980.2899,0.103256
982.1535,0.107786
984.0172,0.096983
985.8809,0.081700
987.7445,0.074493
989.6082,0.073509
991.4719,0.074220
993.3355,0.075585
995.1992,0.077253
997.0629,0.078981
998.9265,0.080745
1000.7902,0.082393
1002.6539,0.083911
1004.5175,0.085517
1006.3812,0.087154
1008.2449,0.088395
1010.1086,0.088956
1011.9722,0.088939
1013.8359,0.088474
1015.6996,0.087555
1017.5632,0.086483
1019.4269,0.085465
1021.2906,0.084447
1023.1542,0.083489
1025.0179,0.082536
1026.8816,0.081554
1028.7452,0.080660
1030.6089,0.079801
1032.4726,0.078943
1034.3362,0.078429
1036.1999,0.078249
1038.0636,0.078205
1039.9273,0.078355
1041.7909,0.078709
1043.6546,0.079119
1045.5183,0.079531
1047.3819,0.079574
1049.2456,0.078267
1051.1093,0.074831
1052.9729,0.070084
1054.8366,0.065817
1056.7003,0.063026
1058.5639,0.061612
1060.4276,0.060973
1062.2913,0.060659
1064.1550,0.060645
1066.0186,0.060942
1067.8823,0.061432
1069.7460,0.062025
1071.6096,0.062648
1073.4733,0.063278
1075.3370,0.063978
1077.2006,0.064782
1079.0643,0.065582
1080.9280,0.066388
1082.7916,0.067345
1084.6553,0.068467
1086.5190,0.069760
1088.3826,0.071214
1090.2463,0.072814
1092.1100,0.074631
1093.9737,0.076715
1095.8373,0.079035
1097.7010,0.081682
1099.5647,0.084564
1101.4283,0.087344
1103.2920,0.089771
1105.1557,0.091458
1107.0193,0.091657
1108.8830,0.089710
1110.7467,0.085554
1112.6103,0.079879
1114.4740,0.073770
1116.3377,0.068079
1118.2014,0.063249
1120.0650,0.059476
1121.9287,0.056817
1123.7924,0.054933
1125.6560,0.053431
1127.5197,0.052097
1129.3834,0.050663
1131.2470,0.049248
1133.1107,0.048048
1134.9744,0.047037
1136.8380,0.046186
1138.7017,0.045609
1140.5654,0.045326
1142.4290,0.045136
1144.2927,0.044970
1146.1564,0.044664
1148.0201,0.044288
1149.8837,0.044109
1151.7474,0.044064
1153.6111,0.044174
1155.4747,0.044525
1157.3384,0.044927
1159.2021,0.045211
1161.0657,0.045417
1162.9294,0.045835
1164.7931,0.046642
1166.6567,0.047831
1168.5204,0.049423
1170.3841,0.051164
1172.2477,0.052450
1174.1114,0.052436
1175.9751,0.050776
1177.8388,0.048268
1179.7024,0.046084
1181.5661,0.044849
1183.4298,0.044445
1185.2934,0.044462
1187.1571,0.044658
1189.0208,0.044859
1190.8844,0.044757
1192.7481,0.044351
1194.6118,0.043885
1196.4754,0.043550
1198.3391,0.043420
1200.2028,0.043330
1202.0665,0.043309
1203.9301,0.043407
1205.7938,0.043437
1207.6575,0.043402
1209.5211,0.043450
1211.3848,0.043659
1213.2485,0.043926
1215.1121,0.044121
1216.9758,0.044293
1218.8395,0.044461
1220.7031,0.044604
1222.5668,0.044744
1224.4305,0.044881
1226.2941,0.044965
1228.1578,0.044983
1230.0215,0.045054
1231.8852,0.045263
1233.7488,0.045485
1235.6125,0.045672
1237.4762,0.045942
1239.3398,0.046331
1241.2035,0.046676
1243.0672,0.046827
1244.9308,0.046907
1246.7945,0.047057
1248.6582,0.047285
1250.5218,0.047518
1252.3855,0.047786
1254.2492,0.048141
1256.1129,0.048526
1257.9765,0.048900
1259.8402,0.049347
1261.7039,0.049989
1263.5675,0.050639
1265.4312,0.051115
1267.2949,0.051358
1269.1585,0.051392
1271.0222,0.051409
1272.8859,0.051472
1274.7495,0.051633
1276.6132,0.052068
1278.4769,0.052700
1280.3405,0.053449
1282.2042,0.054376
1284.0679,0.055473
1285.9316,0.056661
1287.7952,0.057831
1289.6589,0.058958
1291.5226,0.060217
1293.3862,0.061760
1295.2499,0.063687
1297.1136,0.066151
1298.9772,0.069239
1300.8409,0.073059
1302.7046,0.077257
1304.5682,0.080526
1306.4319,0.080659
1308.2956,0.075927
1310.1592,0.066902
1312.0229,0.057104
1313.8866,0.050125
1315.7503,0.046940
1317.6139,0.046323
1319.4776,0.047062
1321.3413,0.048147
1323.2049,0.049196
1325.0686,0.050377
1326.9323,0.051725
1328.7959,0.053135
1330.6596,0.054385
1332.5233,0.055332
1334.3869,0.055796
1336.2506,0.056133
1338.1143,0.057137
1339.9780,0.058549
1341.8416,0.058783
1343.7053,0.058248
1345.5690,0.058285
1347.4326,0.058830
1349.2963,0.059571
1351.1600,0.060302
1353.0236,0.061060
1354.8873,0.062176
1356.7510,0.063332
1358.6146,0.064326
1360.4783,0.065606
1362.3420,0.067523
1364.2056,0.069152
1366.0693,0.069816
1367.9330,0.071055
1369.7967,0.072843
1371.6603,0.074278
1373.5240,0.076370
1375.3877,0.079114
1377.2513,0.080790
1379.1150,0.082669
1380.9787,0.085180
1382.8423,0.087647
1384.7060,0.090377
1386.5697,0.094143
1388.4333,0.098476
1390.2970,0.100851
1392.1607,0.102135
1394.0244,0.102835
1395.8880,0.101215
1397.7517,0.097811
1399.6154,0.093743
1401.4790,0.089317
1403.3427,0.085700
1405.2064,0.080618
1407.0700,0.072406
1408.9337,0.063680
1410.7974,0.055638
1412.6610,0.049406
1414.5247,0.045794
1416.3884,0.044845
1418.2520,0.047029
1420.1157,0.051777
1421.9794,0.054148
1423.8431,0.053751
1425.7067,0.049984
1427.5704,0.044923
1429.4341,0.041375
1431.2977,0.039591
1433.1614,0.038922
1435.0251,0.039367
1436.8887,0.041810
1438.7524,0.043438
1440.6161,0.043443
1442.4797,0.044073
1444.3434,0.044915
1446.2071,0.045690
1448.0707,0.046490
1449.9344,0.046110
1451.7981,0.044582
1453.6618,0.042873
1455.5254,0.042267
1457.3891,0.045082
1459.2528,0.046921
1461.1164,0.046127
1462.9801,0.046137
1464.8438,0.046941
1466.7074,0.046619
1468.5711,0.045012
1470.4348,0.044049
1472.2984,0.044742
1474.1621,0.045716
1476.0258,0.045254
1477.8895,0.044969
1479.7531,0.044745
1481.6168,0.045128
1483.4805,0.045493
1485.3441,0.045401
1487.2078,0.045849
1489.0715,0.047379
1490.9351,0.048736
1492.7988,0.048470
1494.6625,0.048307
1496.5261,0.049823
1498.3898,0.051380
1500.2535,0.051342
1502.1171,0.050458
1503.9808,0.049402
1505.8445,0.050064
1507.7082,0.054553
1509.5718,0.054330
1511.4355,0.053311
1513.2992,0.053145
1515.1628,0.053191
1517.0265,0.054003
1518.8902,0.054726
1520.7538,0.055599
1522.6175,0.057911
1524.4812,0.058315
1526.3448,0.059005
1528.2085,0.059578
1530.0722,0.059165
1531.9359,0.059237
1533.7995,0.060568
1535.6632,0.060508
1537.5269,0.059505
1539.3905,0.061010
1541.2542,0.065551
1543.1179,0.066593
1544.9815,0.067296
1546.8452,0.067370
1548.7089,0.067624
1550.5725,0.068910
1552.4362,0.069415
1554.2999,0.069466
1556.1635,0.070182
1558.0272,0.072646
1559.8909,0.080183
1561.7546,0.079027
1563.6182,0.078023
1565.4819,0.079191
1567.3456,0.080557
1569.2092,0.082603
1571.0729,0.085148
1572.9366,0.085294
1574.8002,0.086560
1576.6639,0.090377
1578.5276,0.091894
1580.3912,0.091881
1582.2549,0.093089
1584.1186,0.094364
1585.9822,0.095226
1587.8459,0.095677
1589.7096,0.096012
1591.5733,0.096145
1593.4369,0.096085
1595.3006,0.095667
1597.1643,0.094564
1599.0279,0.093092
1600.8916,0.091847
1602.7553,0.090618
1604.6189,0.089162
1606.4826,0.087801
1608.3463,0.086823
1610.2099,0.085752
1612.0736,0.084215
1613.9373,0.082602
1615.8010,0.081588
1617.6646,0.079354
1619.5283,0.075415
1621.3920,0.072988
1623.2556,0.070615
1625.1193,0.066699
1626.9830,0.062707
1628.8466,0.058201
1630.7103,0.052998
1632.5740,0.048789
1634.4376,0.045248
1636.3013,0.041951
1638.1650,0.038751
1640.0286,0.036793
1641.8923,0.035416
1643.7560,0.034779
1645.6197,0.034743
1647.4833,0.035748
1649.3470,0.036342
1651.2107,0.036673
1653.0743,0.038802
1654.9380,0.041982
1656.8017,0.041897
1658.6653,0.042161
1660.5290,0.042437
1662.3927,0.042599
1664.2563,0.042216
1666.1200,0.041417
1667.9837,0.040738
1669.8474,0.040368
1671.7110,0.039870
1673.5747,0.039798
1675.4384,0.040638
1677.3020,0.041878
1679.1657,0.042611
1681.0294,0.044249
1682.8930,0.046645
1684.7567,0.049693
1686.6204,0.049888
1688.4840,0.049436
1690.3477,0.049082
1692.2114,0.047784
1694.0750,0.046551
1695.9387,0.045787
1697.8024,0.043895
1699.6661,0.042545
1701.5297,0.039404
1703.3934,0.035494
1705.2571,0.032082
1707.1207,0.027687
1708.9844,0.024041
1710.8481,0.021215
1712.7117,0.018978
1714.5754,0.017545
1716.4391,0.016402
1718.3027,0.015853
1720.1664,0.015185
1722.0301,0.014544
1723.8937,0.013764
1725.7574,0.012747
1727.6211,0.011634
1729.4848,0.010770
1731.3484,0.010042
1733.2121,0.009608
1735.0758,0.009054
1736.9394,0.008683
1738.8031,0.008344
1740.6668,0.008076
1742.5304,0.007926
1744.3941,0.007835
1746.2578,0.007638
1748.1214,0.007595
1749.9851,0.007474
1751.8488,0.007294
1753.7125,0.007088
1755.5761,0.007123
1757.4398,0.006996
1759.3035,0.006709
1761.1671,0.006504
1763.0308,0.006506
1764.8945,0.006460
1766.7581,0.006462
1768.6218,0.006259
1770.4855,0.006115
1772.3491,0.005965
1774.2128,0.006009
1776.0765,0.006071
1777.9401,0.006108
1779.8038,0.006088
1781.6675,0.006128
1783.5312,0.006108
1785.3948,0.006113
1787.2585,0.006141
1789.1222,0.006190
1790.9858,0.006155
1792.8495,0.006104
1794.7132,0.006019
1796.5768,0.006100
1798.4405,0.006157
1800.3042,0.006190
1802.1678,0.006123
1804.0315,0.006135
1805.8952,0.006138
1807.7589,0.006234
1809.6225,0.006199
1811.4862,0.006102
1813.3499,0.005923
1815.2135,0.005859
1817.0772,0.005832
1818.9409,0.005931
1820.8045,0.006081
1822.6682,0.006400
1824.5319,0.006485
1826.3955,0.006380
1828.2592,0.006093
1830.1229,0.006001
1831.9865,0.005920
1833.8502,0.005915
1835.7139,0.005844
1837.5776,0.005845
1839.4412,0.005829
1841.3049,0.005817
1843.1686,0.005825
1845.0322,0.005849
1846.8959,0.005721
1848.7596,0.005848
1850.6232,0.005864
1852.4869,0.005881
1854.3506,0.005890
1856.2142,0.005924
1858.0779,0.005883
1859.9416,0.005895
1861.8052,0.005897
1863.6689,0.006049
1865.5326,0.005869
1867.3963,0.005730
1869.2599,0.005828
1871.1236,0.005807
1872.9873,0.005661
1874.8509,0.005802
1876.7146,0.005855
1878.5783,0.006091
1880.4419,0.006196
1882.3056,0.006190
1884.1693,0.006135
1886.0329,0.006114
1887.8966,0.005876
1889.7603,0.005873
1891.6240,0.005913
1893.4876,0.005768
1895.3513,0.005580
1897.2150,0.005882
1899.0786,0.006134
1900.9423,0.006094
1902.8060,0.005839
1904.6696,0.006038
1906.5333,0.006137
1908.3970,0.006392
1910.2606,0.006256
1912.1243,0.005871
1913.9880,0.005542
1915.8516,0.005684
1917.7153,0.005738
1919.5790,0.005633
1921.4427,0.005721
1923.3063,0.006037
1925.1700,0.005659
1927.0337,0.005469
1928.8973,0.005782
1930.7610,0.005838
1932.6247,0.005497
1934.4883,0.005513
1936.3520,0.005327
1938.2157,0.005271
1940.0793,0.005589
1941.9430,0.005691
1943.8067,0.005357
1945.6704,0.004974
1947.5340,0.005260
1949.3977,0.006093
1951.2614,0.006130
1953.1250,0.005415
1954.9887,0.004604
1956.8524,0.004752
1958.7160,0.004805
1960.5797,0.005164
1962.4434,0.005074
1964.3070,0.004754
1966.1707,0.003592
1968.0344,0.002734
1969.8980,0.001921
1971.7617,0.002620
1973.6254,0.003421
1975.4891,0.004137
1977.3527,0.004107
1979.2164,0.004248
1981.0801,0.004911
1982.9437,0.004536
1984.8074,0.003833
1986.6711,0.004758
1988.5347,0.004968
1990.3984,0.005225
1992.2621,0.005924
1994.1257,0.005995
1995.9894,0.005137
1997.8531,0.004860
1999.7167,0.004828
2001.5804,0.004483
2003.4441,0.003978
2005.3078,0.005130
2007.1714,0.004997
2009.0351,0.004697
2010.8988,0.005148
2012.7624,0.005266
2014.6261,0.004608
2016.4898,0.004341
2018.3534,0.003768
2020.2171,0.003718
2022.0808,0.002633
2023.9444,0.002302
2025.8081,0.003771
2027.6718,0.005977
2029.5355,0.006284
2031.3991,0.005213
2033.2628,0.004162
2035.1265,0.004723
2036.9901,0.005253
2038.8538,0.005692
2040.7175,0.006205
2042.5811,0.006844
2044.4448,0.006351
2046.3085,0.005095
2048.1721,0.005497
2050.0358,0.007533
2051.8995,0.007910
2053.7631,0.006880
2055.6268,0.007199
2057.4905,0.007986
2059.3542,0.007381
2061.2178,0.006648
2063.0815,0.006970
2064.9452,0.008011
2066.8088,0.007816
2068.6725,0.007935
2070.5362,0.008420
2072.3998,0.008404
2074.2635,0.008069
2076.1272,0.008738
2077.9908,0.009017
2079.8545,0.008532
2081.7182,0.008460
2083.5819,0.008737
2085.4455,0.008640
2087.3092,0.008609
2089.1729,0.008979
2091.0365,0.009071
2092.9002,0.008411
2094.7639,0.008324
2096.6275,0.008435
2098.4912,0.008733
2100.3549,0.008707
2102.2185,0.008673
2104.0822,0.008134
2105.9459,0.008209
2107.8095,0.009050
2109.6732,0.008890
2111.5369,0.008676
2113.4006,0.009313
2115.2642,0.009405
2117.1279,0.009090
2118.9916,0.009018
2120.8552,0.009092
2122.7189,0.008621
2124.5826,0.008438
2126.4462,0.008446
2128.3099,0.007895
2130.1736,0.007108
2132.0372,0.006908
2133.9009,0.006943
2135.7646,0.006842
2137.6282,0.007023
2139.4919,0.007438
2141.3556,0.007085
2143.2193,0.006887
2145.0829,0.006921
2146.9466,0.006764
2148.8103,0.005390
2150.6739,0.004771
2152.5376,0.005104
2154.4013,0.005806
2156.2649,0.005173
2158.1286,0.004860
2159.9923,0.005739
2161.8559,0.006846
2163.7196,0.006202
2165.5833,0.005635
2167.4470,0.006078
2169.3106,0.006814
2171.1743,0.006052
2173.0380,0.005918
2174.9016,0.005903
2176.7653,0.007038
2178.6290,0.007701
2180.4926,0.007057
2182.3563,0.007374
2184.2200,0.008331
2186.0836,0.007977
2187.9473,0.007837
2189.8110,0.007705
2191.6746,0.007821
2193.5383,0.007712
2195.4020,0.007749
2197.2657,0.007665
2199.1293,0.007567
2200.9930,0.007785
2202.8567,0.009611
2204.7203,0.010231
2206.5840,0.009983
2208.4477,0.009077
2210.3113,0.009334
2212.1750,0.009771
2214.0387,0.009306
2215.9023,0.009509
2217.7660,0.009803
2219.6297,0.008917
2221.4934,0.009272
2223.3570,0.009755
2225.2207,0.009695
2227.0844,0.009279
2228.9480,0.010178
2230.8117,0.010118
2232.6754,0.010043
2234.5390,0.011067
2236.4027,0.011410
2238.2664,0.010694
2240.1300,0.010486
2241.9937,0.010662
2243.8574,0.010791
2245.7210,0.009727
2247.5847,0.009493
2249.4484,0.010246
2251.3121,0.010614
2253.1757,0.009813
2255.0394,0.009900
2256.9031,0.010548
2258.7667,0.011037
2260.6304,0.011155
2262.4941,0.011253
2264.3577,0.010831
2266.2214,0.010651
2268.0851,0.011041
2269.9487,0.011570
2271.8124,0.011879
2273.6761,0.012249
2275.5397,0.012373
2277.4034,0.012847
2279.2671,0.013015
2281.1308,0.012943
2282.9944,0.013306
2284.8581,0.013352
2286.7218,0.013001
2288.5854,0.013385
2290.4491,0.013567
2292.3128,0.013234
2294.1764,0.013053
2296.0401,0.013162
2297.9038,0.012938
2299.7674,0.012782
2301.6311,0.012944
2303.4948,0.013095
2305.3585,0.013050
2307.2221,0.013043
2309.0858,0.013327
2310.9495,0.013441
2312.8131,0.013341
2314.6768,0.013766
2316.5405,0.013938
2318.4041,0.013749
2320.2678,0.013518
2322.1315,0.013714
2323.9951,0.014049
2325.8588,0.013737
2327.7225,0.013075
2329.5861,0.012761
2331.4498,0.012709
2333.3135,0.012528
2335.1772,0.012365
2337.0408,0.012377
2338.9045,0.012405
2340.7682,0.012481
2342.6318,0.012198
2344.4955,0.012250
2346.3592,0.012395
2348.2228,0.012234
2350.0865,0.012018
2351.9502,0.012015
2353.8138,0.011846
2355.6775,0.012059
2357.5412,0.012436
2359.4049,0.012014
2361.2685,0.011950
2363.1322,0.012043
2364.9959,0.012172
2366.8595,0.012537
2368.7232,0.012539
2370.5869,0.012332
2372.4505,0.012208
2374.3142,0.012352
2376.1779,0.012613
2378.0415,0.012961
2379.9052,0.012718
2381.7689,0.012621
2383.6325,0.012610
2385.4962,0.012630
2387.3599,0.012775
2389.2236,0.012980
2391.0872,0.013064
2392.9509,0.013066
2394.8146,0.013054
2396.6782,0.012882
2398.5419,0.012732
2400.4056,0.012718
2402.2692,0.012976
2404.1329,0.013148
2405.9966,0.013387
2407.8602,0.013643
2409.7239,0.013562
2411.5876,0.013612
2413.4512,0.013629
2415.3149,0.013567
2417.1786,0.013398
2419.0423,0.013411
2420.9059,0.013790
2422.7696,0.013966
2424.6333,0.013856
2426.4969,0.014131
2428.3606,0.014186
2430.2243,0.013951
2432.0879,0.014073
2433.9516,0.014463
2435.8153,0.014352
2437.6789,0.014110
2439.5426,0.014273
2441.4063,0.014300
2443.2700,0.014445
2445.1336,0.014624
2446.9973,0.014568
2448.8610,0.014103
2450.7246,0.013908
2452.5883,0.014316
2454.4520,0.014478
2456.3156,0.014080
2458.1793,0.014039
2460.0430,0.014188
2461.9066,0.014185
2463.7703,0.013965
2465.6340,0.014136
2467.4976,0.014481
2469.3613,0.014500
2471.2250,0.014172
2473.0887,0.013960
2474.9523,0.014214
2476.8160,0.014362
2478.6797,0.014487
2480.5433,0.014566
2482.4070,0.014627
2484.2707,0.014662
2486.1343,0.014765
2487.9980,0.014538
2489.8617,0.014567
2491.7253,0.015074
2493.5890,0.015390
2495.4527,0.015230
2497.3164,0.015305
2499.1800,0.015380
2501.0437,0.015297
2502.9074,0.015540
2504.7710,0.015679
2506.6347,0.015579
2508.4984,0.015629
2510.3620,0.015622
2512.2257,0.015338
2514.0894,0.015239
2515.9530,0.015598
2517.8167,0.015375
2519.6804,0.015545
2521.5440,0.015978
2523.4077,0.016181
2525.2714,0.016583
2527.1351,0.016758
2528.9987,0.016473
2530.8624,0.016139
2532.7261,0.016206
2534.5897,0.016447
2536.4534,0.016653
2538.3171,0.016450
2540.1807,0.016283
2542.0444,0.016434
2543.9081,0.016461
2545.7717,0.016475
2547.6354,0.016575
2549.4991,0.016645
2551.3627,0.016672
2553.2264,0.016704
2555.0901,0.016793
2556.9538,0.016772
2558.8174,0.016770
2560.6811,0.016746
2562.5448,0.016557
2564.4084,0.016808
2566.2721,0.017264
2568.1358,0.017213
2569.9994,0.017076
2571.8631,0.017313
2573.7268,0.017510
2575.5904,0.017653
2577.4541,0.017812
2579.3178,0.017879
2581.1815,0.018073
2583.0451,0.018378
2584.9088,0.018454
2586.7725,0.018405
2588.6361,0.018648
2590.4998,0.018654
2592.3635,0.018916
2594.2271,0.018960
2596.0908,0.018666
2597.9545,0.018721
2599.8181,0.018983
2601.6818,0.019136
2603.5455,0.019226
2605.4091,0.019494
2607.2728,0.019546
2609.1365,0.019427
2611.0002,0.019527
2612.8638,0.019670
2614.7275,0.019639
2616.5912,0.019777
2618.4548,0.019952
2620.3185,0.019975
2622.1822,0.019956
2624.0458,0.020169
2625.9095,0.020455
2627.7732,0.020477
2629.6368,0.020317
2631.5005,0.020480
2633.3642,0.020989
2635.2279,0.021137
2637.0915,0.021006
2638.9552,0.021193
2640.8189,0.021515
2642.6825,0.021554
2644.5462,0.021508
2646.4099,0.021362
2648.2735,0.021426
2650.1372,0.021810
2652.0009,0.022074
2653.8645,0.022063
2655.7282,0.021903
2657.5919,0.021919
2659.4555,0.022020
2661.3192,0.022059
2663.1829,0.021870
2665.0466,0.021669
2666.9102,0.021806
2668.7739,0.021980
2670.6376,0.022033
2672.5012,0.021935
2674.3649,0.021989
2676.2286,0.022195
2678.0922,0.022319
2679.9559,0.022568
2681.8196,0.022879
2683.6832,0.022857
2685.5469,0.022827
2687.4106,0.023001
2689.2742,0.023196
2691.1379,0.023220
2693.0016,0.023388
2694.8653,0.023599
2696.7289,0.023800
2698.5926,0.024093
2700.4563,0.024098
2702.3199,0.024085
2704.1836,0.024410
2706.0473,0.024626
2707.9109,0.024736
2709.7746,0.024861
2711.6383,0.024987
2713.5019,0.025174
2715.3656,0.025547
2717.2293,0.025718
2719.0930,0.025688
2720.9566,0.025814
2722.8203,0.026006
2724.6840,0.026130
2726.5476,0.026436
2728.4113,0.026913
2730.2750,0.027015
2732.1386,0.026955
2734.0023,0.027376
2735.8660,0.027964
2737.7296,0.028191
2739.5933,0.028226
2741.4570,0.028168
2743.3206,0.028188
2745.1843,0.028543
2747.0480,0.029133
2748.9117,0.029674
2750.7753,0.029946
2752.6390,0.030039
2754.5027,0.030267
2756.3663,0.030545
2758.2300,0.030767
2760.0937,0.030915
2761.9573,0.030960
2763.8210,0.031176
2765.6847,0.031651
2767.5483,0.032257
2769.4120,0.032591
2771.2757,0.032764
2773.1394,0.033006
2775.0030,0.033387
2776.8667,0.033749
2778.7304,0.033992
2780.5940,0.034097
2782.4577,0.034237
2784.3214,0.034423
2786.1850,0.034692
2788.0487,0.034498
2789.9124,0.034333
2791.7760,0.034352
2793.6397,0.034314
2795.5034,0.034132
2797.3670,0.033709
2799.2307,0.033381
2801.0944,0.033326
2802.9581,0.033037
2804.8217,0.032763
2806.6854,0.032540
2808.5491,0.032530
2810.4127,0.032392
2812.2764,0.032160
2814.1401,0.032026
2816.0037,0.031924
2817.8674,0.031757
2819.7311,0.031715
2821.5947,0.031873
2823.4584,0.032025
2825.3221,0.032154
2827.1857,0.032089
2829.0494,0.032022
2830.9131,0.032109
2832.7768,0.032026
2834.6404,0.031930
2836.5041,0.031758
2838.3678,0.031690
2840.2314,0.032015
2842.0951,0.032359
2843.9588,0.032445
2845.8224,0.032557
2847.6861,0.032728
2849.5498,0.033253
2851.4134,0.033510
2853.2771,0.033572
2855.1408,0.033780
2857.0045,0.034180
2858.8681,0.034656
2860.7318,0.035102
2862.5955,0.035220
2864.4591,0.035253
2866.3228,0.035545
2868.1865,0.035739
2870.0501,0.036036
2871.9138,0.036262
2873.7775,0.036384
2875.6411,0.036565
2877.5048,0.036650
2879.3685,0.036692
2881.2321,0.036968
2883.0958,0.037416
2884.9595,0.037589
2886.8232,0.037533
2888.6868,0.037777
2890.5505,0.038312
2892.4142,0.038535
2894.2778,0.038644
2896.1415,0.038794
2898.0052,0.039021
2899.8688,0.039165
2901.7325,0.039287
2903.5962,0.039397
2905.4598,0.039567
2907.3235,0.039559
2909.1872,0.039604
2911.0509,0.039749
2912.9145,0.040143
2914.7782,0.040379
2916.6419,0.040505
2918.5055,0.040776
2920.3692,0.040907
2922.2329,0.041156
2924.0965,0.041691
2925.9602,0.042154
2927.8239,0.042550
2929.6875,0.042797
2931.5512,0.042837
2933.4149,0.042691
2935.2785,0.042792
2937.1422,0.043010
2939.0059,0.043549
2940.8696,0.044051
2942.7332,0.044172
2944.5969,0.044214
2946.4606,0.044407
2948.3242,0.044539
2950.1879,0.044544
2952.0516,0.044670
2953.9152,0.044959
2955.7789,0.045039
2957.6426,0.045396
2959.5062,0.045313
2961.3699,0.045039
2963.2336,0.045287
2965.0972,0.045851
2966.9609,0.046148
2968.8246,0.046778
2970.6883,0.047143
2972.5519,0.047011
2974.4156,0.047008
2976.2793,0.047321
2978.1429,0.047689
2980.0066,0.048081
2981.8703,0.048292
2983.7339,0.048307
2985.5976,0.048283
2987.4613,0.048516
2989.3249,0.048673
2991.1886,0.048939
2993.0523,0.049189
2994.9160,0.049715
2996.7796,0.050163
2998.6433,0.050365
3000.5070,0.050596
3002.3706,0.050850
3004.2343,0.051166
3006.0980,0.051363
3007.9616,0.051277
3009.8253,0.051770
3011.6890,0.052410
3013.5526,0.052629
3015.4163,0.052773
3017.2800,0.053010
3019.1436,0.053097
3021.0073,0.053210
3022.8710,0.053226
3024.7347,0.053358
3026.5983,0.053466
3028.4620,0.053439
3030.3257,0.053690
3032.1893,0.054148
3034.0530,0.054161
3035.9167,0.054032
3037.7803,0.053934
3039.6440,0.054115
3041.5077,0.054152
3043.3713,0.054082
3045.2350,0.054340
3047.0987,0.054603
3048.9624,0.054406
3050.8260,0.054617
3052.6897,0.054794
3054.5534,0.054691
3056.4170,0.054676
3058.2807,0.054843
3060.1444,0.054634
3062.0080,0.054392
3063.8717,0.054333
3065.7354,0.054529
3067.5990,0.054781
3069.4627,0.055129
3071.3264,0.054991
3073.1900,0.054507
3075.0537,0.054120
3076.9174,0.054215
3078.7811,0.054560
3080.6447,0.054640
3082.5084,0.053988
3084.3721,0.053639
3086.2357,0.053605
3088.0994,0.053397
3089.9631,0.053142
3091.8267,0.053057
3093.6904,0.052572
3095.5541,0.051887
3097.4177,0.051453
3099.2814,0.051237
3101.1451,0.050812
3103.0087,0.050258
3104.8724,0.050069
3106.7361,0.049981
3108.5998,0.049491
3110.4634,0.049020
3112.3271,0.048582
3114.1908,0.048162
3116.0544,0.047766
3117.9181,0.047264
3119.7818,0.046735
3121.6454,0.046831
3123.5091,0.046766
3125.3728,0.046165
3127.2364,0.045535
3129.1001,0.044993
3130.9638,0.044734
3132.8275,0.044552
3134.6911,0.044082
3136.5548,0.043805
3138.4185,0.043458
3140.2821,0.043169
3142.1458,0.043316
3144.0095,0.043419
3145.8731,0.043176
3147.7368,0.042631
3149.6005,0.042130
3151.4641,0.041999
3153.3278,0.041628
3155.1915,0.041715
3157.0551,0.041915
3158.9188,0.041512
3160.7825,0.041218
3162.6462,0.040951
3164.5098,0.040274
3166.3735,0.039713
3168.2372,0.039390
3170.1008,0.039468
3171.9645,0.039433
3173.8282,0.039388
3175.6918,0.038889
3177.5555,0.038239
3179.4192,0.038408
3181.2828,0.038784
3183.1465,0.038598
3185.0102,0.038290
3186.8739,0.037928
3188.7375,0.037882
3190.6012,0.037624
3192.4649,0.037173
3194.3285,0.037279
3196.1922,0.037538
3198.0559,0.037328
3199.9195,0.037378
3201.7832,0.037797
3203.6469,0.038030
3205.5105,0.038071
3207.3742,0.037820
3209.2379,0.037593
3211.1015,0.037711
3212.9652,0.037705
3214.8289,0.037725
3216.6926,0.037949
3218.5562,0.038131
3220.4199,0.038011
3222.2836,0.038199
3224.1472,0.037951
3226.0109,0.037802
3227.8746,0.037994
3229.7382,0.037878
3231.6019,0.037650
3233.4656,0.037622
3235.3292,0.038328
3237.1929,0.038539
3239.0566,0.038270
3240.9202,0.038953
3242.7839,0.038966
3244.6476,0.038434
3246.5113,0.038791
3248.3749,0.039172
3250.2386,0.039272
3252.1023,0.039080
3253.9659,0.039151
3255.8296,0.039721
3257.6933,0.039858
3259.5569,0.039734
3261.4206,0.039547
3263.2843,0.040081
3265.1479,0.040617
3267.0116,0.040612
3268.8753,0.040516
3270.7390,0.040547
3272.6026,0.040530
3274.4663,0.040325
3276.3300,0.039859
3278.1936,0.039436
3280.0573,0.039593
3281.9210,0.040252
3283.7846,0.040248
3285.6483,0.039564
3287.5120,0.039042
3289.3756,0.038745
3291.2393,0.038611
3293.1030,0.038575
3294.9666,0.038172
3296.8303,0.037906
3298.6940,0.037423
3300.5577,0.036705
3302.4213,0.036432
3304.2850,0.036387
3306.1487,0.036002
3308.0123,0.035808
3309.8760,0.035776
3311.7397,0.035437
3313.6033,0.035198
3315.4670,0.035170
3317.3307,0.035266
3319.1943,0.035578
3321.0580,0.035211
3322.9217,0.034543
3324.7854,0.033954
3326.6490,0.034068
3328.5127,0.034789
3330.3764,0.035035
3332.2400,0.035193
3334.1037,0.035334
3335.9674,0.034766
3337.8310,0.034368
3339.6947,0.033979
3341.5584,0.033552
3343.4220,0.033951
3345.2857,0.033648
3347.1494,0.032678
3349.0130,0.031852
3350.8767,0.031137
3352.7404,0.031092
3354.6041,0.030865
3356.4677,0.030481
3358.3314,0.029919
3360.1951,0.029186
3362.0587,0.028968
3363.9224,0.029330
3365.7861,0.028939
3367.6497,0.027716
3369.5134,0.027033
3371.3771,0.026904
3373.2407,0.026610
3375.1044,0.026411
3376.9681,0.026291
3378.8317,0.026685
3380.6954,0.026881
3382.5591,0.027090
3384.4228,0.027608
3386.2864,0.027906
3388.1501,0.028133
3390.0138,0.027753
3391.8774,0.027545
3393.7411,0.028325
3395.6048,0.028956
3397.4684,0.029357
3399.3321,0.028611
3401.1958,0.027471
3403.0594,0.028190
3404.9231,0.028765
3406.7868,0.027567
3408.6505,0.026542
3410.5141,0.026296
3412.3778,0.025327
3414.2415,0.024658
3416.1051,0.024451
3417.9688,0.023797
3419.8325,0.023035
3421.6961,0.022290
3423.5598,0.021563
3425.4235,0.021116
3427.2871,0.020623
3429.1508,0.019655
3431.0145,0.018792
3432.8781,0.017662
3434.7418,0.017329
3436.6055,0.017682
3438.4692,0.017197
3440.3328,0.016971
3442.1965,0.016692
3444.0602,0.015729
3445.9238,0.014572
3447.7875,0.013861
3449.6512,0.014981
3451.5148,0.016410
3453.3785,0.015721
3455.2422,0.013946
3457.1058,0.013233
3458.9695,0.013592
3460.8332,0.014117
3462.6969,0.014809
3464.5605,0.014699
3466.4242,0.013023
3468.2879,0.012099
3470.1515,0.012591
3472.0152,0.013395
3473.8789,0.013646
3475.7425,0.013194
3477.6062,0.012707
3479.4699,0.012338
3481.3335,0.012198
3483.1972,0.011619
3485.0609,0.010746
3486.9245,0.011117
3488.7882,0.011684
3490.6519,0.011093
3492.5156,0.010187
3494.3792,0.009927
3496.2429,0.010601
3498.1066,0.010848
3499.9702,0.010284
3501.8339,0.009902
3503.6976,0.009492
3505.5612,0.009408
3507.4249,0.009650
3509.2886,0.009856
3511.1522,0.009891
3513.0159,0.009787
3514.8796,0.009080
3516.7432,0.008030
3518.6069,0.008051
3520.4706,0.008206
3522.3343,0.007761
3524.1979,0.007842
3526.0616,0.008065
3527.9253,0.008122
3529.7889,0.007954
3531.6526,0.008060
3533.5163,0.008325
3535.3799,0.007821
3537.2436,0.007167
3539.1073,0.007095
3540.9709,0.006977
3542.8346,0.007164
3544.6983,0.007378
3546.5620,0.006494
3548.4256,0.006072
3550.2893,0.006123
3552.1530,0.005538
3554.0166,0.005940
3555.8803,0.006870
3557.7440,0.006301
3559.6076,0.005975
3561.4713,0.006336
3563.3350,0.006408
3565.1986,0.006680
3567.0623,0.006248
3568.9260,0.004023
3570.7896,0.004038
3572.6533,0.005826
3574.5170,0.006093
3576.3807,0.005802
3578.2443,0.005948
3580.1080,0.005558
3581.9717,0.005172
3583.8353,0.005561
3585.6990,0.005837
3587.5627,0.005670
3589.4263,0.004669
3591.2900,0.003805
3593.1537,0.004420
3595.0173,0.005712
3596.8810,0.006459
3598.7447,0.006362
3600.6084,0.006369
3602.4720,0.006238
3604.3357,0.006013
3606.1994,0.006099
3608.0630,0.005992
3609.9267,0.005024
3611.7904,0.003660
3613.6540,0.004035
3615.5177,0.005535
3617.3814,0.005580
3619.2450,0.005357
3621.1087,0.005390
3622.9724,0.005083
3624.8360,0.005453
3626.6997,0.005799
3628.5634,0.005723
3630.4271,0.005615
3632.2907,0.005271
3634.1544,0.005434
3636.0181,0.005945
3637.8817,0.006300
3639.7454,0.006605
3641.6091,0.006254
3643.4727,0.005816
3645.3364,0.005551
3647.2001,0.005264
3649.0637,0.005549
3650.9274,0.005534
3652.7911,0.005502
3654.6547,0.005272
3656.5184,0.005112
3658.3821,0.005537
3660.2458,0.006100
3662.1094,0.006171
3663.9731,0.006386
3665.8368,0.006966
3667.7004,0.007192
3669.5641,0.007056
3671.4278,0.006420
3673.2914,0.006870
3675.1551,0.008489
3677.0188,0.009478
3678.8824,0.008609
3680.7461,0.006730
3682.6098,0.005714
3684.4735,0.006113
3686.3371,0.006064
3688.2008,0.005352
3690.0645,0.005002
3691.9281,0.004524
3693.7918,0.004823
3695.6555,0.005569
3697.5191,0.005853
3699.3828,0.005896
3701.2465,0.006000
3703.1101,0.005879
3704.9738,0.005081
3706.8375,0.004784
3708.7011,0.005146
3710.5648,0.005356
3712.4285,0.005569
3714.2922,0.005641
3716.1558,0.005360
3718.0195,0.005433
3719.8832,0.005776
3721.7468,0.005736
3723.6105,0.005504
3725.4742,0.005101
3727.3378,0.005204
3729.2015,0.006225
3731.0652,0.006605
3732.9288,0.005854
3734.7925,0.004990
3736.6562,0.005911
3738.5199,0.006403
3740.3835,0.005439
3742.2472,0.005363
3744.1109,0.005692
3745.9745,0.004783
3747.8382,0.003804
3749.7019,0.004953
3751.5655,0.005582
3753.4292,0.004985
3755.2929,0.005097
3757.1565,0.005639
3759.0202,0.006123
3760.8839,0.006216
3762.7475,0.006337
3764.6112,0.006502
3766.4749,0.006164
3768.3386,0.005990
3770.2022,0.006452
3772.0659,0.006651
3773.9296,0.006519
3775.7932,0.006201
3777.6569,0.006206
3779.5206,0.006712
3781.3842,0.007096
3783.2479,0.006889
3785.1116,0.006544
3786.9752,0.006659
3788.8389,0.007016
3790.7026,0.006872
3792.5662,0.006251
3794.4299,0.005959
3796.2936,0.006369
3798.1573,0.006611
3800.0209,0.006201
3801.8846,0.006102
3803.7483,0.005836
3805.6119,0.005217
3807.4756,0.005821
3809.3393,0.006947
3811.2029,0.006812
3813.0666,0.006546
3814.9303,0.006114
3816.7939,0.005551
3818.6576,0.005627
3820.5213,0.006265
3822.3850,0.006487
3824.2486,0.005628
3826.1123,0.006096
3827.9760,0.006734
3829.8396,0.006421
3831.7033,0.006535
3833.5670,0.006608
3835.4306,0.006341
3837.2943,0.006309
3839.1580,0.005997
3841.0216,0.006111
3842.8853,0.006571
3844.7490,0.006663
3846.6126,0.006606
3848.4763,0.006511
3850.3400,0.006524
3852.2037,0.006776
3854.0673,0.007191
3855.9310,0.006526
3857.7947,0.006148
3859.6583,0.006611
3861.5220,0.006704
3863.3857,0.006698
3865.2493,0.006629
3867.1130,0.006285
3868.9767,0.006793
3870.8403,0.007183
3872.7040,0.006859
3874.5677,0.006732
3876.4314,0.006588
3878.2950,0.006822
3880.1587,0.007240
3882.0224,0.006757
3883.8860,0.006311
3885.7497,0.007135
3887.6134,0.007630
3889.4770,0.006819
3891.3407,0.006576
3893.2044,0.006950
3895.0680,0.006509
3896.9317,0.006175
3898.7954,0.006518
3900.6590,0.006490
3902.5227,0.006535
3904.3864,0.007101
3906.2501,0.007320
3908.1137,0.007037
3909.9774,0.006828
3911.8411,0.007161
3913.7047,0.007465
3915.5684,0.007443
3917.4321,0.007207
3919.2957,0.007342
3921.1594,0.007405
3923.0231,0.007323
3924.8867,0.007430
3926.7504,0.007385
3928.6141,0.007801
3930.4777,0.007836
3932.3414,0.007588
3934.2051,0.007947
3936.0688,0.008221
3937.9324,0.007494
3939.7961,0.007019
3941.6598,0.007131
3943.5234,0.007265
3945.3871,0.007205
3947.2508,0.007585
3949.1144,0.007906
3950.9781,0.007746
3952.8418,0.007596
3954.7054,0.007673
3956.5691,0.008047
3958.4328,0.008289
3960.2965,0.007923
3962.1601,0.007621
3964.0238,0.007448
3965.8875,0.007483
3967.7511,0.007720
3969.6148,0.007741
3971.4785,0.007485
3973.3421,0.007513
3975.2058,0.007630
3977.0695,0.008146
3978.9331,0.008419
3980.7968,0.008076
3982.6605,0.007898
3984.5241,0.007871
3986.3878,0.007703
3988.2515,0.007884
3990.1152,0.007915
3991.9788,0.007822
3993.8425,0.008197
3995.7062,0.008412
3997.5698,0.007852
3999.4335,0.007623
