Wavenumber,Intensity
650.4205,0.227670
652.2841,0.223000
654.1478,0.219034
656.0115,0.216908
657.8751,0.214113
659.7388,0.212151
661.6025,0.213641
663.4661,0.211741
665.3298,0.208856
667.1935,0.212025
669.0571,0.216557
670.9208,0.211105
672.7845,0.207477
674.6481,0.203717
676.5118,0.202855
678.3755,0.201787
680.2392,0.201651
682.1028,0.202352
683.9665,0.202493
685.8302,0.200783
687.6938,0.200171
689.5575,0.200301
691.4212,0.201113
693.2848,0.202193
695.1485,0.202533
697.0122,0.202646
698.8758,0.203835
700.7395,0.205041
702.6032,0.205792
704.4669,0.203696
706.3305,0.199222
708.1942,0.192357
710.0579,0.184740
711.9215,0.176450
713.7852,0.168617
715.6489,0.161218
717.5125,0.154812
719.3762,0.150458
721.2399,0.146838
723.1035,0.142681
724.9672,0.139206
726.8309,0.135770
728.6945,0.132619
730.5582,0.130113
732.4219,0.128154
734.2856,0.126085
736.1492,0.121794
738.0129,0.116274
739.8766,0.113434
741.7402,0.112565
743.6039,0.111296
745.4676,0.108469
747.3312,0.104127
749.1949,0.099572
751.0586,0.096415
752.9222,0.094755
754.7859,0.093747
756.6496,0.092501
758.5132,0.091750
760.3769,0.090968
762.2406,0.090200
764.1043,0.090408
765.9679,0.090252
767.8316,0.089709
769.6953,0.089842
771.5589,0.090222
773.4226,0.090580
775.2863,0.090990
777.1499,0.091710
779.0136,0.092703
780.8773,0.093852
782.7409,0.095375
784.6046,0.097247
786.4683,0.099145
788.3320,0.101194
790.1956,0.103409
792.0593,0.105507
793.9230,0.107709
795.7866,0.110159
797.6503,0.112715
799.5140,0.114563
801.3776,0.115638
803.2413,0.116444
805.1050,0.116862
806.9686,0.116496
808.8323,0.114741
810.6960,0.112053
812.5596,0.108928
814.4233,0.105405
816.2870,0.101989
818.1507,0.098884
820.0143,0.096212
821.8780,0.094245
823.7417,0.093229
825.6053,0.093570
827.4690,0.095612
829.3327,0.097416
831.1963,0.092437
833.0600,0.080145
834.9237,0.069383
836.7873,0.064225
838.6510,0.062337
840.5147,0.061738
842.3784,0.062011
844.2420,0.063226
846.1057,0.064551
847.9694,0.064077
849.8330,0.061446
851.6967,0.058624
853.5604,0.057464
855.4240,0.057584
857.2877,0.057671
859.1514,0.057503
861.0150,0.057497
862.8787,0.057564
864.7424,0.057586
866.6060,0.057934
868.4697,0.058354
870.3334,0.058475
872.1971,0.058771
874.0607,0.059442
875.9244,0.060089
877.7881,0.060741
879.6517,0.061439
881.5154,0.062233
883.3791,0.063369
885.2427,0.065066
887.1064,0.067320
888.9701,0.069795
890.8337,0.072401
892.6974,0.073685
894.5611,0.072048
896.4247,0.069196
898.2884,0.067773
900.1521,0.068327
902.0158,0.070304
903.8794,0.073513
905.7431,0.078080
907.6068,0.083771
909.4704,0.089800
911.3341,0.096889
913.1978,0.105683
915.0614,0.110782
916.9251,0.103237
918.7888,0.086422
920.6524,0.072992
922.5161,0.067133
924.3798,0.065542
926.2435,0.065457
928.1071,0.066022
929.9708,0.066920
931.8345,0.067935
933.6981,0.068959
935.5618,0.069979
937.4255,0.071188
939.2891,0.072478
941.1528,0.073727
943.0165,0.075120
944.8801,0.076660
946.7438,0.078198
948.6075,0.079849
950.4711,0.081738
952.3348,0.083837
954.1985,0.086176
956.0622,0.088672
957.9258,0.091215
959.7895,0.093366
961.6532,0.094498
963.5168,0.094485
965.3805,0.094424
967.2442,0.095630
969.1078,0.098035
970.9715,0.101101
972.8352,0.105289
974.6988,0.111957
976.5625,0.123085
978.4262,0.141706
980.2899,0.167480
982.1535,0.179100
984.0172,0.153346
985.8809,0.117051
987.7445,0.100161
989.6082,0.098050
991.4719,0.099700
993.3355,0.101829
995.1992,0.104074
997.0629,0.106353
998.9265,0.108754
1000.7902,0.111316
1002.6539,0.113897
1004.5175,0.116437
1006.3812,0.118900
1008.2449,0.121439
1010.1086,0.124028
1011.9722,0.126289
1013.8359,0.128123
1015.6996,0.129519
1017.5632,0.130438
1019.4269,0.130798
1021.2906,0.130749
1023.1542,0.130781
1025.0179,0.130968
1026.8816,0.131414
1028.7452,0.132467
1030.6089,0.133963
1032.4726,0.135876
1034.3362,0.137939
1036.1999,0.138485
1038.0636,0.136697
1039.9273,0.134355
1041.7909,0.133966
1043.6546,0.136366
1045.5183,0.139526
1047.3819,0.140374
1049.2456,0.136934
1051.1093,0.128248
1052.9729,0.116007
1054.8366,0.104765
1056.7003,0.097635
1058.5639,0.094419
1060.4276,0.093398
1062.2913,0.093199
1064.1550,0.093581
1066.0186,0.094562
1067.8823,0.096000
1069.7460,0.097840
1071.6096,0.099949
1073.4733,0.102267
1075.3370,0.104663
1077.2006,0.107069
1079.0643,0.109727
1080.9280,0.112775
1082.7916,0.116128
1084.6553,0.119777
1086.5190,0.123947
1088.3826,0.128690
1090.2463,0.133836
1092.1100,0.139798
1093.9737,0.146721
1095.8373,0.154160
1097.7010,0.161921
1099.5647,0.169649
1101.4283,0.176814
1103.2920,0.183048
1105.1557,0.187677
1107.0193,0.188967
1108.8830,0.184895
1110.7467,0.174691
1112.6103,0.160007
1114.4740,0.143822
1116.3377,0.128652
1118.2014,0.116049
1120.0650,0.106606
1121.9287,0.100167
1123.7924,0.095985
1125.6560,0.093039
1127.5197,0.090570
1129.3834,0.088275
1131.2470,0.086083
1133.1107,0.084082
1134.9744,0.082476
1136.8380,0.081500
1138.7017,0.081081
1140.5654,0.080988
1142.4290,0.081237
1144.2927,0.081752
1146.1564,0.082294
1148.0201,0.082871
1149.8837,0.083608
1151.7474,0.084530
1153.6111,0.085592
1155.4747,0.086799
1157.3384,0.088253
1159.2021,0.090040
1161.0657,0.092136
1162.9294,0.094685
1164.7931,0.097985
1166.6567,0.101992
1168.5204,0.106615
1170.3841,0.111454
1172.2477,0.114925
1174.1114,0.114942
1175.9751,0.111027
1177.8388,0.105193
1179.7024,0.100057
1181.5661,0.096863
1183.4298,0.095258
1185.2934,0.094381
1187.1571,0.093702
1189.0208,0.092920
1190.8844,0.092077
1192.7481,0.091393
1194.6118,0.090867
1196.4754,0.090565
1198.3391,0.090709
1200.2028,0.091220
1202.0665,0.091915
1203.9301,0.092625
1205.7938,0.093067
1207.6575,0.093215
1209.5211,0.093204
1211.3848,0.093065
1213.2485,0.092634
1215.1121,0.092001
1216.9758,0.091393
1218.8395,0.090610
1220.7031,0.089626
1222.5668,0.088650
1224.4305,0.087676
1226.2941,0.086694
1228.1578,0.085712
1230.0215,0.084677
1231.8852,0.083624
1233.7488,0.082635
1235.6125,0.081610
1237.4762,0.080642
1239.3398,0.080127
1241.2035,0.080228
1243.0672,0.080893
1244.9308,0.081970
1246.7945,0.083092
1248.6582,0.084012
1250.5218,0.084544
1252.3855,0.084329
1254.2492,0.083651
1256.1129,0.083361
1257.9765,0.083679
1259.8402,0.084469
1261.7039,0.085599
1263.5675,0.086706
1265.4312,0.087653
1267.2949,0.088303
1269.1585,0.088513
1271.0222,0.088483
1272.8859,0.088445
1274.7495,0.088622
1276.6132,0.089245
1278.4769,0.090219
1280.3405,0.091529
1282.2042,0.093171
1284.0679,0.095104
1285.9316,0.097470
1287.7952,0.100448
1289.6589,0.103962
1291.5226,0.107964
1293.3862,0.112892
1295.2499,0.119108
1297.1136,0.126826
1298.9772,0.136356
1300.8409,0.147964
1302.7046,0.160015
1304.5682,0.167845
1306.4319,0.166084
1308.2956,0.151023
1310.1592,0.124979
1312.0229,0.098638
1313.8866,0.081337
1315.7503,0.074310
1317.6139,0.073315
1319.4776,0.074985
1321.3413,0.077336
1323.2049,0.079816
1325.0686,0.082616
1326.9323,0.085479
1328.7959,0.088297
1330.6596,0.091036
1332.5233,0.093236
1334.3869,0.094663
1336.2506,0.095978
1338.1143,0.098324
1339.9780,0.101568
1341.8416,0.103292
1343.7053,0.103650
1345.5690,0.103812
1347.4326,0.103712
1349.2963,0.104243
1351.1600,0.105471
1353.0236,0.107225
1354.8873,0.109749
1356.7510,0.112170
1358.6146,0.114107
1360.4783,0.117303
1362.3420,0.123121
1364.2056,0.128034
1366.0693,0.130210
1367.9330,0.134051
1369.7967,0.138732
1371.6603,0.142362
1373.5240,0.148298
1375.3877,0.155315
1377.2513,0.159410
1379.1150,0.164879
1380.9787,0.172362
1382.8423,0.180385
1384.7060,0.189923
1386.5697,0.203026
1388.4333,0.216241
1390.2970,0.221220
1392.1607,0.223584
1394.0244,0.225628
1395.8880,0.220556
1397.7517,0.209321
1399.6154,0.196947
1401.4790,0.185176
1403.3427,0.175566
1405.2064,0.161743
1407.0700,0.140954
1408.9337,0.119411
1410.7974,0.099647
1412.6610,0.085579
1414.5247,0.078850
1416.3884,0.078293
1418.2520,0.084856
1420.1157,0.096431
1421.9794,0.101658
1423.8431,0.100453
1425.7067,0.091393
1427.5704,0.079917
1429.4341,0.072168
1431.2977,0.068082
1433.1614,0.066694
1435.0251,0.067998
1436.8887,0.072529
1438.7524,0.074939
1440.6161,0.075412
1442.4797,0.077149
1444.3434,0.078764
1446.2071,0.080345
1448.0707,0.081524
1449.9344,0.079904
1451.7981,0.076525
1453.6618,0.073578
1455.5254,0.074141
1457.3891,0.081005
1459.2528,0.081518
1461.1164,0.077533
1462.9801,0.076544
1464.8438,0.077704
1466.7074,0.076779
1468.5711,0.073946
1470.4348,0.072890
1472.2984,0.074839
1474.1621,0.076573
1476.0258,0.075727
1477.8895,0.075155
1479.7531,0.074718
1481.6168,0.075325
1483.4805,0.075552
1485.3441,0.075616
1487.2078,0.077212
1489.0715,0.080884
1490.9351,0.083711
1492.7988,0.082856
1494.6625,0.082789
1496.5261,0.086890
1498.3898,0.090968
1500.2535,0.091383
1502.1171,0.090287
1503.9808,0.090025
1505.8445,0.095018
1507.7082,0.106801
1509.5718,0.104584
1511.4355,0.101969
1513.2992,0.101228
1515.1628,0.101314
1517.0265,0.102877
1518.8902,0.103409
1520.7538,0.105413
1522.6175,0.109790
1524.4812,0.109107
1526.3448,0.110017
1528.2085,0.110524
1530.0722,0.109349
1531.9359,0.110265
1533.7995,0.113987
1535.6632,0.113333
1537.5269,0.112009
1539.3905,0.118476
1541.2542,0.129415
1543.1179,0.129289
1544.9815,0.129931
1546.8452,0.130471
1548.7089,0.131879
1550.5725,0.135667
1552.4362,0.137878
1554.2999,0.139604
1556.1635,0.142785
1558.0272,0.151838
1559.8909,0.171857
1561.7546,0.164517
1563.6182,0.161399
1565.4819,0.164578
1567.3456,0.168623
1569.2092,0.174937
1571.0729,0.180956
1572.9366,0.180966
1574.8002,0.186143
1576.6639,0.197933
1578.5276,0.201471
1580.3912,0.201369
1582.2549,0.204973
1584.1186,0.208089
1585.9822,0.210384
1587.8459,0.211603
1589.7096,0.212184
1591.5733,0.211570
1593.4369,0.210395
1595.3006,0.208684
1597.1643,0.206279
1599.0279,0.203335
1600.8916,0.200634
1602.7553,0.197970
1604.6189,0.195420
1606.4826,0.193430
1608.3463,0.192225
1610.2099,0.190264
1612.0736,0.186855
1613.9373,0.182813
1615.8010,0.179214
1617.6646,0.170644
1619.5283,0.158545
1621.3920,0.150681
1623.2556,0.142802
1625.1193,0.132477
1626.9830,0.123064
1628.8466,0.112496
1630.7103,0.100960
1632.5740,0.091692
1634.4376,0.083978
1636.3013,0.075564
1638.1650,0.068363
1640.0286,0.065272
1641.8923,0.063384
1643.7560,0.063094
1645.6197,0.065115
1647.4833,0.069055
1649.3470,0.069916
1651.2107,0.072059
1653.0743,0.081057
1654.9380,0.087503
1656.8017,0.084823
1658.6653,0.085301
1660.5290,0.086669
1662.3927,0.087796
1664.2563,0.086759
1666.1200,0.084546
1667.9837,0.083575
1669.8474,0.083457
1671.7110,0.082121
1673.5747,0.082273
1675.4384,0.085367
1677.3020,0.088433
1679.1657,0.090356
1681.0294,0.094930
1682.8930,0.101225
1684.7567,0.110776
1686.6204,0.111703
1688.4840,0.109622
1690.3477,0.108187
1692.2114,0.104949
1694.0750,0.101504
1695.9387,0.098202
1697.8024,0.092602
1699.6661,0.088806
1701.5297,0.080712
1703.3934,0.072260
1705.2571,0.064056
1707.1207,0.053559
1708.9844,0.045723
1710.8481,0.040272
1712.7117,0.035941
1714.5754,0.033237
1716.4391,0.030995
1718.3027,0.029609
1720.1664,0.027819
1722.0301,0.026533
1723.8937,0.024706
1725.7574,0.022401
1727.6211,0.020183
1729.4848,0.018486
1731.3484,0.016853
1733.2121,0.015942
1735.0758,0.014718
1736.9394,0.014045
1738.8031,0.013736
1740.6668,0.013416
1742.5304,0.012938
1744.3941,0.012751
1746.2578,0.012245
1748.1214,0.011878
1749.9851,0.011423
1751.8488,0.011162
1753.7125,0.010812
1755.5761,0.010836
1757.4398,0.010696
1759.3035,0.010622
1761.1671,0.010649
1763.0308,0.010657
1764.8945,0.010150
1766.7581,0.010115
1768.6218,0.010263
1770.4855,0.010395
1772.3491,0.010392
1774.2128,0.010325
1776.0765,0.010064
1777.9401,0.010145
1779.8038,0.010034
1781.6675,0.010018
1783.5312,0.010074
1785.3948,0.010196
1787.2585,0.010113
1789.1222,0.010178
1790.9858,0.010051
1792.8495,0.010074
1794.7132,0.009968
1796.5768,0.009997
1798.4405,0.009942
1800.3042,0.010193
1802.1678,0.010404
1804.0315,0.010609
1805.8952,0.010592
1807.7589,0.010634
1809.6225,0.010463
1811.4862,0.010463
1813.3499,0.010433
1815.2135,0.010381
1817.0772,0.010239
1818.9409,0.010316
1820.8045,0.010358
1822.6682,0.010543
1824.5319,0.010499
1826.3955,0.010440
1828.2592,0.010240
1830.1229,0.010202
1831.9865,0.009646
1833.8502,0.009798
1835.7139,0.010138
1837.5776,0.010021
1839.4412,0.009735
1841.3049,0.009814
1843.1686,0.009596
1845.0322,0.009628
1846.8959,0.009638
1848.7596,0.010097
1850.6232,0.010057
1852.4869,0.009935
1854.3506,0.010127
1856.2142,0.010411
1858.0779,0.010062
1859.9416,0.010199
1861.8052,0.010282
1863.6689,0.010304
1865.5326,0.010183
1867.3963,0.010428
1869.2599,0.010215
1871.1236,0.009859
1872.9873,0.009622
1874.8509,0.010004
1876.7146,0.010155
1878.5783,0.010254
1880.4419,0.010099
1882.3056,0.010217
1884.1693,0.010054
1886.0329,0.009896
1887.8966,0.009964
1889.7603,0.010202
1891.6240,0.009740
1893.4876,0.010056
1895.3513,0.010108
1897.2150,0.010185
1899.0786,0.010316
1900.9423,0.010432
1902.8060,0.009977
1904.6696,0.010135
1906.5333,0.010358
1908.3970,0.010423
1910.2606,0.010352
1912.1243,0.010279
1913.9880,0.009863
1915.8516,0.010298
1917.7153,0.010188
1919.5790,0.009670
1921.4427,0.009733
1923.3063,0.009900
1925.1700,0.010023
1927.0337,0.010206
1928.8973,0.009935
1930.7610,0.009984
1932.6247,0.009344
1934.4883,0.009226
1936.3520,0.009220
1938.2157,0.009239
1940.0793,0.008934
1941.9430,0.008821
1943.8067,0.008326
1945.6704,0.008673
1947.5340,0.008515
1949.3977,0.008227
1951.2614,0.007710
1953.1250,0.007734
1954.9887,0.007443
1956.8524,0.007379
1958.7160,0.006063
1960.5797,0.005839
1962.4434,0.005124
1964.3070,0.004265
1966.1707,0.003839
1968.0344,0.002844
1969.8980,0.001412
1971.7617,0.002886
1973.6254,0.002560
1975.4891,0.001578
1977.3527,0.002691
1979.2164,0.004865
1981.0801,0.005401
1982.9437,0.005747
1984.8074,0.005486
1986.6711,0.005545
1988.5347,0.005528
1990.3984,0.005702
1992.2621,0.005544
1994.1257,0.006223
1995.9894,0.006255
1997.8531,0.006124
1999.7167,0.005896
2001.5804,0.006260
2003.4441,0.005740
2005.3078,0.006468
2007.1714,0.005249
2009.0351,0.004135
2010.8988,0.004415
2012.7624,0.003994
2014.6261,0.002316
2016.4898,0.002403
2018.3534,0.002710
2020.2171,0.003446
2022.0808,0.002411
2023.9444,0.002661
2025.8081,0.003968
2027.6718,0.004678
2029.5355,0.003695
2031.3991,0.003326
2033.2628,0.002940
2035.1265,0.003944
2036.9901,0.003971
2038.8538,0.004392
2040.7175,0.004774
2042.5811,0.004875
2044.4448,0.005415
2046.3085,0.007100
2048.1721,0.006869
2050.0358,0.007802
2051.8995,0.008673
2053.7631,0.009032
2055.6268,0.008839
2057.4905,0.009311
2059.3542,0.009580
2061.2178,0.010237
2063.0815,0.009849
2064.9452,0.010126
2066.8088,0.010292
2068.6725,0.011057
2070.5362,0.010783
2072.3998,0.010044
2074.2635,0.010615
2076.1272,0.011342
2077.9908,0.011578
2079.8545,0.011489
2081.7182,0.011122
2083.5819,0.012041
2085.4455,0.012443
2087.3092,0.012298
2089.1729,0.011392
2091.0365,0.011451
2092.9002,0.011931
2094.7639,0.011896
2096.6275,0.011407
2098.4912,0.011532
2100.3549,0.012055
2102.2185,0.012134
2104.0822,0.011836
2105.9459,0.012415
2107.8095,0.012222
2109.6732,0.011974
2111.5369,0.012086
2113.4006,0.012561
2115.2642,0.012870
2117.1279,0.013124
2118.9916,0.013205
2120.8552,0.013088
2122.7189,0.012990
2124.5826,0.013732
2126.4462,0.013636
2128.3099,0.012689
2130.1736,0.011295
2132.0372,0.011091
2133.9009,0.010824
2135.7646,0.011234
2137.6282,0.010985
2139.4919,0.010317
2141.3556,0.010336
2143.2193,0.010908
2145.0829,0.009195
2146.9466,0.008338
2148.8103,0.006920
2150.6739,0.006321
2152.5376,0.006593
2154.4013,0.006036
2156.2649,0.004443
2158.1286,0.003896
2159.9923,0.004567
2161.8559,0.005301
2163.7196,0.004163
2165.5833,0.004505
2167.4470,0.005621
2169.3106,0.006857
2171.1743,0.007737
2173.0380,0.008772
2174.9016,0.008516
2176.7653,0.009144
2178.6290,0.008527
2180.4926,0.007292
2182.3563,0.006114
2184.2200,0.008052
2186.0836,0.009184
2187.9473,0.009519
2189.8110,0.009525
2191.6746,0.009400
2193.5383,0.009172
2195.4020,0.010721
2197.2657,0.010833
2199.1293,0.010949
2200.9930,0.011197
2202.8567,0.011485
2204.7203,0.011955
2206.5840,0.011977
2208.4477,0.011509
2210.3113,0.011955
2212.1750,0.011421
2214.0387,0.012161
2215.9023,0.012380
2217.7660,0.012049
2219.6297,0.012524
2221.4934,0.012885
2223.3570,0.012465
2225.2207,0.012791
2227.0844,0.012983
2228.9480,0.013261
2230.8117,0.013279
2232.6754,0.013428
2234.5390,0.013218
2236.4027,0.014421
2238.2664,0.015240
2240.1300,0.014659
2241.9937,0.014494
2243.8574,0.014833
2245.7210,0.014959
2247.5847,0.015093
2249.4484,0.015390
2251.3121,0.015652
2253.1757,0.015509
2255.0394,0.015808
2256.9031,0.016158
2258.7667,0.016297
2260.6304,0.016201
2262.4941,0.016636
2264.3577,0.016769
2266.2214,0.016244
2268.0851,0.017039
2269.9487,0.018317
2271.8124,0.018677
2273.6761,0.018950
2275.5397,0.018891
2277.4034,0.018623
2279.2671,0.018792
2281.1308,0.019505
2282.9944,0.020017
2284.8581,0.020172
2286.7218,0.020209
2288.5854,0.020030
2290.4491,0.019666
2292.3128,0.020047
2294.1764,0.020124
2296.0401,0.020407
2297.9038,0.020833
2299.7674,0.021047
2301.6311,0.020842
2303.4948,0.020607
2305.3585,0.020584
2307.2221,0.020755
2309.0858,0.020460
2310.9495,0.020540
2312.8131,0.020607
2314.6768,0.020377
2316.5405,0.020169
2318.4041,0.020253
2320.2678,0.020501
2322.1315,0.020578
2323.9951,0.020651
2325.8588,0.020591
2327.7225,0.019829
2329.5861,0.019459
2331.4498,0.019393
2333.3135,0.019254
2335.1772,0.019064
2337.0408,0.019160
2338.9045,0.019476
2340.7682,0.019810
2342.6318,0.019881
2344.4955,0.019790
2346.3592,0.019865
2348.2228,0.019726
2350.0865,0.019353
2351.9502,0.019198
2353.8138,0.019133
2355.6775,0.019269
2357.5412,0.019185
2359.4049,0.019321
2361.2685,0.019264
2363.1322,0.018950
2364.9959,0.018943
2366.8595,0.019052
2368.7232,0.019242
2370.5869,0.019616
2372.4505,0.019969
2374.3142,0.020464
2376.1779,0.020420
2378.0415,0.020346
2379.9052,0.020251
2381.7689,0.019853
2383.6325,0.019946
2385.4962,0.020392
2387.3599,0.020584
2389.2236,0.020570
2391.0872,0.020482
2392.9509,0.020581
2394.8146,0.020344
2396.6782,0.020503
2398.5419,0.020911
2400.4056,0.020985
2402.2692,0.020842
2404.1329,0.021027
2405.9966,0.021046
2407.8602,0.021173
2409.7239,0.021305
2411.5876,0.021326
2413.4512,0.021290
2415.3149,0.021311
2417.1786,0.021382
2419.0423,0.021337
2420.9059,0.021063
2422.7696,0.021208
2424.6333,0.021786
2426.4969,0.022031
2428.3606,0.021532
2430.2243,0.021493
2432.0879,0.021640
2433.9516,0.021793
2435.8153,0.021894
2437.6789,0.021921
2439.5426,0.022020
2441.4063,0.022305
2443.2700,0.022207
2445.1336,0.021936
2446.9973,0.021737
2448.8610,0.021911
2450.7246,0.021984
2452.5883,0.021697
2454.4520,0.021313
2456.3156,0.021406
2458.1793,0.021723
2460.0430,0.021782
2461.9066,0.021506
2463.7703,0.021162
2465.6340,0.021532
2467.4976,0.022012
2469.3613,0.021799
2471.2250,0.021548
2473.0887,0.021617
2474.9523,0.021722
2476.8160,0.021982
2478.6797,0.022456
2480.5433,0.022307
2482.4070,0.022014
2484.2707,0.022031
2486.1343,0.022258
2487.9980,0.022378
2489.8617,0.022322
2491.7253,0.022191
2493.5890,0.022804
2495.4527,0.023309
2497.3164,0.023215
2499.1800,0.023147
2501.0437,0.022949
2502.9074,0.022632
2504.7710,0.022908
2506.6347,0.023235
2508.4984,0.023473
2510.3620,0.023317
2512.2257,0.023108
2514.0894,0.023099
2515.9530,0.023645
2517.8167,0.024476
2519.6804,0.024531
2521.5440,0.024063
2523.4077,0.023809
2525.2714,0.023653
2527.1351,0.023661
2528.9987,0.023988
2530.8624,0.024207
2532.7261,0.024180
2534.5897,0.024336
2536.4534,0.024332
2538.3171,0.024691
2540.1807,0.024584
2542.0444,0.024166
2543.9081,0.024312
2545.7717,0.024646
2547.6354,0.024555
2549.4991,0.024426
2551.3627,0.024531
2553.2264,0.024891
2555.0901,0.025170
2556.9538,0.025516
2558.8174,0.025399
2560.6811,0.025260
2562.5448,0.025224
2564.4084,0.025268
2566.2721,0.025538
2568.1358,0.026002
2569.9994,0.026060
2571.8631,0.025747
2573.7268,0.025693
2575.5904,0.026138
2577.4541,0.026246
2579.3178,0.026034
2581.1815,0.026022
2583.0451,0.026248
2584.9088,0.026406
2586.7725,0.026722
2588.6361,0.027130
2590.4998,0.027311
2592.3635,0.027388
2594.2271,0.027647
2596.0908,0.027968
2597.9545,0.028197
2599.8181,0.028626
2601.6818,0.028925
2603.5455,0.028803
2605.4091,0.028981
2607.2728,0.029220
2609.1365,0.028978
2611.0002,0.029123
2612.8638,0.029462
2614.7275,0.029633
2616.5912,0.029940
2618.4548,0.029934
2620.3185,0.029945
2622.1822,0.030249
2624.0458,0.030607
2625.9095,0.030840
2627.7732,0.031055
2629.6368,0.031319
2631.5005,0.031598
2633.3642,0.031848
2635.2279,0.032110
2637.0915,0.032317
2638.9552,0.032374
2640.8189,0.032362
2642.6825,0.032666
2644.5462,0.032898
2646.4099,0.032905
2648.2735,0.033109
2650.1372,0.033423
2652.0009,0.033512
2653.8645,0.033669
2655.7282,0.033794
2657.5919,0.033815
2659.4555,0.033945
2661.3192,0.034085
2663.1829,0.034141
2665.0466,0.034241
2666.9102,0.034258
2668.7739,0.034372
2670.6376,0.034728
2672.5012,0.034984
2674.3649,0.035297
2676.2286,0.035373
2678.0922,0.035449
2679.9559,0.035939
2681.8196,0.036422
2683.6832,0.036635
2685.5469,0.036626
2687.4106,0.036790
2689.2742,0.036968
2691.1379,0.037236
2693.0016,0.037565
2694.8653,0.037770
2696.7289,0.038182
2698.5926,0.038691
2700.4563,0.039028
2702.3199,0.039158
2704.1836,0.039368
2706.0473,0.039656
2707.9109,0.039922
2709.7746,0.040203
2711.6383,0.040528
2713.5019,0.040640
2715.3656,0.040919
2717.2293,0.041498
2719.0930,0.041949
2720.9566,0.042021
2722.8203,0.042326
2724.6840,0.042885
2726.5476,0.043508
2728.4113,0.044137
2730.2750,0.044625
2732.1386,0.044951
2734.0023,0.045289
2735.8660,0.045885
2737.7296,0.046406
2739.5933,0.046999
2741.4570,0.047681
2743.3206,0.048171
2745.1843,0.048670
2747.0480,0.049269
2748.9117,0.050127
2750.7753,0.050885
2752.6390,0.051491
2754.5027,0.052102
2756.3663,0.052721
2758.2300,0.053450
2760.0937,0.054164
2761.9573,0.054668
2763.8210,0.055302
2765.6847,0.055871
2767.5483,0.056341
2769.4120,0.056995
2771.2757,0.057524
2773.1394,0.058109
2775.0030,0.059059
2776.8667,0.060058
2778.7304,0.060699
2780.5940,0.060964
2782.4577,0.061246
2784.3214,0.061551
2786.1850,0.061499
2788.0487,0.061272
2789.9124,0.061168
2791.7760,0.060893
2793.6397,0.060361
2795.5034,0.059667
2797.3670,0.058993
2799.2307,0.058521
2801.0944,0.058346
2802.9581,0.057935
2804.8217,0.057375
2806.6854,0.056707
2808.5491,0.056154
2810.4127,0.055782
2812.2764,0.055611
2814.1401,0.055372
2816.0037,0.055136
2817.8674,0.055173
2819.7311,0.055550
2821.5947,0.055679
2823.4584,0.055508
2825.3221,0.055555
2827.1857,0.055597
2829.0494,0.055408
2830.9131,0.055106
2832.7768,0.054813
2834.6404,0.054707
2836.5041,0.054763
2838.3678,0.055189
2840.2314,0.055565
2842.0951,0.055707
2843.9588,0.055937
2845.8224,0.056765
2847.6861,0.057524
2849.5498,0.058254
2851.4134,0.059034
2853.2771,0.059881
2855.1408,0.060435
2857.0045,0.060810
2858.8681,0.061260
2860.7318,0.061826
2862.5955,0.062520
2864.4591,0.062865
2866.3228,0.062784
2868.1865,0.063125
2870.0501,0.063655
2871.9138,0.064000
2873.7775,0.064298
2875.6411,0.064754
2877.5048,0.065420
2879.3685,0.066151
2881.2321,0.066803
2883.0958,0.067411
2884.9595,0.067919
2886.8232,0.068460
2888.6868,0.069089
2890.5505,0.069973
2892.4142,0.070736
2894.2778,0.071401
2896.1415,0.071889
2898.0052,0.072318
2899.8688,0.072521
2901.7325,0.072379
2903.5962,0.072208
2905.4598,0.072550
2907.3235,0.073079
2909.1872,0.073819
2911.0509,0.074237
2912.9145,0.074787
2914.7782,0.075913
2916.6419,0.076954
2918.5055,0.077676
2920.3692,0.078176
2922.2329,0.078897
2924.0965,0.079809
2925.9602,0.080429
2927.8239,0.081213
2929.6875,0.082009
2931.5512,0.083163
2933.4149,0.084276
2935.2785,0.084772
2937.1422,0.084794
2939.0059,0.084928
2940.8696,0.085621
2942.7332,0.086107
2944.5969,0.086164
2946.4606,0.086552
2948.3242,0.087017
2950.1879,0.087275
2952.0516,0.087799
2953.9152,0.088601
2955.7789,0.088861
2957.6426,0.089308
2959.5062,0.090066
2961.3699,0.090758
2963.2336,0.091823
2965.0972,0.093251
2966.9609,0.094361
2968.8246,0.095331
2970.6883,0.096199
2972.5519,0.096912
2974.4156,0.097081
2976.2793,0.097217
2978.1429,0.097849
2980.0066,0.098711
2981.8703,0.099250
2983.7339,0.099732
2985.5976,0.099853
2987.4613,0.100053
2989.3249,0.100429
2991.1886,0.101024
2993.0523,0.101891
2994.9160,0.103189
2996.7796,0.104511
2998.6433,0.105396
3000.5070,0.105965
3002.3706,0.106783
3004.2343,0.107526
3006.0980,0.108420
3007.9616,0.109744
3009.8253,0.110940
3011.6890,0.111605
3013.5526,0.112506
3015.4163,0.113514
3017.2800,0.114465
3019.1436,0.115161
3021.0073,0.116002
3022.8710,0.116370
3024.7347,0.116629
3026.5983,0.117111
3028.4620,0.117581
3030.3257,0.117851
3032.1893,0.118291
3034.0530,0.118864
3035.9167,0.119541
3037.7803,0.119937
3039.6440,0.120336
3041.5077,0.120681
3043.3713,0.120971
3045.2350,0.121180
3047.0987,0.121618
3048.9624,0.121886
3050.8260,0.122358
3052.6897,0.122496
3054.5534,0.122494
3056.4170,0.122805
3058.2807,0.122955
3060.1444,0.122734
3062.0080,0.122960
3063.8717,0.123214
3065.7354,0.123166
3067.5990,0.123059
3069.4627,0.123307
3071.3264,0.123108
3073.1900,0.122551
3075.0537,0.122035
3076.9174,0.121815
3078.7811,0.121654
3080.6447,0.121651
3082.5084,0.121554
3084.3721,0.121130
3086.2357,0.120228
3088.0994,0.119469
3089.9631,0.118514
3091.8267,0.117724
3093.6904,0.117094
3095.5541,0.116184
3097.4177,0.115120
3099.2814,0.114394
3101.1451,0.113752
3103.0087,0.112658
3104.8724,0.110741
3106.7361,0.109348
3108.5998,0.108863
3110.4634,0.108156
3112.3271,0.106918
3114.1908,0.105640
3116.0544,0.104445
3117.9181,0.103467
3119.7818,0.102615
3121.6454,0.101794
3123.5091,0.100716
3125.3728,0.099712
3127.2364,0.098879
3129.1001,0.098095
3130.9638,0.096914
3132.8275,0.096176
3134.6911,0.095768
3136.5548,0.094912
3138.4185,0.094016
3140.2821,0.093312
3142.1458,0.093068
3144.0095,0.092910
3145.8731,0.092162
3147.7368,0.091022
3149.6005,0.090456
3151.4641,0.090489
3153.3278,0.090150
3155.1915,0.089531
3157.0551,0.089017
3158.9188,0.088224
3160.7825,0.087184
3162.6462,0.086830
3164.5098,0.086292
3166.3735,0.085296
3168.2372,0.084738
3170.1008,0.084496
3171.9645,0.084104
3173.8282,0.083728
3175.6918,0.083199
3177.5555,0.082641
3179.4192,0.082375
3181.2828,0.082753
3183.1465,0.082569
3185.0102,0.081937
3186.8739,0.081400
3188.7375,0.081207
3190.6012,0.081369
3192.4649,0.081329
3194.3285,0.080972
3196.1922,0.080813
3198.0559,0.081301
3199.9195,0.081533
3201.7832,0.081060
3203.6469,0.080907
3205.5105,0.081300
3207.3742,0.081368
3209.2379,0.081164
3211.1015,0.081535
3212.9652,0.081442
3214.8289,0.080956
3216.6926,0.080878
3218.5562,0.081310
3220.4199,0.081331
3222.2836,0.080950
3224.1472,0.080921
3226.0109,0.081036
3227.8746,0.080850
3229.7382,0.081007
3231.6019,0.081260
3233.4656,0.081296
3235.3292,0.081958
3237.1929,0.082649
3239.0566,0.082067
3240.9202,0.081687
3242.7839,0.082438
3244.6476,0.082662
3246.5113,0.082469
3248.3749,0.083087
3250.2386,0.083470
3252.1023,0.083330
3253.9659,0.083797
3255.8296,0.084722
3257.6933,0.085412
3259.5569,0.085929
3261.4206,0.085717
3263.2843,0.085027
3265.1479,0.085028
3267.0116,0.085824
3268.8753,0.086434
3270.7390,0.086522
3272.6026,0.086587
3274.4663,0.086630
3276.3300,0.086430
3278.1936,0.086058
3280.0573,0.085819
3281.9210,0.085828
3283.7846,0.085179
3285.6483,0.084616
3287.5120,0.084247
3289.3756,0.083539
3291.2393,0.082639
3293.1030,0.081807
3294.9666,0.080793
3296.8303,0.079871
3298.6940,0.078954
3300.5577,0.078068
3302.4213,0.077031
3304.2850,0.075728
3306.1487,0.075283
3308.0123,0.075021
3309.8760,0.073613
3311.7397,0.073100
3313.6033,0.073439
3315.4670,0.073192
3317.3307,0.073127
3319.1943,0.073541
3321.0580,0.073682
3322.9217,0.073657
3324.7854,0.073886
3326.6490,0.074189
3328.5127,0.074279
3330.3764,0.074270
3332.2400,0.073935
3334.1037,0.073887
3335.9674,0.074020
3337.8310,0.073573
3339.6947,0.072746
3341.5584,0.071758
3343.4220,0.070425
3345.2857,0.068869
3347.1494,0.067045
3349.0130,0.065369
3350.8767,0.064544
3352.7404,0.063716
3354.6041,0.062690
3356.4677,0.061929
3358.3314,0.060426
3360.1951,0.058736
3362.0587,0.057588
3363.9224,0.056631
3365.7861,0.055937
3367.6497,0.055753
3369.5134,0.055831
3371.3771,0.055847
3373.2407,0.055930
3375.1044,0.055602
3376.9681,0.055251
3378.8317,0.055213
3380.6954,0.055051
3382.5591,0.055738
3384.4228,0.056196
3386.2864,0.056223
3388.1501,0.056798
3390.0138,0.056605
3391.8774,0.056610
3393.7411,0.057848
3395.6048,0.058463
3397.4684,0.058311
3399.3321,0.058622
3401.1958,0.059129
3403.0594,0.058340
3404.9231,0.056809
3406.7868,0.055099
3408.6505,0.052789
3410.5141,0.051972
3412.3778,0.051699
3414.2415,0.050157
3416.1051,0.048171
3417.9688,0.045929
3419.8325,0.043997
3421.6961,0.042231
3423.5598,0.040949
3425.4235,0.040025
3427.2871,0.038367
3429.1508,0.037095
3431.0145,0.036674
3432.8781,0.035113
3434.7418,0.033526
3436.6055,0.032797
3438.4692,0.031212
3440.3328,0.029688
3442.1965,0.029712
3444.0602,0.030459
3445.9238,0.029677
3447.7875,0.028332
3449.6512,0.027196
3451.5148,0.025967
3453.3785,0.026227
3455.2422,0.027105
3457.1058,0.026825
3458.9695,0.025611
3460.8332,0.025047
3462.6969,0.024730
3464.5605,0.023786
3466.4242,0.023056
3468.2879,0.022945
3470.1515,0.023762
3472.0152,0.024123
3473.8789,0.023064
3475.7425,0.022042
3477.6062,0.020874
3479.4699,0.019423
3481.3335,0.018864
3483.1972,0.018794
3485.0609,0.018573
3486.9245,0.018858
3488.7882,0.019008
3490.6519,0.017919
3492.5156,0.016961
3494.3792,0.017221
3496.2429,0.017727
3498.1066,0.017433
3499.9702,0.016047
3501.8339,0.014745
3503.6976,0.014368
3505.5612,0.014462
3507.4249,0.014807
3509.2886,0.014080
3511.1522,0.012785
3513.0159,0.012327
3514.8796,0.012420
3516.7432,0.012690
3518.6069,0.013098
3520.4706,0.013361
3522.3343,0.012509
3524.1979,0.011576
3526.0616,0.010816
3527.9253,0.009591
3529.7889,0.009291
3531.6526,0.010148
3533.5163,0.011356
3535.3799,0.011655
3537.2436,0.009886
3539.1073,0.009025
3540.9709,0.009818
3542.8346,0.008679
3544.6983,0.007595
3546.5620,0.008517
3548.4256,0.009457
3550.2893,0.009652
3552.1530,0.008625
3554.0166,0.008073
3555.8803,0.008710
3557.7440,0.008759
3559.6076,0.008559
3561.4713,0.008121
3563.3350,0.007415
3565.1986,0.007000
3567.0623,0.006908
3568.9260,0.007041
3570.7896,0.007029
3572.6533,0.008078
3574.5170,0.009150
3576.3807,0.008991
3578.2443,0.008410
3580.1080,0.007611
3581.9717,0.006610
3583.8353,0.006737
3585.6990,0.007329
3587.5627,0.007526
3589.4263,0.007156
3591.2900,0.007067
3593.1537,0.007903
3595.0173,0.008341
3596.8810,0.007630
3598.7447,0.006873
3600.6084,0.007345
3602.4720,0.007737
3604.3357,0.007671
3606.1994,0.008000
3608.0630,0.007368
3609.9267,0.006066
3611.7904,0.006353
3613.6540,0.007560
3615.5177,0.007622
3617.3814,0.006712
3619.2450,0.007013
3621.1087,0.007109
3622.9724,0.006654
3624.8360,0.007331
3626.6997,0.007549
3628.5634,0.006727
3630.4271,0.005757
3632.2907,0.005982
3634.1544,0.006902
3636.0181,0.007796
3637.8817,0.008116
3639.7454,0.007664
3641.6091,0.007640
3643.4727,0.008095
3645.3364,0.007848
3647.2001,0.006555
3649.0637,0.005640
3650.9274,0.006446
3652.7911,0.006729
3654.6547,0.007338
3656.5184,0.008154
3658.3821,0.008374
3660.2458,0.008226
3662.1094,0.008402
3663.9731,0.008799
3665.8368,0.008910
3667.7004,0.008952
3669.5641,0.008956
3671.4278,0.008326
3673.2914,0.008507
3675.1551,0.010177
3677.0188,0.010121
3678.8824,0.008314
3680.7461,0.008136
3682.6098,0.007997
3684.4735,0.007585
3686.3371,0.007221
3688.2008,0.006891
3690.0645,0.006248
3691.9281,0.005821
3693.7918,0.007009
3695.6555,0.008748
3697.5191,0.009189
3699.3828,0.008566
3701.2465,0.008410
3703.1101,0.008070
3704.9738,0.007825
3706.8375,0.008416
3708.7011,0.008290
3710.5648,0.007572
3712.4285,0.007266
3714.2922,0.006927
3716.1558,0.006922
3718.0195,0.007449
3719.8832,0.007996
3721.7468,0.008712
3723.6105,0.009076
3725.4742,0.008411
3727.3378,0.008283
3729.2015,0.008541
3731.0652,0.007930
3732.9288,0.007494
3734.7925,0.007054
3736.6562,0.006095
3738.5199,0.006153
3740.3835,0.006842
3742.2472,0.007376
3744.1109,0.007305
3745.9745,0.006244
3747.8382,0.006024
3749.7019,0.006722
3751.5655,0.007307
3753.4292,0.007621
3755.2929,0.007736
3757.1565,0.008401
3759.0202,0.008782
3760.8839,0.008805
3762.7475,0.009790
3764.6112,0.010010
3766.4749,0.008877
3768.3386,0.008825
3770.2022,0.009604
3772.0659,0.009537
3773.9296,0.009635
3775.7932,0.009673
3777.6569,0.009530
3779.5206,0.009510
3781.3842,0.009581
3783.2479,0.010252
3785.1116,0.010382
3786.9752,0.009493
3788.8389,0.009027
3790.7026,0.009245
3792.5662,0.009437
3794.4299,0.009794
3796.2936,0.009689
3798.1573,0.008916
3800.0209,0.008933
3801.8846,0.008838
3803.7483,0.008189
3805.6119,0.008731
3807.4756,0.009615
3809.3393,0.009451
3811.2029,0.009031
3813.0666,0.009207
3814.9303,0.009416
3816.7939,0.009135
3818.6576,0.008420
3820.5213,0.008938
3822.3850,0.009944
3824.2486,0.009896
3826.1123,0.009780
3827.9760,0.009877
3829.8396,0.009794
3831.7033,0.009801
3833.5670,0.009571
3835.4306,0.009232
3837.2943,0.009348
3839.1580,0.009328
3841.0216,0.009395
3842.8853,0.009542
3844.7490,0.009345
3846.6126,0.009151
3848.4763,0.009677
3850.3400,0.009761
3852.2037,0.009331
3854.0673,0.009361
3855.9310,0.008541
3857.7947,0.007906
3859.6583,0.008735
3861.5220,0.009704
3863.3857,0.010136
3865.2493,0.010107
3867.1130,0.009980
3868.9767,0.009598
3870.8403,0.009501
3872.7040,0.009588
3874.5677,0.010055
3876.4314,0.010332
3878.2950,0.010070
3880.1587,0.009863
3882.0224,0.009590
3883.8860,0.009841
3885.7497,0.010242
3887.6134,0.010115
3889.4770,0.009784
3891.3407,0.010067
3893.2044,0.010552
3895.0680,0.010441
3896.9317,0.010401
3898.7954,0.010350
3900.6590,0.010017
3902.5227,0.010586
3904.3864,0.010907
3906.2501,0.010963
3908.1137,0.011052
3909.9774,0.011181
3911.8411,0.011312
3913.7047,0.011490
3915.5684,0.011672
3917.4321,0.011271
3919.2957,0.010758
3921.1594,0.010542
3923.0231,0.010601
3924.8867,0.010796
3926.7504,0.011037
3928.6141,0.011331
3930.4777,0.011079
3932.3414,0.010956
3934.2051,0.011387
3936.0688,0.011007
3937.9324,0.010660
3939.7961,0.011212
3941.6598,0.011901
3943.5234,0.011528
3945.3871,0.010973
3947.2508,0.011191
3949.1144,0.011689
3950.9781,0.011919
3952.8418,0.011898
3954.7054,0.011275
3956.5691,0.010807
3958.4328,0.011267
3960.2965,0.011712
3962.1601,0.011799
3964.0238,0.011553
3965.8875,0.011463
3967.7511,0.011738
3969.6148,0.012099
3971.4785,0.011780
3973.3421,0.011548
3975.2058,0.012018
3977.0695,0.012223
3978.9331,0.011765
3980.7968,0.011535
3982.6605,0.011957
3984.5241,0.011970
3986.3878,0.011826
3988.2515,0.011651
3990.1152,0.011638
3991.9788,0.011512
3993.8425,0.011473
3995.7062,0.011610
3997.5698,0.011689
3999.4335,0.012208
