Wavenumber,Intensity
650.4205,0.221793
652.2841,0.236868
654.1478,0.252481
656.0115,0.265388
657.8751,0.281964
659.7388,0.298656
661.6025,0.318653
663.4661,0.338494
665.3298,0.356176
667.1935,0.366090
669.0571,0.360611
670.9208,0.334213
672.7845,0.308668
674.6481,0.286023
676.5118,0.269284
678.3755,0.259619
680.2392,0.255351
682.1028,0.246445
683.9665,0.232457
685.8302,0.215243
687.6938,0.199628
689.5575,0.187628
691.4212,0.177526
693.2848,0.167848
695.1485,0.159012
697.0122,0.151864
698.8758,0.149029
700.7395,0.147725
702.6032,0.145872
704.4669,0.145139
706.3305,0.143474
708.1942,0.138545
710.0579,0.133265
711.9215,0.128273
713.7852,0.124213
715.6489,0.120627
717.5125,0.118078
719.3762,0.117389
721.2399,0.117350
723.1035,0.117585
724.9672,0.118857
726.8309,0.120916
728.6945,0.124903
730.5582,0.131014
732.4219,0.140495
734.2856,0.155578
736.1492,0.180892
738.0129,0.217245
739.8766,0.252057
741.7402,0.271533
743.6039,0.255564
745.4676,0.192204
747.3312,0.138745
749.1949,0.120135
751.0586,0.113100
752.9222,0.111405
754.7859,0.105130
756.6496,0.090437
758.5132,0.082082
760.3769,0.081498
762.2406,0.084577
764.1043,0.090949
765.9679,0.097845
767.8316,0.099184
769.6953,0.095136
771.5589,0.092399
773.4226,0.093597
775.2863,0.097040
777.1499,0.101279
779.0136,0.104679
780.8773,0.106170
782.7409,0.105858
784.6046,0.106233
786.4683,0.108204
788.3320,0.110924
790.1956,0.113618
792.0593,0.115927
793.9230,0.118479
795.7866,0.121913
797.6503,0.126115
799.5140,0.131865
801.3776,0.137684
803.2413,0.139183
805.1050,0.136270
806.9686,0.133945
808.8323,0.132591
810.6960,0.132009
812.5596,0.131804
814.4233,0.131502
816.2870,0.131517
818.1507,0.132030
820.0143,0.132722
821.8780,0.133818
823.7417,0.135779
825.6053,0.138735
827.4690,0.142596
829.3327,0.146220
831.1963,0.146199
833.0600,0.142560
834.9237,0.139912
836.7873,0.140636
838.6510,0.141931
840.5147,0.142524
842.3784,0.144623
844.2420,0.150831
846.1057,0.160320
847.9694,0.168300
849.8330,0.169371
851.6967,0.164611
853.5604,0.164509
855.4240,0.171380
857.2877,0.175752
859.1514,0.175151
861.0150,0.175556
862.8787,0.179467
864.7424,0.182081
866.6060,0.179333
868.4697,0.174033
870.3334,0.171818
872.1971,0.174143
874.0607,0.178570
875.9244,0.181538
877.7881,0.181394
879.6517,0.180427
881.5154,0.182059
883.3791,0.184730
885.2427,0.186550
887.1064,0.188107
888.9701,0.190104
890.8337,0.192495
892.6974,0.195388
894.5611,0.198504
896.4247,0.202067
898.2884,0.205432
900.1521,0.208643
902.0158,0.212521
903.8794,0.217384
905.7431,0.223099
907.6068,0.229406
909.4704,0.236108
911.3341,0.244303
913.1978,0.254132
915.0614,0.262427
916.9251,0.263440
918.7888,0.257689
920.6524,0.250002
922.5161,0.243877
924.3798,0.241029
926.2435,0.241562
928.1071,0.243059
929.9708,0.243776
931.8345,0.244108
933.6981,0.245719
935.5618,0.248803
937.4255,0.252447
939.2891,0.255975
941.1528,0.259547
943.0165,0.262955
944.8801,0.266491
946.7438,0.270273
948.6075,0.273955
950.4711,0.277312
952.3348,0.281171
954.1985,0.285378
956.0622,0.289632
957.9258,0.294055
959.7895,0.298829
961.6532,0.303540
963.5168,0.307701
965.3805,0.311057
967.2442,0.314911
969.1078,0.320181
970.9715,0.326471
972.8352,0.333159
974.6988,0.341747
976.5625,0.353234
978.4262,0.368631
980.2899,0.385516
982.1535,0.390309
984.0172,0.372629
985.8809,0.352717
987.7445,0.345561
989.6082,0.344968
991.4719,0.345519
993.3355,0.347974
995.1992,0.351690
997.0629,0.355846
998.9265,0.360055
1000.7902,0.364530
1002.6539,0.369758
1004.5175,0.375665
1006.3812,0.378199
1008.2449,0.373914
1010.1086,0.365973
1011.9722,0.358796
1013.8359,0.351975
1015.6996,0.343917
1017.5632,0.333478
1019.4269,0.320622
1021.2906,0.306084
1023.1542,0.290942
1025.0179,0.275770
1026.8816,0.261553
1028.7452,0.248471
1030.6089,0.236495
1032.4726,0.225489
1034.3362,0.215510
1036.1999,0.206645
1038.0636,0.198453
1039.9273,0.190895
1041.7909,0.184347
1043.6546,0.178307
1045.5183,0.172587
1047.3819,0.167100
1049.2456,0.161281
1051.1093,0.154375
1052.9729,0.146818
1054.8366,0.140381
1056.7003,0.136110
1058.5639,0.133820
1060.4276,0.132569
1062.2913,0.131185
1064.1550,0.130045
1066.0186,0.129553
1067.8823,0.128588
1069.7460,0.127594
1071.6096,0.128523
1073.4733,0.131465
1075.3370,0.134166
1077.2006,0.133395
1079.0643,0.129634
1080.9280,0.126763
1082.7916,0.126256
1084.6553,0.127232
1086.5190,0.129168
1088.3826,0.131781
1090.2463,0.134913
1092.1100,0.138706
1093.9737,0.143018
1095.8373,0.147157
1097.7010,0.149818
1099.5647,0.150141
1101.4283,0.148553
1103.2920,0.145410
1105.1557,0.141006
1107.0193,0.136565
1108.8830,0.132480
1110.7467,0.128137
1112.6103,0.123411
1114.4740,0.118092
1116.3377,0.111849
1118.2014,0.105093
1120.0650,0.099098
1121.9287,0.094713
1123.7924,0.092055
1125.6560,0.090877
1127.5197,0.090406
1129.3834,0.089833
1131.2470,0.088393
1133.1107,0.086160
1134.9744,0.084279
1136.8380,0.083481
1138.7017,0.083929
1140.5654,0.085378
1142.4290,0.086790
1144.2927,0.086417
1146.1564,0.083742
1148.0201,0.079995
1149.8837,0.076937
1151.7474,0.076347
1153.6111,0.078648
1155.4747,0.081114
1157.3384,0.080234
1159.2021,0.076199
1161.0657,0.071772
1162.9294,0.068300
1164.7931,0.065699
1166.6567,0.064276
1168.5204,0.064155
1170.3841,0.064969
1172.2477,0.066035
1174.1114,0.066225
1175.9751,0.064882
1177.8388,0.062735
1179.7024,0.060940
1181.5661,0.059971
1183.4298,0.059562
1185.2934,0.059702
1187.1571,0.060281
1189.0208,0.060733
1190.8844,0.060909
1192.7481,0.060868
1194.6118,0.060701
1196.4754,0.060720
1198.3391,0.061126
1200.2028,0.061884
1202.0665,0.062666
1203.9301,0.063431
1205.7938,0.064054
1207.6575,0.064321
1209.5211,0.064386
1211.3848,0.064720
1213.2485,0.065351
1215.1121,0.066226
1216.9758,0.067490
1218.8395,0.068982
1220.7031,0.070525
1222.5668,0.072774
1224.4305,0.076445
1226.2941,0.081556
1228.1578,0.086046
1230.0215,0.086641
1231.8852,0.081330
1233.7488,0.072281
1235.6125,0.065574
1237.4762,0.063646
1239.3398,0.064438
1241.2035,0.065997
1243.0672,0.067763
1244.9308,0.069462
1246.7945,0.070821
1248.6582,0.072209
1250.5218,0.073125
1252.3855,0.072727
1254.2492,0.071796
1256.1129,0.071162
1257.9765,0.070811
1259.8402,0.070972
1261.7039,0.071600
1263.5675,0.072415
1265.4312,0.073404
1267.2949,0.074458
1269.1585,0.075525
1271.0222,0.076858
1272.8859,0.078306
1274.7495,0.079697
1276.6132,0.080927
1278.4769,0.081569
1280.3405,0.081601
1282.2042,0.081612
1284.0679,0.082164
1285.9316,0.083530
1287.7952,0.085968
1289.6589,0.089485
1291.5226,0.093487
1293.3862,0.096666
1295.2499,0.098204
1297.1136,0.099865
1298.9772,0.103372
1300.8409,0.108541
1302.7046,0.114116
1304.5682,0.118226
1306.4319,0.119392
1308.2956,0.116226
1310.1592,0.109099
1312.0229,0.102873
1313.8866,0.100754
1315.7503,0.099119
1317.6139,0.094490
1319.4776,0.089716
1321.3413,0.088522
1323.2049,0.090805
1325.0686,0.094950
1326.9323,0.099319
1328.7959,0.103328
1330.6596,0.107700
1332.5233,0.113120
1334.3869,0.118853
1336.2506,0.123504
1338.1143,0.126246
1339.9780,0.126745
1341.8416,0.125080
1343.7053,0.125719
1345.5690,0.131817
1347.4326,0.141789
1349.2963,0.151646
1351.1600,0.155290
1353.0236,0.154190
1354.8873,0.156575
1356.7510,0.157112
1358.6146,0.143297
1360.4783,0.119913
1362.3420,0.101213
1364.2056,0.093151
1366.0693,0.091720
1367.9330,0.093507
1369.7967,0.096792
1371.6603,0.099766
1373.5240,0.104706
1375.3877,0.111120
1377.2513,0.115275
1379.1150,0.119937
1380.9787,0.125861
1382.8423,0.131487
1384.7060,0.137236
1386.5697,0.145719
1388.4333,0.156749
1390.2970,0.162773
1392.1607,0.166811
1394.0244,0.172611
1395.8880,0.177720
1397.7517,0.178097
1399.6154,0.177238
1401.4790,0.175205
1403.3427,0.172673
1405.2064,0.169784
1407.0700,0.163061
1408.9337,0.153430
1410.7974,0.143715
1412.6610,0.135163
1414.5247,0.127166
1416.3884,0.119072
1418.2520,0.112565
1420.1157,0.109229
1421.9794,0.104475
1423.8431,0.094475
1425.7067,0.080812
1427.5704,0.070477
1429.4341,0.064065
1431.2977,0.061192
1433.1614,0.060550
1435.0251,0.061611
1436.8887,0.066047
1438.7524,0.069247
1440.6161,0.069929
1442.4797,0.072853
1444.3434,0.077583
1446.2071,0.083911
1448.0707,0.091837
1449.9344,0.095017
1451.7981,0.094128
1453.6618,0.097949
1455.5254,0.107456
1457.3891,0.109311
1459.2528,0.086394
1461.1164,0.070990
1462.9801,0.064664
1464.8438,0.064015
1466.7074,0.064503
1468.5711,0.062935
1470.4348,0.062001
1472.2984,0.064363
1474.1621,0.068244
1476.0258,0.068874
1477.8895,0.069189
1479.7531,0.069607
1481.6168,0.071377
1483.4805,0.073440
1485.3441,0.074596
1487.2078,0.075969
1489.0715,0.077528
1490.9351,0.078964
1492.7988,0.077680
1494.6625,0.076632
1496.5261,0.079767
1498.3898,0.084273
1500.2535,0.084804
1502.1171,0.083286
1503.9808,0.081633
1505.8445,0.084741
1507.7082,0.099276
1509.5718,0.099746
1511.4355,0.097057
1513.2992,0.096761
1515.1628,0.097134
1517.0265,0.099569
1518.8902,0.100854
1520.7538,0.102544
1522.6175,0.107601
1524.4812,0.107685
1526.3448,0.109082
1528.2085,0.111189
1530.0722,0.110397
1531.9359,0.110899
1533.7995,0.114966
1535.6632,0.115296
1537.5269,0.112360
1539.3905,0.116076
1541.2542,0.128798
1543.1179,0.131304
1544.9815,0.133309
1546.8452,0.134771
1548.7089,0.136067
1550.5725,0.140919
1552.4362,0.144160
1554.2999,0.145315
1556.1635,0.147021
1558.0272,0.152509
1559.8909,0.173148
1561.7546,0.170323
1563.6182,0.166997
1565.4819,0.170178
1567.3456,0.173966
1569.2092,0.179290
1571.0729,0.185982
1572.9366,0.185602
1574.8002,0.186569
1576.6639,0.194418
1578.5276,0.198107
1580.3912,0.196817
1582.2549,0.196976
1584.1186,0.196770
1585.9822,0.195182
1587.8459,0.192437
1589.7096,0.189091
1591.5733,0.185135
1593.4369,0.180918
1595.3006,0.176627
1597.1643,0.172086
1599.0279,0.167229
1600.8916,0.162663
1602.7553,0.158518
1604.6189,0.154339
1606.4826,0.150244
1608.3463,0.146564
1610.2099,0.142823
1612.0736,0.138619
1613.9373,0.134180
1615.8010,0.129992
1617.6646,0.124195
1619.5283,0.117384
1621.3920,0.111978
1623.2556,0.107339
1625.1193,0.103327
1626.9830,0.099574
1628.8466,0.095301
1630.7103,0.090715
1632.5740,0.086476
1634.4376,0.083352
1636.3013,0.083374
1638.1650,0.083890
1640.0286,0.083079
1641.8923,0.083364
1643.7560,0.084615
1645.6197,0.087430
1647.4833,0.093992
1649.3470,0.097391
1651.2107,0.097492
1653.0743,0.104735
1654.9380,0.116778
1656.8017,0.114719
1658.6653,0.113577
1660.5290,0.113409
1662.3927,0.112541
1664.2563,0.109710
1666.1200,0.104328
1667.9837,0.097752
1669.8474,0.088905
1671.7110,0.079396
1673.5747,0.072582
1675.4384,0.066907
1677.3020,0.062729
1679.1657,0.060406
1681.0294,0.059478
1682.8930,0.059653
1684.7567,0.062098
1686.6204,0.062904
1688.4840,0.061307
1690.3477,0.060143
1692.2114,0.058190
1694.0750,0.055762
1695.9387,0.053263
1697.8024,0.051482
1699.6661,0.049531
1701.5297,0.047511
1703.3934,0.044243
1705.2571,0.040516
1707.1207,0.036522
1708.9844,0.033111
1710.8481,0.030274
1712.7117,0.027813
1714.5754,0.025739
1716.4391,0.024662
1718.3027,0.024751
1720.1664,0.024529
1722.0301,0.023311
1723.8937,0.022543
1725.7574,0.021667
1727.6211,0.020414
1729.4848,0.019215
1731.3484,0.018228
1733.2121,0.017406
1735.0758,0.018142
1736.9394,0.017821
1738.8031,0.016563
1740.6668,0.016624
1742.5304,0.016590
1744.3941,0.016238
1746.2578,0.015742
1748.1214,0.015269
1749.9851,0.015596
1751.8488,0.016304
1753.7125,0.016357
1755.5761,0.015726
1757.4398,0.015795
1759.3035,0.015883
1761.1671,0.015700
1763.0308,0.016413
1764.8945,0.016453
1766.7581,0.015847
1768.6218,0.015764
1770.4855,0.015819
1772.3491,0.016015
1774.2128,0.016596
1776.0765,0.015947
1777.9401,0.015606
1779.8038,0.015644
1781.6675,0.015976
1783.5312,0.015859
1785.3948,0.015850
1787.2585,0.015908
1789.1222,0.015560
1790.9858,0.015441
1792.8495,0.016274
1794.7132,0.016840
1796.5768,0.016639
1798.4405,0.016649
1800.3042,0.016890
1802.1678,0.017294
1804.0315,0.017352
1805.8952,0.017213
1807.7589,0.017134
1809.6225,0.017231
1811.4862,0.017483
1813.3499,0.017457
1815.2135,0.017101
1817.0772,0.016988
1818.9409,0.017209
1820.8045,0.017344
1822.6682,0.017121
1824.5319,0.016795
1826.3955,0.016985
1828.2592,0.016978
1830.1229,0.017174
1831.9865,0.017594
1833.8502,0.017129
1835.7139,0.016914
1837.5776,0.017017
1839.4412,0.017064
1841.3049,0.016829
1843.1686,0.016928
1845.0322,0.017818
1846.8959,0.017991
1848.7596,0.017736
1850.6232,0.017914
1852.4869,0.017557
1854.3506,0.017404
1856.2142,0.017552
1858.0779,0.017537
1859.9416,0.017353
1861.8052,0.017320
1863.6689,0.017074
1865.5326,0.016949
1867.3963,0.016966
1869.2599,0.017437
1871.1236,0.017898
1872.9873,0.017616
1874.8509,0.017490
1876.7146,0.017967
1878.5783,0.018351
1880.4419,0.018483
1882.3056,0.018541
1884.1693,0.018688
1886.0329,0.018525
1887.8966,0.017918
1889.7603,0.017715
1891.6240,0.017729
1893.4876,0.017342
1895.3513,0.017402
1897.2150,0.017508
1899.0786,0.017343
1900.9423,0.017261
1902.8060,0.017469
1904.6696,0.017427
1906.5333,0.017264
1908.3970,0.017223
1910.2606,0.017654
1912.1243,0.017934
1913.9880,0.017666
1915.8516,0.017922
1917.7153,0.018935
1919.5790,0.019283
1921.4427,0.018265
1923.3063,0.017612
1925.1700,0.017511
1927.0337,0.017133
1928.8973,0.016928
1930.7610,0.016594
1932.6247,0.016141
1934.4883,0.016078
1936.3520,0.015931
1938.2157,0.015380
1940.0793,0.015111
1941.9430,0.015398
1943.8067,0.015770
1945.6704,0.014962
1947.5340,0.014875
1949.3977,0.014601
1951.2614,0.013997
1953.1250,0.014124
1954.9887,0.014312
1956.8524,0.013370
1958.7160,0.011866
1960.5797,0.010357
1962.4434,0.009989
1964.3070,0.011142
1966.1707,0.011182
1968.0344,0.009738
1969.8980,0.009359
1971.7617,0.008911
1973.6254,0.007819
1975.4891,0.007347
1977.3527,0.007706
1979.2164,0.009093
1981.0801,0.009722
1982.9437,0.009466
1984.8074,0.009885
1986.6711,0.011246
1988.5347,0.011976
1990.3984,0.011372
1992.2621,0.010786
1994.1257,0.010848
1995.9894,0.012264
1997.8531,0.013198
1999.7167,0.012484
2001.5804,0.012151
2003.4441,0.011636
2005.3078,0.010693
2007.1714,0.010410
2009.0351,0.009819
2010.8988,0.010038
2012.7624,0.009420
2014.6261,0.008312
2016.4898,0.008500
2018.3534,0.008800
2020.2171,0.009176
2022.0808,0.010203
2023.9444,0.010014
2025.8081,0.009446
2027.6718,0.010368
2029.5355,0.010429
2031.3991,0.009851
2033.2628,0.010543
2035.1265,0.011187
2036.9901,0.011301
2038.8538,0.011902
2040.7175,0.012453
2042.5811,0.013394
2044.4448,0.014561
2046.3085,0.015282
2048.1721,0.016709
2050.0358,0.018290
2051.8995,0.019141
2053.7631,0.019694
2055.6268,0.020459
2057.4905,0.021336
2059.3542,0.022051
2061.2178,0.022126
2063.0815,0.021992
2064.9452,0.022172
2066.8088,0.022591
2068.6725,0.022385
2070.5362,0.021994
2072.3998,0.022324
2074.2635,0.023327
2076.1272,0.024187
2077.9908,0.024393
2079.8545,0.024652
2081.7182,0.024851
2083.5819,0.024947
2085.4455,0.024913
2087.3092,0.024355
2089.1729,0.024392
2091.0365,0.024623
2092.9002,0.024497
2094.7639,0.024063
2096.6275,0.023991
2098.4912,0.024490
2100.3549,0.024764
2102.2185,0.024643
2104.0822,0.024339
2105.9459,0.024203
2107.8095,0.024303
2109.6732,0.024125
2111.5369,0.024003
2113.4006,0.023948
2115.2642,0.023687
2117.1279,0.023333
2118.9916,0.022960
2120.8552,0.022750
2122.7189,0.022634
2124.5826,0.022418
2126.4462,0.022175
2128.3099,0.021459
2130.1736,0.020651
2132.0372,0.020080
2133.9009,0.019863
2135.7646,0.019961
2137.6282,0.019419
2139.4919,0.018765
2141.3556,0.019035
2143.2193,0.018373
2145.0829,0.016470
2146.9466,0.015295
2148.8103,0.014856
2150.6739,0.014042
2152.5376,0.012572
2154.4013,0.010512
2156.2649,0.008346
2158.1286,0.007390
2159.9923,0.008650
2161.8559,0.011273
2163.7196,0.011909
2165.5833,0.012194
2167.4470,0.012809
2169.3106,0.013037
2171.1743,0.014505
2173.0380,0.015330
2174.9016,0.014583
2176.7653,0.014942
2178.6290,0.015539
2180.4926,0.015510
2182.3563,0.015533
2184.2200,0.015838
2186.0836,0.016720
2187.9473,0.017838
2189.8110,0.018081
2191.6746,0.018123
2193.5383,0.018982
2195.4020,0.019468
2197.2657,0.019499
2199.1293,0.019691
2200.9930,0.019609
2202.8567,0.019287
2204.7203,0.020126
2206.5840,0.021147
2208.4477,0.021222
2210.3113,0.021286
2212.1750,0.021417
2214.0387,0.021593
2215.9023,0.022269
2217.7660,0.022857
2219.6297,0.023905
2221.4934,0.024207
2223.3570,0.023572
2225.2207,0.023245
2227.0844,0.024063
2228.9480,0.024593
2230.8117,0.024746
2232.6754,0.025198
2234.5390,0.025820
2236.4027,0.026276
2238.2664,0.026329
2240.1300,0.025945
2241.9937,0.026090
2243.8574,0.026591
2245.7210,0.027068
2247.5847,0.027547
2249.4484,0.027169
2251.3121,0.026612
2253.1757,0.027338
2255.0394,0.028385
2256.9031,0.029122
2258.7667,0.029634
2260.6304,0.030047
2262.4941,0.029951
2264.3577,0.029396
2266.2214,0.029563
2268.0851,0.030628
2269.9487,0.030745
2271.8124,0.031036
2273.6761,0.031956
2275.5397,0.032149
2277.4034,0.032410
2279.2671,0.033284
2281.1308,0.033899
2282.9944,0.034218
2284.8581,0.034435
2286.7218,0.034774
2288.5854,0.035141
2290.4491,0.035563
2292.3128,0.035594
2294.1764,0.035318
2296.0401,0.035207
2297.9038,0.035508
2299.7674,0.035940
2301.6311,0.036078
2303.4948,0.036219
2305.3585,0.036413
2307.2221,0.036439
2309.0858,0.036492
2310.9495,0.036585
2312.8131,0.036836
2314.6768,0.036944
2316.5405,0.036986
2318.4041,0.036987
2320.2678,0.037462
2322.1315,0.037918
2323.9951,0.037905
2325.8588,0.037337
2327.7225,0.036349
2329.5861,0.035974
2331.4498,0.036540
2333.3135,0.036910
2335.1772,0.036903
2337.0408,0.037087
2338.9045,0.037169
2340.7682,0.037475
2342.6318,0.038297
2344.4955,0.038861
2346.3592,0.038733
2348.2228,0.037919
2350.0865,0.037013
2351.9502,0.036683
2353.8138,0.036879
2355.6775,0.037012
2357.5412,0.037470
2359.4049,0.038064
2361.2685,0.038484
2363.1322,0.038743
2364.9959,0.038920
2366.8595,0.039175
2368.7232,0.039591
2370.5869,0.039786
2372.4505,0.040056
2374.3142,0.040411
2376.1779,0.040701
2378.0415,0.040739
2379.9052,0.040827
2381.7689,0.040850
2383.6325,0.040618
2385.4962,0.040659
2387.3599,0.040999
2389.2236,0.041248
2391.0872,0.041418
2392.9509,0.041139
2394.8146,0.040993
2396.6782,0.041222
2398.5419,0.041473
2400.4056,0.041475
2402.2692,0.041339
2404.1329,0.040875
2405.9966,0.040960
2407.8602,0.041628
2409.7239,0.042022
2411.5876,0.042089
2413.4512,0.042077
2415.3149,0.041938
2417.1786,0.041880
2419.0423,0.041897
2420.9059,0.042105
2422.7696,0.041950
2424.6333,0.041732
2426.4969,0.041945
2428.3606,0.041972
2430.2243,0.041851
2432.0879,0.042112
2433.9516,0.042408
2435.8153,0.042510
2437.6789,0.042331
2439.5426,0.042461
2441.4063,0.042807
2443.2700,0.043134
2445.1336,0.043377
2446.9973,0.043499
2448.8610,0.043142
2450.7246,0.042984
2452.5883,0.043465
2454.4520,0.043642
2456.3156,0.043821
2458.1793,0.043890
2460.0430,0.043719
2461.9066,0.043866
2463.7703,0.044003
2465.6340,0.043796
2467.4976,0.043551
2469.3613,0.043770
2471.2250,0.044276
2473.0887,0.044563
2474.9523,0.044292
2476.8160,0.044456
2478.6797,0.045091
2480.5433,0.045414
2482.4070,0.045122
2484.2707,0.044891
2486.1343,0.044831
2487.9980,0.044770
2489.8617,0.045092
2491.7253,0.045313
2493.5890,0.045260
2495.4527,0.045087
2497.3164,0.044932
2499.1800,0.045004
2501.0437,0.044957
2502.9074,0.044888
2504.7710,0.044951
2506.6347,0.045407
2508.4984,0.045984
2510.3620,0.045879
2512.2257,0.045520
2514.0894,0.045726
2515.9530,0.046219
2517.8167,0.046325
2519.6804,0.045938
2521.5440,0.045967
2523.4077,0.045886
2525.2714,0.045896
2527.1351,0.046102
2528.9987,0.046320
2530.8624,0.046294
2532.7261,0.046222
2534.5897,0.045972
2536.4534,0.045740
2538.3171,0.045996
2540.1807,0.046423
2542.0444,0.046294
2543.9081,0.046441
2545.7717,0.046520
2547.6354,0.046535
2549.4991,0.046414
2551.3627,0.046349
2553.2264,0.046342
2555.0901,0.046303
2556.9538,0.046555
2558.8174,0.046614
2560.6811,0.046689
2562.5448,0.047105
2564.4084,0.047034
2566.2721,0.046915
2568.1358,0.047041
2569.9994,0.047394
2571.8631,0.047403
2573.7268,0.047218
2575.5904,0.047252
2577.4541,0.047157
2579.3178,0.046834
2581.1815,0.047156
2583.0451,0.047552
2584.9088,0.047505
2586.7725,0.047262
2588.6361,0.047288
2590.4998,0.047083
2592.3635,0.046993
2594.2271,0.047255
2596.0908,0.047302
2597.9545,0.047453
2599.8181,0.047647
2601.6818,0.047466
2603.5455,0.047513
2605.4091,0.047863
2607.2728,0.047936
2609.1365,0.047809
2611.0002,0.047996
2612.8638,0.047996
2614.7275,0.047917
2616.5912,0.047839
2618.4548,0.047814
2620.3185,0.047742
2622.1822,0.047731
2624.0458,0.047811
2625.9095,0.047730
2627.7732,0.047660
2629.6368,0.047814
2631.5005,0.047929
2633.3642,0.047915
2635.2279,0.047645
2637.0915,0.047841
2638.9552,0.048082
2640.8189,0.047876
2642.6825,0.047972
2644.5462,0.048263
2646.4099,0.048130
2648.2735,0.048016
2650.1372,0.048012
2652.0009,0.048047
2653.8645,0.048067
2655.7282,0.048069
2657.5919,0.048017
2659.4555,0.048008
2661.3192,0.047880
2663.1829,0.047998
2665.0466,0.048139
2666.9102,0.048125
2668.7739,0.048278
2670.6376,0.048517
2672.5012,0.048618
2674.3649,0.048636
2676.2286,0.048701
2678.0922,0.048986
2679.9559,0.049403
2681.8196,0.049778
2683.6832,0.049865
2685.5469,0.049951
2687.4106,0.050187
2689.2742,0.050480
2691.1379,0.050806
2693.0016,0.051014
2694.8653,0.051018
2696.7289,0.051388
2698.5926,0.051984
2700.4563,0.052231
2702.3199,0.052169
2704.1836,0.052469
2706.0473,0.053123
2707.9109,0.053518
2709.7746,0.053759
2711.6383,0.054165
2713.5019,0.054374
2715.3656,0.054533
2717.2293,0.054684
2719.0930,0.054737
2720.9566,0.054877
2722.8203,0.055451
2724.6840,0.055777
2726.5476,0.055901
2728.4113,0.056203
2730.2750,0.056472
2732.1386,0.056722
2734.0023,0.056859
2735.8660,0.056899
2737.7296,0.056988
2739.5933,0.057106
2741.4570,0.057344
2743.3206,0.057555
2745.1843,0.057566
2747.0480,0.057398
2748.9117,0.057678
2750.7753,0.058157
2752.6390,0.058432
2754.5027,0.058554
2756.3663,0.058671
2758.2300,0.058669
2760.0937,0.059007
2761.9573,0.059410
2763.8210,0.059681
2765.6847,0.060057
2767.5483,0.060214
2769.4120,0.060413
2771.2757,0.060877
2773.1394,0.061317
2775.0030,0.062030
2776.8667,0.062456
2778.7304,0.062522
2780.5940,0.062683
2782.4577,0.062823
2784.3214,0.062920
2786.1850,0.062966
2788.0487,0.063062
2789.9124,0.063296
2791.7760,0.063254
2793.6397,0.062995
2795.5034,0.062679
2797.3670,0.062400
2799.2307,0.062504
2801.0944,0.062576
2802.9581,0.062186
2804.8217,0.062214
2806.6854,0.062057
2808.5491,0.061829
2810.4127,0.062013
2812.2764,0.062096
2814.1401,0.062035
2816.0037,0.061929
2817.8674,0.061996
2819.7311,0.062279
2821.5947,0.062566
2823.4584,0.062444
2825.3221,0.062337
2827.1857,0.062654
2829.0494,0.062418
2830.9131,0.061973
2832.7768,0.061908
2834.6404,0.062102
2836.5041,0.062683
2838.3678,0.063470
2840.2314,0.063751
2842.0951,0.064058
2843.9588,0.064146
2845.8224,0.064305
2847.6861,0.064551
2849.5498,0.065129
2851.4134,0.065633
2853.2771,0.065794
2855.1408,0.065963
2857.0045,0.066455
2858.8681,0.067105
2860.7318,0.067516
2862.5955,0.067351
2864.4591,0.067597
2866.3228,0.067944
2868.1865,0.067922
2870.0501,0.067793
2871.9138,0.067888
2873.7775,0.068034
2875.6411,0.068319
2877.5048,0.068592
2879.3685,0.068826
2881.2321,0.069183
2883.0958,0.069677
2884.9595,0.070083
2886.8232,0.070482
2888.6868,0.070875
2890.5505,0.071354
2892.4142,0.071628
2894.2778,0.072286
2896.1415,0.072848
2898.0052,0.073076
2899.8688,0.073239
2901.7325,0.073459
2903.5962,0.073440
2905.4598,0.073810
2907.3235,0.074175
2909.1872,0.074223
2911.0509,0.074401
2912.9145,0.074829
2914.7782,0.075146
2916.6419,0.075888
2918.5055,0.076677
2920.3692,0.077335
2922.2329,0.077819
2924.0965,0.078507
2925.9602,0.079409
2927.8239,0.080316
2929.6875,0.080915
2931.5512,0.081231
2933.4149,0.081310
2935.2785,0.081476
2937.1422,0.082219
2939.0059,0.083238
2940.8696,0.083793
2942.7332,0.083839
2944.5969,0.084242
2946.4606,0.085058
2948.3242,0.085560
2950.1879,0.085798
2952.0516,0.085990
2953.9152,0.086354
2955.7789,0.086740
2957.6426,0.087182
2959.5062,0.087449
2961.3699,0.088125
2963.2336,0.088872
2965.0972,0.089684
2966.9609,0.090579
2968.8246,0.091360
2970.6883,0.091538
2972.5519,0.092049
2974.4156,0.092479
2976.2793,0.092539
2978.1429,0.092279
2980.0066,0.092438
2981.8703,0.092644
2983.7339,0.092947
2985.5976,0.093284
2987.4613,0.093848
2989.3249,0.094805
2991.1886,0.096112
2993.0523,0.096604
2994.9160,0.097732
2996.7796,0.098307
2998.6433,0.098452
3000.5070,0.098975
3002.3706,0.099761
3004.2343,0.100612
3006.0980,0.101431
3007.9616,0.101785
3009.8253,0.101908
3011.6890,0.101917
3013.5526,0.102299
3015.4163,0.102260
3017.2800,0.101847
3019.1436,0.101835
3021.0073,0.101689
3022.8710,0.101198
3024.7347,0.100961
3026.5983,0.100627
3028.4620,0.100507
3030.3257,0.100209
3032.1893,0.100256
3034.0530,0.100170
3035.9167,0.100218
3037.7803,0.100195
3039.6440,0.099865
3041.5077,0.099016
3043.3713,0.098260
3045.2350,0.098031
3047.0987,0.098441
3048.9624,0.098132
3050.8260,0.097443
3052.6897,0.096556
3054.5534,0.095804
3056.4170,0.095372
3058.2807,0.094857
3060.1444,0.094002
3062.0080,0.093459
3063.8717,0.093096
3065.7354,0.093149
3067.5990,0.093301
3069.4627,0.093719
3071.3264,0.093580
3073.1900,0.092872
3075.0537,0.092533
3076.9174,0.093071
3078.7811,0.092981
3080.6447,0.091609
3082.5084,0.089453
3084.3721,0.087180
3086.2357,0.085140
3088.0994,0.083717
3089.9631,0.081604
3091.8267,0.080157
3093.6904,0.079296
3095.5541,0.078179
3097.4177,0.076889
3099.2814,0.076167
3101.1451,0.075651
3103.0087,0.075104
3104.8724,0.073862
3106.7361,0.073077
3108.5998,0.073240
3110.4634,0.073543
3112.3271,0.072399
3114.1908,0.071337
3116.0544,0.070876
3117.9181,0.070450
3119.7818,0.070317
3121.6454,0.070129
3123.5091,0.068687
3125.3728,0.067251
3127.2364,0.065835
3129.1001,0.065519
3130.9638,0.065595
3132.8275,0.065218
3134.6911,0.064216
3136.5548,0.063094
3138.4185,0.062771
3140.2821,0.062944
3142.1458,0.062820
3144.0095,0.062443
3145.8731,0.061807
3147.7368,0.060788
3149.6005,0.059613
3151.4641,0.059563
3153.3278,0.060270
3155.1915,0.060632
3157.0551,0.059968
3158.9188,0.059458
3160.7825,0.058317
3162.6462,0.057330
3164.5098,0.057210
3166.3735,0.057399
3168.2372,0.057591
3170.1008,0.057216
3171.9645,0.055854
3173.8282,0.054750
3175.6918,0.054618
3177.5555,0.054942
3179.4192,0.054752
3181.2828,0.054613
3183.1465,0.054584
3185.0102,0.054347
3186.8739,0.053873
3188.7375,0.053355
3190.6012,0.053274
3192.4649,0.053931
3194.3285,0.053835
3196.1922,0.053568
3198.0559,0.053565
3199.9195,0.053476
3201.7832,0.052675
3203.6469,0.052467
3205.5105,0.052572
3207.3742,0.052661
3209.2379,0.052989
3211.1015,0.053852
3212.9652,0.053829
3214.8289,0.053529
3216.6926,0.053415
3218.5562,0.052935
3220.4199,0.053420
3222.2836,0.054274
3224.1472,0.053916
3226.0109,0.053481
3227.8746,0.053104
3229.7382,0.052984
3231.6019,0.052937
3233.4656,0.053819
3235.3292,0.054374
3237.1929,0.054196
3239.0566,0.053778
3240.9202,0.054172
3242.7839,0.054070
3244.6476,0.054242
3246.5113,0.054817
3248.3749,0.054791
3250.2386,0.055002
3252.1023,0.055448
3253.9659,0.055394
3255.8296,0.056080
3257.6933,0.056569
3259.5569,0.056252
3261.4206,0.055703
3263.2843,0.055832
3265.1479,0.055833
3267.0116,0.055688
3268.8753,0.055403
3270.7390,0.055808
3272.6026,0.056355
3274.4663,0.056718
3276.3300,0.056463
3278.1936,0.056815
3280.0573,0.056495
3281.9210,0.055351
3283.7846,0.054906
3285.6483,0.055040
3287.5120,0.054650
3289.3756,0.054782
3291.2393,0.054368
3293.1030,0.053904
3294.9666,0.054002
3296.8303,0.053859
3298.6940,0.053514
3300.5577,0.052887
3302.4213,0.052109
3304.2850,0.052300
3306.1487,0.052140
3308.0123,0.052662
3309.8760,0.052711
3311.7397,0.051748
3313.6033,0.051051
3315.4670,0.051267
3317.3307,0.050882
3319.1943,0.051074
3321.0580,0.051443
3322.9217,0.051424
3324.7854,0.051466
3326.6490,0.051883
3328.5127,0.052541
3330.3764,0.053315
3332.2400,0.052975
3334.1037,0.052941
3335.9674,0.052939
3337.8310,0.052636
3339.6947,0.052452
3341.5584,0.053116
3343.4220,0.053001
3345.2857,0.051678
3347.1494,0.050430
3349.0130,0.050870
3350.8767,0.050891
3352.7404,0.050085
3354.6041,0.049549
3356.4677,0.050503
3358.3314,0.050366
3360.1951,0.049745
3362.0587,0.049312
3363.9224,0.049728
3365.7861,0.050485
3367.6497,0.050842
3369.5134,0.050825
3371.3771,0.052210
3373.2407,0.053373
3375.1044,0.053241
3376.9681,0.053663
3378.8317,0.055748
3380.6954,0.057793
3382.5591,0.059005
3384.4228,0.059798
3386.2864,0.062100
3388.1501,0.065663
3390.0138,0.068762
3391.8774,0.071704
3393.7411,0.076977
3395.6048,0.082508
3397.4684,0.086928
3399.3321,0.089670
3401.1958,0.090062
3403.0594,0.087629
3404.9231,0.083617
3406.7868,0.078058
3408.6505,0.072564
3410.5141,0.065747
3412.3778,0.059191
3414.2415,0.052739
3416.1051,0.046543
3417.9688,0.041856
3419.8325,0.038443
3421.6961,0.036313
3423.5598,0.035129
3425.4235,0.032968
3427.2871,0.032304
3429.1508,0.032664
3431.0145,0.031801
3432.8781,0.030752
3434.7418,0.030034
3436.6055,0.029988
3438.4692,0.030048
3440.3328,0.028946
3442.1965,0.028584
3444.0602,0.028629
3445.9238,0.026963
3447.7875,0.026469
3449.6512,0.026691
3451.5148,0.026176
3453.3785,0.025044
3455.2422,0.024208
3457.1058,0.024896
3458.9695,0.025667
3460.8332,0.025845
3462.6969,0.025255
3464.5605,0.025092
3466.4242,0.024689
3468.2879,0.024489
3470.1515,0.024519
3472.0152,0.024244
3473.8789,0.023548
3475.7425,0.023449
3477.6062,0.022588
3479.4699,0.023107
3481.3335,0.023038
3483.1972,0.021686
3485.0609,0.021850
3486.9245,0.021889
3488.7882,0.020827
3490.6519,0.021391
3492.5156,0.021879
3494.3792,0.022145
3496.2429,0.021277
3498.1066,0.021471
3499.9702,0.021995
3501.8339,0.021166
3503.6976,0.021219
3505.5612,0.022055
3507.4249,0.021529
3509.2886,0.021213
3511.1522,0.021503
3513.0159,0.021775
3514.8796,0.021207
3516.7432,0.020004
3518.6069,0.019577
3520.4706,0.019448
3522.3343,0.018923
3524.1979,0.019665
3526.0616,0.020243
3527.9253,0.019956
3529.7889,0.019571
3531.6526,0.019432
3533.5163,0.018964
3535.3799,0.019083
3537.2436,0.019075
3539.1073,0.018999
3540.9709,0.018657
3542.8346,0.018790
3544.6983,0.018604
3546.5620,0.018651
3548.4256,0.019242
3550.2893,0.018735
3552.1530,0.019007
3554.0166,0.019738
3555.8803,0.019475
3557.7440,0.020002
3559.6076,0.018869
3561.4713,0.017485
3563.3350,0.017026
3565.1986,0.017776
3567.0623,0.017633
3568.9260,0.018192
3570.7896,0.019293
3572.6533,0.019780
3574.5170,0.019662
3576.3807,0.019201
3578.2443,0.019131
3580.1080,0.019287
3581.9717,0.019089
3583.8353,0.018161
3585.6990,0.017235
3587.5627,0.016392
3589.4263,0.017598
3591.2900,0.020664
3593.1537,0.020369
3595.0173,0.019399
3596.8810,0.019610
3598.7447,0.019793
3600.6084,0.019269
3602.4720,0.019948
3604.3357,0.020805
3606.1994,0.020719
3608.0630,0.018930
3609.9267,0.018290
3611.7904,0.019315
3613.6540,0.018929
3615.5177,0.018310
3617.3814,0.019068
3619.2450,0.019450
3621.1087,0.019924
3622.9724,0.020652
3624.8360,0.019993
3626.6997,0.019117
3628.5634,0.018942
3630.4271,0.020296
3632.2907,0.022952
3634.1544,0.022655
3636.0181,0.021839
3637.8817,0.020959
3639.7454,0.020354
3641.6091,0.019774
3643.4727,0.019557
3645.3364,0.019106
3647.2001,0.018053
3649.0637,0.018253
3650.9274,0.021878
3652.7911,0.024180
3654.6547,0.023873
3656.5184,0.023008
3658.3821,0.024796
3660.2458,0.025943
3662.1094,0.024908
3663.9731,0.024887
3665.8368,0.025868
3667.7004,0.026653
3669.5641,0.029093
3671.4278,0.038067
3673.2914,0.046895
3675.1551,0.046614
3677.0188,0.042378
3678.8824,0.030651
3680.7461,0.021688
3682.6098,0.017614
3684.4735,0.016785
3686.3371,0.015941
3688.2008,0.015597
3690.0645,0.017144
3691.9281,0.019685
3693.7918,0.020640
3695.6555,0.020445
3697.5191,0.020031
3699.3828,0.019769
3701.2465,0.019133
3703.1101,0.018821
3704.9738,0.019382
3706.8375,0.018807
3708.7011,0.017803
3710.5648,0.017559
3712.4285,0.018295
3714.2922,0.020375
3716.1558,0.020913
3718.0195,0.019932
3719.8832,0.019252
3721.7468,0.018759
3723.6105,0.018549
3725.4742,0.019826
3727.3378,0.020032
3729.2015,0.018893
3731.0652,0.018027
3732.9288,0.017287
3734.7925,0.017833
3736.6562,0.019747
3738.5199,0.020958
3740.3835,0.020662
3742.2472,0.018788
3744.1109,0.017039
3745.9745,0.016784
3747.8382,0.019664
3749.7019,0.019497
3751.5655,0.019285
3753.4292,0.021793
3755.2929,0.022755
3757.1565,0.021576
3759.0202,0.020469
3760.8839,0.020813
3762.7475,0.021269
3764.6112,0.020708
3766.4749,0.020256
3768.3386,0.020646
3770.2022,0.020656
3772.0659,0.021799
3773.9296,0.022615
3775.7932,0.021307
3777.6569,0.020717
3779.5206,0.020989
3781.3842,0.021654
3783.2479,0.022253
3785.1116,0.021784
3786.9752,0.022084
3788.8389,0.022508
3790.7026,0.021993
3792.5662,0.021479
3794.4299,0.020643
3796.2936,0.019973
3798.1573,0.020426
3800.0209,0.021185
3801.8846,0.020879
3803.7483,0.022435
3805.6119,0.023087
3807.4756,0.021545
3809.3393,0.021576
3811.2029,0.021956
3813.0666,0.020864
3814.9303,0.020032
3816.7939,0.019992
3818.6576,0.021553
3820.5213,0.021755
3822.3850,0.020894
3824.2486,0.022624
3826.1123,0.022477
3827.9760,0.020798
3829.8396,0.020645
3831.7033,0.020630
3833.5670,0.020340
3835.4306,0.020370
3837.2943,0.020411
3839.1580,0.021819
3841.0216,0.023841
3842.8853,0.023398
3844.7490,0.022691
3846.6126,0.022188
3848.4763,0.021516
3850.3400,0.019727
3852.2037,0.018240
3854.0673,0.018829
3855.9310,0.023365
3857.7947,0.024576
3859.6583,0.022696
3861.5220,0.021160
3863.3857,0.020844
3865.2493,0.021448
3867.1130,0.022477
3868.9767,0.022008
3870.8403,0.021383
3872.7040,0.023059
3874.5677,0.023303
3876.4314,0.022776
3878.2950,0.022580
3880.1587,0.021426
3882.0224,0.022333
3883.8860,0.023455
3885.7497,0.022252
3887.6134,0.022228
3889.4770,0.022806
3891.3407,0.021822
3893.2044,0.021879
3895.0680,0.023335
3896.9317,0.022670
3898.7954,0.021234
3900.6590,0.021080
3902.5227,0.021944
3904.3864,0.023362
3906.2501,0.025034
3908.1137,0.025038
3909.9774,0.023861
3911.8411,0.022767
3913.7047,0.022723
3915.5684,0.022561
3917.4321,0.022068
3919.2957,0.022564
3921.1594,0.023656
3923.0231,0.023687
3924.8867,0.023065
3926.7504,0.023379
3928.6141,0.023738
3930.4777,0.023362
3932.3414,0.023143
3934.2051,0.023540
3936.0688,0.023993
3937.9324,0.024132
3939.7961,0.023325
3941.6598,0.022518
3943.5234,0.022445
3945.3871,0.023218
3947.2508,0.023626
3949.1144,0.023718
3950.9781,0.023951
3952.8418,0.023774
3954.7054,0.023594
3956.5691,0.023790
3958.4328,0.023486
3960.2965,0.023496
3962.1601,0.023796
3964.0238,0.024068
3965.8875,0.023932
3967.7511,0.023451
3969.6148,0.022928
3971.4785,0.023196
3973.3421,0.023766
3975.2058,0.023789
3977.0695,0.023444
3978.9331,0.023580
3980.7968,0.023587
3982.6605,0.023881
3984.5241,0.024319
3986.3878,0.024549
3988.2515,0.024686
3990.1152,0.024145
3991.9788,0.023969
3993.8425,0.024182
3995.7062,0.024088
3997.5698,0.023861
3999.4335,0.023890
