Wavenumber,Intensity
650.4205,0.174158
652.2841,0.171099
654.1478,0.169901
656.0115,0.166518
657.8751,0.162974
659.7388,0.159818
661.6025,0.157718
663.4661,0.155156
665.3298,0.154352
667.1935,0.154029
669.0571,0.154101
670.9208,0.152605
672.7845,0.152652
674.6481,0.153120
676.5118,0.152566
678.3755,0.151598
680.2392,0.153002
682.1028,0.153672
683.9665,0.153086
685.8302,0.152345
687.6938,0.152494
689.5575,0.152731
691.4212,0.153263
693.2848,0.154164
695.1485,0.154595
697.0122,0.154754
698.8758,0.156280
700.7395,0.156803
702.6032,0.155994
704.4669,0.153535
706.3305,0.150768
708.1942,0.146551
710.0579,0.140297
711.9215,0.133990
713.7852,0.128405
715.6489,0.122594
717.5125,0.118127
719.3762,0.113992
721.2399,0.109572
723.1035,0.105322
724.9672,0.102045
726.8309,0.099138
728.6945,0.096389
730.5582,0.092995
732.4219,0.089413
734.2856,0.086776
736.1492,0.084713
738.0129,0.083234
739.8766,0.083801
741.7402,0.086130
743.6039,0.088347
745.4676,0.089181
747.3312,0.089259
749.1949,0.088844
751.0586,0.088391
752.9222,0.088171
754.7859,0.087734
756.6496,0.087010
758.5132,0.086772
760.3769,0.086513
762.2406,0.085855
764.1043,0.085468
765.9679,0.084931
767.8316,0.083892
769.6953,0.083225
771.5589,0.082853
773.4226,0.082828
775.2863,0.082674
777.1499,0.082209
779.0136,0.081858
780.8773,0.082175
782.7409,0.082939
784.6046,0.083988
786.4683,0.084794
788.3320,0.085700
790.1956,0.086736
792.0593,0.087909
793.9230,0.089142
795.7866,0.090546
797.6503,0.091917
799.5140,0.092952
801.3776,0.093696
803.2413,0.093908
805.1050,0.093391
806.9686,0.092557
808.8323,0.091202
810.6960,0.089312
812.5596,0.087257
814.4233,0.085022
816.2870,0.082770
818.1507,0.080567
820.0143,0.078731
821.8780,0.077908
823.7417,0.077628
825.6053,0.077955
827.4690,0.079411
829.3327,0.080312
831.1963,0.076755
833.0600,0.069031
834.9237,0.062040
836.7873,0.058741
838.6510,0.057823
840.5147,0.057427
842.3784,0.057252
844.2420,0.057182
846.1057,0.057214
847.9694,0.057427
849.8330,0.057621
851.6967,0.057534
853.5604,0.057332
855.4240,0.057368
857.2877,0.057628
859.1514,0.057864
861.0150,0.057661
862.8787,0.057188
864.7424,0.056633
866.6060,0.055928
868.4697,0.055219
870.3334,0.054646
872.1971,0.054131
874.0607,0.053678
875.9244,0.053508
877.7881,0.053596
879.6517,0.053743
881.5154,0.054072
883.3791,0.054637
885.2427,0.055349
887.1064,0.056197
888.9701,0.057045
890.8337,0.057865
892.6974,0.058703
894.5611,0.059604
896.4247,0.060517
898.2884,0.061695
900.1521,0.063167
902.0158,0.064850
903.8794,0.067114
905.7431,0.070191
907.6068,0.073874
909.4704,0.078187
911.3341,0.083432
913.1978,0.089361
915.0614,0.092562
916.9251,0.087650
918.7888,0.076985
920.6524,0.068438
922.5161,0.064507
924.3798,0.063160
926.2435,0.062889
928.1071,0.063162
929.9708,0.063551
931.8345,0.063831
933.6981,0.064075
935.5618,0.064216
937.4255,0.064337
939.2891,0.064345
941.1528,0.064340
943.0165,0.064606
944.8801,0.065120
946.7438,0.065795
948.6075,0.066607
950.4711,0.067657
952.3348,0.069085
954.1985,0.070889
956.0622,0.072831
957.9258,0.074759
959.7895,0.076725
961.6532,0.078880
963.5168,0.081394
965.3805,0.084252
967.2442,0.087551
969.1078,0.091328
970.9715,0.095360
972.8352,0.099839
974.6988,0.105961
976.5625,0.115233
978.4262,0.129200
980.2899,0.147171
982.1535,0.155197
984.0172,0.138280
985.8809,0.114456
987.7445,0.103722
989.6082,0.102555
991.4719,0.103556
993.3355,0.104608
995.1992,0.105368
997.0629,0.105915
998.9265,0.106197
1000.7902,0.106329
1002.6539,0.106438
1004.5175,0.106585
1006.3812,0.106808
1008.2449,0.107141
1010.1086,0.107586
1011.9722,0.107923
1013.8359,0.108111
1015.6996,0.108076
1017.5632,0.107861
1019.4269,0.107478
1021.2906,0.106747
1023.1542,0.105993
1025.0179,0.105326
1026.8816,0.104578
1028.7452,0.103893
1030.6089,0.103491
1032.4726,0.103209
1034.3362,0.103173
1036.1999,0.103814
1038.0636,0.104926
1039.9273,0.106402
1041.7909,0.108338
1043.6546,0.110445
1045.5183,0.112439
1047.3819,0.113559
1049.2456,0.112241
1051.1093,0.107032
1052.9729,0.098850
1054.8366,0.090813
1056.7003,0.085047
1058.5639,0.081602
1060.4276,0.079810
1062.2913,0.078850
1064.1550,0.078522
1066.0186,0.079217
1067.8823,0.081032
1069.7460,0.084058
1071.6096,0.087961
1073.4733,0.091662
1075.3370,0.094484
1077.2006,0.096224
1079.0643,0.097022
1080.9280,0.097448
1082.7916,0.097785
1084.6553,0.098096
1086.5190,0.098704
1088.3826,0.099652
1090.2463,0.101006
1092.1100,0.102991
1093.9737,0.105694
1095.8373,0.109120
1097.7010,0.113266
1099.5647,0.117855
1101.4283,0.122383
1103.2920,0.126265
1105.1557,0.128738
1107.0193,0.128710
1108.8830,0.125148
1110.7467,0.118164
1112.6103,0.109142
1114.4740,0.099811
1116.3377,0.091345
1118.2014,0.084506
1120.0650,0.079537
1121.9287,0.076169
1123.7924,0.073892
1125.6560,0.071988
1127.5197,0.070200
1129.3834,0.068543
1131.2470,0.067104
1133.1107,0.066081
1134.9744,0.065522
1136.8380,0.065554
1138.7017,0.066180
1140.5654,0.067119
1142.4290,0.068163
1144.2927,0.069191
1146.1564,0.070050
1148.0201,0.070570
1149.8837,0.070765
1151.7474,0.070701
1153.6111,0.070373
1155.4747,0.069816
1157.3384,0.069081
1159.2021,0.068326
1161.0657,0.067652
1162.9294,0.067123
1164.7931,0.067007
1166.6567,0.067535
1168.5204,0.068659
1170.3841,0.070033
1172.2477,0.070800
1174.1114,0.069703
1175.9751,0.066297
1177.8388,0.061924
1179.7024,0.058274
1181.5661,0.056082
1183.4298,0.055091
1185.2934,0.054752
1187.1571,0.054881
1189.0208,0.055172
1190.8844,0.055365
1192.7481,0.055523
1194.6118,0.055734
1196.4754,0.056095
1198.3391,0.056553
1200.2028,0.057044
1202.0665,0.057468
1203.9301,0.057777
1205.7938,0.058115
1207.6575,0.058500
1209.5211,0.058761
1211.3848,0.058963
1213.2485,0.059311
1215.1121,0.059661
1216.9758,0.059943
1218.8395,0.060319
1220.7031,0.060771
1222.5668,0.061291
1224.4305,0.061932
1226.2941,0.062528
1228.1578,0.063037
1230.0215,0.063648
1231.8852,0.064270
1233.7488,0.064809
1235.6125,0.065302
1237.4762,0.065759
1239.3398,0.066256
1241.2035,0.066763
1243.0672,0.067245
1244.9308,0.067702
1246.7945,0.068166
1248.6582,0.068680
1250.5218,0.069170
1252.3855,0.069676
1254.2492,0.070266
1256.1129,0.070842
1257.9765,0.071486
1259.8402,0.072342
1261.7039,0.073274
1263.5675,0.074102
1265.4312,0.074756
1267.2949,0.075148
1269.1585,0.075232
1271.0222,0.075196
1272.8859,0.075290
1274.7495,0.075665
1276.6132,0.076337
1278.4769,0.077261
1280.3405,0.078421
1282.2042,0.079742
1284.0679,0.081258
1285.9316,0.082916
1287.7952,0.084730
1289.6589,0.086786
1291.5226,0.089127
1293.3862,0.091898
1295.2499,0.095159
1297.1136,0.098967
1298.9772,0.103372
1300.8409,0.108554
1302.7046,0.114119
1304.5682,0.118189
1306.4319,0.117860
1308.2956,0.110499
1310.1592,0.096658
1312.0229,0.081903
1313.8866,0.071808
1315.7503,0.067685
1317.6139,0.067405
1319.4776,0.068895
1321.3413,0.070881
1323.2049,0.073000
1325.0686,0.075301
1326.9323,0.077656
1328.7959,0.079860
1330.6596,0.081798
1332.5233,0.083476
1334.3869,0.084653
1336.2506,0.085499
1338.1143,0.086721
1339.9780,0.088109
1341.8416,0.088450
1343.7053,0.088275
1345.5690,0.088597
1347.4326,0.089298
1349.2963,0.090283
1351.1600,0.091351
1353.0236,0.092521
1354.8873,0.094218
1356.7510,0.095970
1358.6146,0.097415
1360.4783,0.099345
1362.3420,0.102527
1364.2056,0.105379
1366.0693,0.106854
1367.9330,0.108988
1369.7967,0.111580
1371.6603,0.113713
1373.5240,0.116615
1375.3877,0.119857
1377.2513,0.122045
1379.1150,0.124814
1380.9787,0.128405
1382.8423,0.132078
1384.7060,0.136056
1386.5697,0.141034
1388.4333,0.146415
1390.2970,0.149583
1392.1607,0.151354
1394.0244,0.151795
1395.8880,0.148694
1397.7517,0.143188
1399.6154,0.136477
1401.4790,0.129692
1403.3427,0.123749
1405.2064,0.114994
1407.0700,0.102802
1408.9337,0.090481
1410.7974,0.078989
1412.6610,0.070431
1414.5247,0.066141
1416.3884,0.065556
1418.2520,0.068901
1420.1157,0.075368
1421.9794,0.078620
1423.8431,0.077350
1425.7067,0.071203
1427.5704,0.064342
1429.4341,0.059971
1431.2977,0.058038
1433.1614,0.057774
1435.0251,0.058695
1436.8887,0.061189
1438.7524,0.062850
1440.6161,0.063332
1442.4797,0.064285
1444.3434,0.065256
1446.2071,0.066084
1448.0707,0.066516
1449.9344,0.065519
1451.7981,0.063390
1453.6618,0.061251
1455.5254,0.060749
1457.3891,0.063319
1459.2528,0.064681
1461.1164,0.063794
1462.9801,0.063640
1464.8438,0.064034
1466.7074,0.063144
1468.5711,0.061350
1470.4348,0.060357
1472.2984,0.060625
1474.1621,0.060824
1476.0258,0.060241
1477.8895,0.059948
1479.7531,0.059754
1481.6168,0.060026
1483.4805,0.060209
1485.3441,0.060240
1487.2078,0.060956
1489.0715,0.062604
1490.9351,0.063760
1492.7988,0.063338
1494.6625,0.063324
1496.5261,0.065120
1498.3898,0.066971
1500.2535,0.067272
1502.1171,0.066773
1503.9808,0.066616
1505.8445,0.068774
1507.7082,0.073728
1509.5718,0.073418
1511.4355,0.072927
1513.2992,0.073429
1515.1628,0.074179
1517.0265,0.075534
1518.8902,0.076706
1520.7538,0.078148
1522.6175,0.080209
1524.4812,0.080357
1526.3448,0.081283
1528.2085,0.082167
1530.0722,0.082337
1531.9359,0.083291
1533.7995,0.085334
1535.6632,0.085559
1537.5269,0.085365
1539.3905,0.088124
1541.2542,0.092714
1543.1179,0.093560
1544.9815,0.094558
1546.8452,0.095469
1548.7089,0.096689
1550.5725,0.098731
1552.4362,0.100206
1554.2999,0.101439
1556.1635,0.103107
1558.0272,0.106775
1559.8909,0.114326
1561.7546,0.112808
1563.6182,0.112347
1565.4819,0.114114
1567.3456,0.116093
1569.2092,0.118867
1571.0729,0.121619
1572.9366,0.122354
1574.8002,0.124612
1576.6639,0.129044
1578.5276,0.131041
1580.3912,0.131819
1582.2549,0.133691
1584.1186,0.135224
1585.9822,0.136180
1587.8459,0.136819
1589.7096,0.137314
1591.5733,0.137145
1593.4369,0.136505
1595.3006,0.135371
1597.1643,0.133787
1599.0279,0.132091
1600.8916,0.130433
1602.7553,0.128810
1604.6189,0.127204
1606.4826,0.125726
1608.3463,0.124396
1610.2099,0.122922
1612.0736,0.120972
1613.9373,0.118964
1615.8010,0.116758
1617.6646,0.112001
1619.5283,0.106682
1621.3920,0.103213
1623.2556,0.098957
1625.1193,0.093289
1626.9830,0.088030
1628.8466,0.081896
1630.7103,0.075333
1632.5740,0.070089
1634.4376,0.065265
1636.3013,0.059796
1638.1650,0.055820
1640.0286,0.054341
1641.8923,0.053352
1643.7560,0.053400
1645.6197,0.054659
1647.4833,0.056847
1649.3470,0.057856
1651.2107,0.059221
1653.0743,0.063033
1654.9380,0.065902
1656.8017,0.065457
1658.6653,0.066002
1660.5290,0.066415
1662.3927,0.066230
1664.2563,0.065023
1666.1200,0.063664
1667.9837,0.062761
1669.8474,0.061869
1671.7110,0.060859
1673.5747,0.061034
1675.4384,0.062495
1677.3020,0.064440
1679.1657,0.066263
1681.0294,0.069278
1682.8930,0.072691
1684.7567,0.076866
1686.6204,0.077525
1688.4840,0.076819
1690.3477,0.075937
1692.2114,0.073894
1694.0750,0.071791
1695.9387,0.069665
1697.8024,0.066996
1699.6661,0.065031
1701.5297,0.059640
1703.3934,0.054620
1705.2571,0.049761
1707.1207,0.042994
1708.9844,0.038058
1710.8481,0.034464
1712.7117,0.031396
1714.5754,0.029568
1716.4391,0.028444
1718.3027,0.027588
1720.1664,0.026408
1722.0301,0.025536
1723.8937,0.024341
1725.7574,0.022803
1727.6211,0.021222
1729.4848,0.019971
1731.3484,0.018790
1733.2121,0.018068
1735.0758,0.017306
1736.9394,0.016592
1738.8031,0.016252
1740.6668,0.016176
1742.5304,0.015805
1744.3941,0.015562
1746.2578,0.015390
1748.1214,0.015292
1749.9851,0.015039
1751.8488,0.014767
1753.7125,0.014314
1755.5761,0.014176
1757.4398,0.014219
1759.3035,0.014291
1761.1671,0.014253
1763.0308,0.014299
1764.8945,0.014197
1766.7581,0.014079
1768.6218,0.013942
1770.4855,0.014039
1772.3491,0.014162
1774.2128,0.014223
1776.0765,0.013988
1777.9401,0.014078
1779.8038,0.014092
1781.6675,0.014031
1783.5312,0.013998
1785.3948,0.014165
1787.2585,0.014173
1789.1222,0.014153
1790.9858,0.014270
1792.8495,0.014436
1794.7132,0.014118
1796.5768,0.014072
1798.4405,0.014120
1800.3042,0.014275
1802.1678,0.014270
1804.0315,0.014199
1805.8952,0.014257
1807.7589,0.014476
1809.6225,0.014529
1811.4862,0.014699
1813.3499,0.014579
1815.2135,0.014271
1817.0772,0.014034
1818.9409,0.014126
1820.8045,0.014200
1822.6682,0.014242
1824.5319,0.014310
1826.3955,0.014338
1828.2592,0.014069
1830.1229,0.014130
1831.9865,0.014102
1833.8502,0.013946
1835.7139,0.013835
1837.5776,0.013821
1839.4412,0.013759
1841.3049,0.013955
1843.1686,0.014262
1845.0322,0.014394
1846.8959,0.014038
1848.7596,0.014019
1850.6232,0.014010
1852.4869,0.014085
1854.3506,0.014208
1856.2142,0.014422
1858.0779,0.014500
1859.9416,0.014433
1861.8052,0.014219
1863.6689,0.014047
1865.5326,0.014097
1867.3963,0.014354
1869.2599,0.014040
1871.1236,0.013874
1872.9873,0.014166
1874.8509,0.014379
1876.7146,0.014293
1878.5783,0.014310
1880.4419,0.014186
1882.3056,0.014192
1884.1693,0.014111
1886.0329,0.014302
1887.8966,0.014402
1889.7603,0.014479
1891.6240,0.014073
1893.4876,0.014093
1895.3513,0.014352
1897.2150,0.014477
1899.0786,0.014330
1900.9423,0.014270
1902.8060,0.014043
1904.6696,0.013986
1906.5333,0.014086
1908.3970,0.014369
1910.2606,0.014326
1912.1243,0.014255
1913.9880,0.014189
1915.8516,0.014118
1917.7153,0.013818
1919.5790,0.013827
1921.4427,0.014163
1923.3063,0.014371
1925.1700,0.013767
1927.0337,0.013701
1928.8973,0.013801
1930.7610,0.013969
1932.6247,0.013449
1934.4883,0.013588
1936.3520,0.013546
1938.2157,0.013476
1940.0793,0.013671
1941.9430,0.013534
1943.8067,0.012726
1945.6704,0.012409
1947.5340,0.012039
1949.3977,0.012073
1951.2614,0.012133
1953.1250,0.011937
1954.9887,0.011886
1956.8524,0.011573
1958.7160,0.010369
1960.5797,0.009545
1962.4434,0.008916
1964.3070,0.008885
1966.1707,0.008844
1968.0344,0.008900
1969.8980,0.008123
1971.7617,0.007519
1973.6254,0.007295
1975.4891,0.007940
1977.3527,0.008307
1979.2164,0.009792
1981.0801,0.010461
1982.9437,0.010496
1984.8074,0.010186
1986.6711,0.010355
1988.5347,0.010635
1990.3984,0.011065
1992.2621,0.010469
1994.1257,0.010505
1995.9894,0.010506
1997.8531,0.010719
1999.7167,0.009802
2001.5804,0.009758
2003.4441,0.010133
2005.3078,0.009828
2007.1714,0.009239
2009.0351,0.009185
2010.8988,0.009640
2012.7624,0.010021
2014.6261,0.009195
2016.4898,0.009049
2018.3534,0.008864
2020.2171,0.007363
2022.0808,0.007159
2023.9444,0.007930
2025.8081,0.007436
2027.6718,0.008089
2029.5355,0.008628
2031.3991,0.008856
2033.2628,0.009679
2035.1265,0.010302
2036.9901,0.010023
2038.8538,0.009983
2040.7175,0.009801
2042.5811,0.010664
2044.4448,0.010521
2046.3085,0.010680
2048.1721,0.011833
2050.0358,0.013392
2051.8995,0.013665
2053.7631,0.013003
2055.6268,0.013118
2057.4905,0.013403
2059.3542,0.013354
2061.2178,0.013796
2063.0815,0.013948
2064.9452,0.014817
2066.8088,0.014870
2068.6725,0.014771
2070.5362,0.015331
2072.3998,0.016132
2074.2635,0.015734
2076.1272,0.015500
2077.9908,0.016033
2079.8545,0.015870
2081.7182,0.015320
2083.5819,0.015839
2085.4455,0.016646
2087.3092,0.017251
2089.1729,0.017368
2091.0365,0.016618
2092.9002,0.016282
2094.7639,0.016728
2096.6275,0.016560
2098.4912,0.016752
2100.3549,0.017524
2102.2185,0.017165
2104.0822,0.016741
2105.9459,0.016986
2107.8095,0.016885
2109.6732,0.016882
2111.5369,0.017133
2113.4006,0.017319
2115.2642,0.017781
2117.1279,0.017784
2118.9916,0.017009
2120.8552,0.016989
2122.7189,0.016984
2124.5826,0.017218
2126.4462,0.017448
2128.3099,0.016740
2130.1736,0.015664
2132.0372,0.015653
2133.9009,0.015332
2135.7646,0.014757
2137.6282,0.014690
2139.4919,0.015135
2141.3556,0.015209
2143.2193,0.013990
2145.0829,0.012998
2146.9466,0.012840
2148.8103,0.012675
2150.6739,0.012989
2152.5376,0.012096
2154.4013,0.010534
2156.2649,0.007940
2158.1286,0.006290
2159.9923,0.007398
2161.8559,0.010535
2163.7196,0.011657
2165.5833,0.011570
2167.4470,0.010820
2169.3106,0.010858
2171.1743,0.011667
2173.0380,0.012261
2174.9016,0.012970
2176.7653,0.014389
2178.6290,0.013958
2180.4926,0.013536
2182.3563,0.013353
2184.2200,0.013018
2186.0836,0.013291
2187.9473,0.013937
2189.8110,0.013564
2191.6746,0.013903
2193.5383,0.014409
2195.4020,0.015232
2197.2657,0.015145
2199.1293,0.015336
2200.9930,0.015280
2202.8567,0.015558
2204.7203,0.016605
2206.5840,0.016365
2208.4477,0.015616
2210.3113,0.016800
2212.1750,0.017223
2214.0387,0.017040
2215.9023,0.017091
2217.7660,0.017363
2219.6297,0.016999
2221.4934,0.017190
2223.3570,0.017213
2225.2207,0.017066
2227.0844,0.017589
2228.9480,0.018842
2230.8117,0.018464
2232.6754,0.018877
2234.5390,0.019488
2236.4027,0.019327
2238.2664,0.018874
2240.1300,0.018826
2241.9937,0.019081
2243.8574,0.018904
2245.7210,0.019001
2247.5847,0.020265
2249.4484,0.020718
2251.3121,0.020087
2253.1757,0.019539
2255.0394,0.019499
2256.9031,0.019772
2258.7667,0.020288
2260.6304,0.020264
2262.4941,0.019917
2264.3577,0.020318
2266.2214,0.020854
2268.0851,0.021596
2269.9487,0.022392
2271.8124,0.022671
2273.6761,0.022421
2275.5397,0.022457
2277.4034,0.022334
2279.2671,0.022488
2281.1308,0.022962
2282.9944,0.023283
2284.8581,0.023892
2286.7218,0.023951
2288.5854,0.023841
2290.4491,0.023895
2292.3128,0.023617
2294.1764,0.023666
2296.0401,0.023781
2297.9038,0.023877
2299.7674,0.024249
2301.6311,0.024456
2303.4948,0.024046
2305.3585,0.023796
2307.2221,0.024026
2309.0858,0.024142
2310.9495,0.023988
2312.8131,0.024122
2314.6768,0.023955
2316.5405,0.023642
2318.4041,0.023540
2320.2678,0.023793
2322.1315,0.023897
2323.9951,0.024131
2325.8588,0.024137
2327.7225,0.023486
2329.5861,0.022902
2331.4498,0.022681
2333.3135,0.022504
2335.1772,0.022428
2337.0408,0.022462
2338.9045,0.022492
2340.7682,0.022517
2342.6318,0.023141
2344.4955,0.023291
2346.3592,0.022924
2348.2228,0.022809
2350.0865,0.022575
2351.9502,0.022497
2353.8138,0.022546
2355.6775,0.022518
2357.5412,0.022214
2359.4049,0.022037
2361.2685,0.021966
2363.1322,0.022532
2364.9959,0.022909
2366.8595,0.022853
2368.7232,0.022985
2370.5869,0.023375
2372.4505,0.023532
2374.3142,0.024019
2376.1779,0.024550
2378.0415,0.024372
2379.9052,0.024065
2381.7689,0.024104
2383.6325,0.024370
2385.4962,0.024398
2387.3599,0.024481
2389.2236,0.024659
2391.0872,0.024644
2392.9509,0.024514
2394.8146,0.024600
2396.6782,0.024810
2398.5419,0.024897
2400.4056,0.024942
2402.2692,0.024813
2404.1329,0.024923
2405.9966,0.025258
2407.8602,0.025040
2409.7239,0.024687
2411.5876,0.024935
2413.4512,0.025067
2415.3149,0.025026
2417.1786,0.025141
2419.0423,0.025389
2420.9059,0.025887
2422.7696,0.026054
2424.6333,0.025872
2426.4969,0.026010
2428.3606,0.026068
2430.2243,0.025960
2432.0879,0.025995
2433.9516,0.025781
2435.8153,0.025686
2437.6789,0.025926
2439.5426,0.025753
2441.4063,0.025443
2443.2700,0.025615
2445.1336,0.025846
2446.9973,0.026205
2448.8610,0.026280
2450.7246,0.026227
2452.5883,0.026349
2454.4520,0.026513
2456.3156,0.026564
2458.1793,0.026259
2460.0430,0.026001
2461.9066,0.026114
2463.7703,0.025871
2465.6340,0.025653
2467.4976,0.026113
2469.3613,0.026274
2471.2250,0.026042
2473.0887,0.025909
2474.9523,0.025835
2476.8160,0.025714
2478.6797,0.025884
2480.5433,0.026084
2482.4070,0.026134
2484.2707,0.026282
2486.1343,0.026507
2487.9980,0.026623
2489.8617,0.026742
2491.7253,0.026885
2493.5890,0.027159
2495.4527,0.027334
2497.3164,0.027188
2499.1800,0.026809
2501.0437,0.026854
2502.9074,0.027532
2504.7710,0.027777
2506.6347,0.027452
2508.4984,0.027654
2510.3620,0.027721
2512.2257,0.027292
2514.0894,0.027503
2515.9530,0.027685
2517.8167,0.027769
2519.6804,0.027963
2521.5440,0.028011
2523.4077,0.028132
2525.2714,0.027942
2527.1351,0.028025
2528.9987,0.028247
2530.8624,0.028152
2532.7261,0.027949
2534.5897,0.027922
2536.4534,0.028114
2538.3171,0.028631
2540.1807,0.028519
2542.0444,0.028203
2543.9081,0.028535
2545.7717,0.028733
2547.6354,0.028753
2549.4991,0.028758
2551.3627,0.028630
2553.2264,0.028491
2555.0901,0.028385
2556.9538,0.028452
2558.8174,0.028981
2560.6811,0.029380
2562.5448,0.029455
2564.4084,0.029095
2566.2721,0.028816
2568.1358,0.029005
2569.9994,0.029804
2571.8631,0.030164
2573.7268,0.030198
2575.5904,0.030119
2577.4541,0.030081
2579.3178,0.030201
2581.1815,0.030379
2583.0451,0.030646
2584.9088,0.030709
2586.7725,0.030773
2588.6361,0.031029
2590.4998,0.031070
2592.3635,0.031067
2594.2271,0.031333
2596.0908,0.031771
2597.9545,0.031852
2599.8181,0.031869
2601.6818,0.031847
2603.5455,0.031762
2605.4091,0.031954
2607.2728,0.032045
2609.1365,0.032155
2611.0002,0.032497
2612.8638,0.032602
2614.7275,0.032787
2616.5912,0.032960
2618.4548,0.033131
2620.3185,0.033267
2622.1822,0.033225
2624.0458,0.033488
2625.9095,0.034250
2627.7732,0.034424
2629.6368,0.034494
2631.5005,0.034691
2633.3642,0.034799
2635.2279,0.034826
2637.0915,0.034849
2638.9552,0.035019
2640.8189,0.035254
2642.6825,0.035602
2644.5462,0.035936
2646.4099,0.036063
2648.2735,0.036099
2650.1372,0.036223
2652.0009,0.036592
2653.8645,0.036557
2655.7282,0.036419
2657.5919,0.036487
2659.4555,0.036588
2661.3192,0.036678
2663.1829,0.036797
2665.0466,0.036776
2666.9102,0.036837
2668.7739,0.037014
2670.6376,0.037274
2672.5012,0.037354
2674.3649,0.037374
2676.2286,0.037550
2678.0922,0.037618
2679.9559,0.037822
2681.8196,0.038122
2683.6832,0.038355
2685.5469,0.038558
2687.4106,0.038834
2689.2742,0.039179
2691.1379,0.039303
2693.0016,0.039048
2694.8653,0.039089
2696.7289,0.039461
2698.5926,0.039859
2700.4563,0.040201
2702.3199,0.040488
2704.1836,0.040679
2706.0473,0.041071
2707.9109,0.041468
2709.7746,0.041678
2711.6383,0.041900
2713.5019,0.042055
2715.3656,0.042131
2717.2293,0.042466
2719.0930,0.042858
2720.9566,0.043120
2722.8203,0.043476
2724.6840,0.043906
2726.5476,0.044403
2728.4113,0.044955
2730.2750,0.045215
2732.1386,0.045365
2734.0023,0.045565
2735.8660,0.045889
2737.7296,0.046380
2739.5933,0.047028
2741.4570,0.047300
2743.3206,0.047537
2745.1843,0.047994
2747.0480,0.048538
2748.9117,0.048855
2750.7753,0.049275
2752.6390,0.049893
2754.5027,0.050280
2756.3663,0.050769
2758.2300,0.051092
2760.0937,0.051394
2761.9573,0.051941
2763.8210,0.052487
2765.6847,0.052868
2767.5483,0.053306
2769.4120,0.053684
2771.2757,0.054061
2773.1394,0.054659
2775.0030,0.055570
2776.8667,0.056145
2778.7304,0.056195
2780.5940,0.056459
2782.4577,0.056934
2784.3214,0.056954
2786.1850,0.056889
2788.0487,0.056667
2789.9124,0.056657
2791.7760,0.056655
2793.6397,0.056274
2795.5034,0.055496
2797.3670,0.054944
2799.2307,0.054685
2801.0944,0.054465
2802.9581,0.054002
2804.8217,0.053813
2806.6854,0.053587
2808.5491,0.053250
2810.4127,0.053166
2812.2764,0.053259
2814.1401,0.053068
2816.0037,0.052729
2817.8674,0.052867
2819.7311,0.053093
2821.5947,0.053217
2823.4584,0.053541
2825.3221,0.053575
2827.1857,0.053612
2829.0494,0.053392
2830.9131,0.053172
2832.7768,0.052916
2834.6404,0.052919
2836.5041,0.052905
2838.3678,0.052984
2840.2314,0.053538
2842.0951,0.053980
2843.9588,0.054103
2845.8224,0.054354
2847.6861,0.054718
2849.5498,0.055402
2851.4134,0.055942
2853.2771,0.056518
2855.1408,0.057126
2857.0045,0.057756
2858.8681,0.058496
2860.7318,0.059021
2862.5955,0.059109
2864.4591,0.059059
2866.3228,0.059611
2868.1865,0.060286
2870.0501,0.060571
2871.9138,0.060880
2873.7775,0.061415
2875.6411,0.061976
2877.5048,0.062185
2879.3685,0.062637
2881.2321,0.063200
2883.0958,0.063543
2884.9595,0.063841
2886.8232,0.064195
2888.6868,0.064737
2890.5505,0.065346
2892.4142,0.065874
2894.2778,0.066384
2896.1415,0.066727
2898.0052,0.066995
2899.8688,0.066909
2901.7325,0.066916
2903.5962,0.066930
2905.4598,0.067358
2907.3235,0.067329
2909.1872,0.067349
2911.0509,0.067907
2912.9145,0.068493
2914.7782,0.068932
2916.6419,0.069620
2918.5055,0.070347
2920.3692,0.070910
2922.2329,0.071069
2924.0965,0.071510
2925.9602,0.071989
2927.8239,0.072445
2929.6875,0.072885
2931.5512,0.073616
2933.4149,0.074126
2935.2785,0.074189
2937.1422,0.074222
2939.0059,0.074267
2940.8696,0.074274
2942.7332,0.074435
2944.5969,0.074367
2946.4606,0.074332
2948.3242,0.074476
2950.1879,0.074400
2952.0516,0.074172
2953.9152,0.074556
2955.7789,0.074899
2957.6426,0.074765
2959.5062,0.074843
2961.3699,0.075452
2963.2336,0.075812
2965.0972,0.076345
2966.9609,0.076966
2968.8246,0.077491
2970.6883,0.078025
2972.5519,0.078644
2974.4156,0.078977
2976.2793,0.079534
2978.1429,0.080027
2980.0066,0.080488
2981.8703,0.080640
2983.7339,0.080803
2985.5976,0.081143
2987.4613,0.081380
2989.3249,0.081464
2991.1886,0.082124
2993.0523,0.082724
2994.9160,0.083210
2996.7796,0.083880
2998.6433,0.084758
3000.5070,0.085273
3002.3706,0.085569
3004.2343,0.086181
3006.0980,0.086931
3007.9616,0.087680
3009.8253,0.088320
3011.6890,0.088932
3013.5526,0.089603
3015.4163,0.090064
3017.2800,0.090539
3019.1436,0.090869
3021.0073,0.091458
3022.8710,0.091880
3024.7347,0.092096
3026.5983,0.092315
3028.4620,0.092536
3030.3257,0.092955
3032.1893,0.093349
3034.0530,0.093522
3035.9167,0.093926
3037.7803,0.094272
3039.6440,0.094489
3041.5077,0.094781
3043.3713,0.095268
3045.2350,0.095286
3047.0987,0.095566
3048.9624,0.096306
3050.8260,0.096776
3052.6897,0.096898
3054.5534,0.097202
3056.4170,0.097320
3058.2807,0.097382
3060.1444,0.097525
3062.0080,0.097653
3063.8717,0.097795
3065.7354,0.098225
3067.5990,0.098404
3069.4627,0.098397
3071.3264,0.098349
3073.1900,0.098537
3075.0537,0.098369
3076.9174,0.097888
3078.7811,0.097824
3080.6447,0.097986
3082.5084,0.097873
3084.3721,0.097482
3086.2357,0.096721
3088.0994,0.097004
3089.9631,0.097086
3091.8267,0.096307
3093.6904,0.095720
3095.5541,0.095483
3097.4177,0.094900
3099.2814,0.094274
3101.1451,0.093469
3103.0087,0.093105
3104.8724,0.093110
3106.7361,0.092695
3108.5998,0.091692
3110.4634,0.090884
3112.3271,0.090244
3114.1908,0.089568
3116.0544,0.089434
3117.9181,0.089430
3119.7818,0.088941
3121.6454,0.088215
3123.5091,0.087562
3125.3728,0.087192
3127.2364,0.086210
3129.1001,0.085492
3130.9638,0.085012
3132.8275,0.084766
3134.6911,0.084670
3136.5548,0.084491
3138.4185,0.084075
3140.2821,0.083644
3142.1458,0.083535
3144.0095,0.083354
3145.8731,0.082500
3147.7368,0.082045
3149.6005,0.081940
3151.4641,0.081876
3153.3278,0.081569
3155.1915,0.081706
3157.0551,0.081522
3158.9188,0.081377
3160.7825,0.080737
3162.6462,0.080021
3164.5098,0.079835
3166.3735,0.079845
3168.2372,0.079472
3170.1008,0.079184
3171.9645,0.079187
3173.8282,0.079009
3175.6918,0.078525
3177.5555,0.078346
3179.4192,0.078004
3181.2828,0.077767
3183.1465,0.077823
3185.0102,0.077874
3186.8739,0.077858
3188.7375,0.078035
3190.6012,0.077896
3192.4649,0.077803
3194.3285,0.077881
3196.1922,0.077783
3198.0559,0.077875
3199.9195,0.078314
3201.7832,0.078307
3203.6469,0.078308
3205.5105,0.078041
3207.3742,0.078379
3209.2379,0.078952
3211.1015,0.079130
3212.9652,0.078898
3214.8289,0.078996
3216.6926,0.079104
3218.5562,0.079175
3220.4199,0.079522
3222.2836,0.079989
3224.1472,0.079702
3226.0109,0.079515
3227.8746,0.079786
3229.7382,0.080419
3231.6019,0.080666
3233.4656,0.080658
3235.3292,0.080732
3237.1929,0.080994
3239.0566,0.081032
3240.9202,0.080968
3242.7839,0.081509
3244.6476,0.082130
3246.5113,0.082126
3248.3749,0.082683
3250.2386,0.083018
3252.1023,0.082969
3253.9659,0.083641
3255.8296,0.084184
3257.6933,0.083720
3259.5569,0.084043
3261.4206,0.084617
3263.2843,0.084490
3265.1479,0.084692
3267.0116,0.085630
3268.8753,0.085839
3270.7390,0.085487
3272.6026,0.085168
3274.4663,0.085340
3276.3300,0.085061
3278.1936,0.084620
3280.0573,0.084365
3281.9210,0.083419
3283.7846,0.082838
3285.6483,0.083515
3287.5120,0.083768
3289.3756,0.082996
3291.2393,0.082017
3293.1030,0.081595
3294.9666,0.081312
3296.8303,0.080876
3298.6940,0.080180
3300.5577,0.078913
3302.4213,0.077148
3304.2850,0.076469
3306.1487,0.075952
3308.0123,0.076088
3309.8760,0.076426
3311.7397,0.076596
3313.6033,0.076590
3315.4670,0.075660
3317.3307,0.074598
3319.1943,0.075083
3321.0580,0.075396
3322.9217,0.075121
3324.7854,0.075492
3326.6490,0.076391
3328.5127,0.076234
3330.3764,0.075928
3332.2400,0.075473
3334.1037,0.074942
3335.9674,0.075008
3337.8310,0.074799
3339.6947,0.073595
3341.5584,0.073097
3343.4220,0.072883
3345.2857,0.071381
3347.1494,0.069324
3349.0130,0.068682
3350.8767,0.069103
3352.7404,0.068586
3354.6041,0.066562
3356.4677,0.064777
3358.3314,0.064341
3360.1951,0.064267
3362.0587,0.063283
3363.9224,0.062095
3365.7861,0.061170
3367.6497,0.061233
3369.5134,0.061895
3371.3771,0.061864
3373.2407,0.060946
3375.1044,0.060251
3376.9681,0.060658
3378.8317,0.061258
3380.6954,0.061380
3382.5591,0.061036
3384.4228,0.060565
3386.2864,0.061098
3388.1501,0.061370
3390.0138,0.061264
3391.8774,0.061610
3393.7411,0.062155
3395.6048,0.062382
3397.4684,0.061991
3399.3321,0.061987
3401.1958,0.062322
3403.0594,0.062260
3404.9231,0.061333
3406.7868,0.059881
3408.6505,0.059062
3410.5141,0.057907
3412.3778,0.056321
3414.2415,0.055226
3416.1051,0.053526
3417.9688,0.050646
3419.8325,0.049372
3421.6961,0.048926
3423.5598,0.047817
3425.4235,0.046176
3427.2871,0.045243
3429.1508,0.044822
3431.0145,0.043930
3432.8781,0.043213
3434.7418,0.042176
3436.6055,0.040649
3438.4692,0.039948
3440.3328,0.039058
3442.1965,0.038582
3444.0602,0.037759
3445.9238,0.036909
3447.7875,0.036829
3449.6512,0.036691
3451.5148,0.036019
3453.3785,0.034927
3455.2422,0.033884
3457.1058,0.033355
3458.9695,0.033584
3460.8332,0.033846
3462.6969,0.033268
3464.5605,0.032448
3466.4242,0.031787
3468.2879,0.031857
3470.1515,0.032046
3472.0152,0.031088
3473.8789,0.029705
3475.7425,0.029231
3477.6062,0.029864
3479.4699,0.029773
3481.3335,0.028453
3483.1972,0.027505
3485.0609,0.026949
3486.9245,0.027562
3488.7882,0.027906
3490.6519,0.025849
3492.5156,0.024448
3494.3792,0.025240
3496.2429,0.026231
3498.1066,0.025894
3499.9702,0.023933
3501.8339,0.022194
3503.6976,0.021801
3505.5612,0.022315
3507.4249,0.022079
3509.2886,0.021833
3511.1522,0.021965
3513.0159,0.021636
3514.8796,0.021280
3516.7432,0.020606
3518.6069,0.019660
3520.4706,0.019410
3522.3343,0.019595
3524.1979,0.019541
3526.0616,0.018801
3527.9253,0.017447
3529.7889,0.016729
3531.6526,0.017042
3533.5163,0.017412
3535.3799,0.017644
3537.2436,0.017452
3539.1073,0.016285
3540.9709,0.015906
3542.8346,0.015674
3544.6983,0.015237
3546.5620,0.016027
3548.4256,0.016019
3550.2893,0.015313
3552.1530,0.015582
3554.0166,0.015972
3555.8803,0.015900
3557.7440,0.014853
3559.6076,0.013585
3561.4713,0.013546
3563.3350,0.013869
3565.1986,0.013577
3567.0623,0.012800
3568.9260,0.012129
3570.7896,0.012531
3572.6533,0.013067
3574.5170,0.013319
3576.3807,0.012691
3578.2443,0.012014
3580.1080,0.012054
3581.9717,0.011775
3583.8353,0.011939
3585.6990,0.012348
3587.5627,0.012255
3589.4263,0.011163
3591.2900,0.010445
3593.1537,0.010905
3595.0173,0.011545
3596.8810,0.011816
3598.7447,0.011386
3600.6084,0.011243
3602.4720,0.010967
3604.3357,0.010064
3606.1994,0.010145
3608.0630,0.010407
3609.9267,0.009806
3611.7904,0.009886
3613.6540,0.010643
3615.5177,0.010771
3617.3814,0.010270
3619.2450,0.010519
3621.1087,0.010992
3622.9724,0.010548
3624.8360,0.010029
3626.6997,0.009953
3628.5634,0.009853
3630.4271,0.009553
3632.2907,0.009855
3634.1544,0.010009
3636.0181,0.009864
3637.8817,0.010448
3639.7454,0.010869
3641.6091,0.010438
3643.4727,0.009788
3645.3364,0.009425
3647.2001,0.009843
3649.0637,0.010110
3650.9274,0.009710
3652.7911,0.009727
3654.6547,0.009816
3656.5184,0.009732
3658.3821,0.009470
3660.2458,0.009246
3662.1094,0.009397
3663.9731,0.009573
3665.8368,0.009589
3667.7004,0.009229
3669.5641,0.009067
3671.4278,0.009855
3673.2914,0.009790
3675.1551,0.009562
3677.0188,0.009595
3678.8824,0.009358
3680.7461,0.009871
3682.6098,0.010289
3684.4735,0.009906
3686.3371,0.009454
3688.2008,0.009260
3690.0645,0.008935
3691.9281,0.009227
3693.7918,0.010217
3695.6555,0.010642
3697.5191,0.010545
3699.3828,0.010474
3701.2465,0.010059
3703.1101,0.009534
3704.9738,0.010002
3706.8375,0.010399
3708.7011,0.009984
3710.5648,0.010032
3712.4285,0.010718
3714.2922,0.010925
3716.1558,0.010910
3718.0195,0.010804
3719.8832,0.010304
3721.7468,0.009950
3723.6105,0.009994
3725.4742,0.010382
3727.3378,0.010829
3729.2015,0.010682
3731.0652,0.010531
3732.9288,0.010484
3734.7925,0.010268
3736.6562,0.009864
3738.5199,0.009067
3740.3835,0.009245
3742.2472,0.009883
3744.1109,0.009500
3745.9745,0.009242
3747.8382,0.010639
3749.7019,0.011595
3751.5655,0.011503
3753.4292,0.010984
3755.2929,0.011032
3757.1565,0.011223
3759.0202,0.011316
3760.8839,0.011389
3762.7475,0.011418
3764.6112,0.011510
3766.4749,0.012016
3768.3386,0.012277
3770.2022,0.012054
3772.0659,0.012281
3773.9296,0.012759
3775.7932,0.012880
3777.6569,0.012596
3779.5206,0.011981
3781.3842,0.011561
3783.2479,0.011910
3785.1116,0.012652
3786.9752,0.012798
3788.8389,0.012487
3790.7026,0.012371
3792.5662,0.012120
3794.4299,0.011962
3796.2936,0.011870
3798.1573,0.011487
3800.0209,0.011551
3801.8846,0.012228
3803.7483,0.012614
3805.6119,0.012616
3807.4756,0.012404
3809.3393,0.011959
3811.2029,0.011881
3813.0666,0.012143
3814.9303,0.012551
3816.7939,0.013173
3818.6576,0.013420
3820.5213,0.012804
3822.3850,0.012042
3824.2486,0.011733
3826.1123,0.012004
3827.9760,0.012286
3829.8396,0.012252
3831.7033,0.011814
3833.5670,0.011873
3835.4306,0.012322
3837.2943,0.012594
3839.1580,0.012696
3841.0216,0.012318
3842.8853,0.011985
3844.7490,0.012208
3846.6126,0.012374
3848.4763,0.012221
3850.3400,0.012224
3852.2037,0.012331
3854.0673,0.012134
3855.9310,0.012015
3857.7947,0.012023
3859.6583,0.012038
3861.5220,0.012577
3863.3857,0.013158
3865.2493,0.013136
3867.1130,0.012640
3868.9767,0.012497
3870.8403,0.013125
3872.7040,0.013467
3874.5677,0.013468
3876.4314,0.013402
3878.2950,0.013226
3880.1587,0.013375
3882.0224,0.013304
3883.8860,0.013211
3885.7497,0.013473
3887.6134,0.013149
3889.4770,0.012926
3891.3407,0.013267
3893.2044,0.012862
3895.0680,0.012614
3896.9317,0.013195
3898.7954,0.013568
3900.6590,0.013802
3902.5227,0.014158
3904.3864,0.014412
3906.2501,0.014171
3908.1137,0.013854
3909.9774,0.013856
3911.8411,0.013759
3913.7047,0.013825
3915.5684,0.014122
3917.4321,0.013995
3919.2957,0.013770
3921.1594,0.013975
3923.0231,0.014199
3924.8867,0.013984
3926.7504,0.013709
3928.6141,0.013654
3930.4777,0.013821
3932.3414,0.014277
3934.2051,0.014437
3936.0688,0.014240
3937.9324,0.014098
3939.7961,0.014275
3941.6598,0.014073
3943.5234,0.013940
3945.3871,0.014705
3947.2508,0.014872
3949.1144,0.014034
3950.9781,0.014080
3952.8418,0.015003
3954.7054,0.014894
3956.5691,0.014249
3958.4328,0.014493
3960.2965,0.014594
3962.1601,0.014149
3964.0238,0.014209
3965.8875,0.014483
3967.7511,0.014570
3969.6148,0.014390
3971.4785,0.014273
3973.3421,0.014755
3975.2058,0.015033
3977.0695,0.014967
3978.9331,0.014938
3980.7968,0.014893
3982.6605,0.014783
3984.5241,0.014469
3986.3878,0.014417
3988.2515,0.014880
3990.1152,0.014848
3991.9788,0.014677
3993.8425,0.014975
3995.7062,0.014992
3997.5698,0.014587
3999.4335,0.014514
