Wavenumber,Intensity
650.4205,0.264890
652.2841,0.261205
654.1478,0.258821
656.0115,0.255031
657.8751,0.254066
659.7388,0.251857
661.6025,0.250320
663.4661,0.249628
665.3298,0.248557
667.1935,0.249661
669.0571,0.253021
670.9208,0.246864
672.7845,0.240756
674.6481,0.235977
676.5118,0.234239
678.3755,0.233213
680.2392,0.232427
682.1028,0.231312
683.9665,0.231227
685.8302,0.229748
687.6938,0.228285
689.5575,0.226552
691.4212,0.224534
693.2848,0.223609
695.1485,0.224308
697.0122,0.225420
698.8758,0.226717
700.7395,0.226557
702.6032,0.225484
704.4669,0.221043
706.3305,0.213261
708.1942,0.202760
710.0579,0.191539
711.9215,0.179683
713.7852,0.169150
715.6489,0.159649
717.5125,0.151619
719.3762,0.145474
721.2399,0.139701
723.1035,0.134340
724.9672,0.129951
726.8309,0.125540
728.6945,0.121019
730.5582,0.116907
732.4219,0.112929
734.2856,0.109135
736.1492,0.106108
738.0129,0.104858
739.8766,0.106082
741.7402,0.109277
743.6039,0.112762
745.4676,0.114267
747.3312,0.114109
749.1949,0.112726
751.0586,0.110837
752.9222,0.109148
754.7859,0.107917
756.6496,0.106920
758.5132,0.105785
760.3769,0.104871
762.2406,0.104525
764.1043,0.104443
765.9679,0.103906
767.8316,0.103564
769.6953,0.103932
771.5589,0.104284
773.4226,0.104696
775.2863,0.105477
777.1499,0.106587
779.0136,0.107786
780.8773,0.108973
782.7409,0.110262
784.6046,0.111731
786.4683,0.113707
788.3320,0.116002
790.1956,0.118074
792.0593,0.120294
793.9230,0.122891
795.7866,0.125437
797.6503,0.127955
799.5140,0.130163
801.3776,0.131782
803.2413,0.132674
805.1050,0.132345
806.9686,0.131038
808.8323,0.128933
810.6960,0.125762
812.5596,0.122273
814.4233,0.118842
816.2870,0.115056
818.1507,0.111398
820.0143,0.108378
821.8780,0.106246
823.7417,0.105029
825.6053,0.105339
827.4690,0.107499
829.3327,0.108883
831.1963,0.102571
833.0600,0.088937
834.9237,0.077527
836.7873,0.072046
838.6510,0.070085
840.5147,0.069459
842.3784,0.069158
844.2420,0.068915
846.1057,0.068726
847.9694,0.068788
849.8330,0.068873
851.6967,0.068697
853.5604,0.068618
855.4240,0.068695
857.2877,0.068915
859.1514,0.069060
861.0150,0.068988
862.8787,0.068846
864.7424,0.068921
866.6060,0.069254
868.4697,0.069575
870.3334,0.069834
872.1971,0.070080
874.0607,0.070373
875.9244,0.070918
877.7881,0.071516
879.6517,0.072064
881.5154,0.072415
883.3791,0.073022
885.2427,0.073912
887.1064,0.074645
888.9701,0.075346
890.8337,0.076201
892.6974,0.077065
894.5611,0.078178
896.4247,0.079611
898.2884,0.081255
900.1521,0.083300
902.0158,0.085819
903.8794,0.089038
905.7431,0.093240
907.6068,0.098433
909.4704,0.104826
911.3341,0.113686
913.1978,0.124813
915.0614,0.130812
916.9251,0.121255
918.7888,0.101516
920.6524,0.086356
922.5161,0.079746
924.3798,0.077995
926.2435,0.078246
928.1071,0.079051
929.9708,0.079890
931.8345,0.080949
933.6981,0.082201
935.5618,0.083515
937.4255,0.084686
939.2891,0.085685
941.1528,0.086752
943.0165,0.087918
944.8801,0.089082
946.7438,0.090334
948.6075,0.091527
950.4711,0.092771
952.3348,0.094207
954.1985,0.095743
956.0622,0.097451
957.9258,0.099170
959.7895,0.100772
961.6532,0.102558
963.5168,0.104653
965.3805,0.107216
967.2442,0.110276
969.1078,0.113764
970.9715,0.117514
972.8352,0.122022
974.6988,0.129078
976.5625,0.141017
978.4262,0.161140
980.2899,0.188910
982.1535,0.199532
984.0172,0.167927
985.8809,0.127662
987.7445,0.110408
989.6082,0.108601
991.4719,0.110418
993.3355,0.112649
995.1992,0.114750
997.0629,0.116974
998.9265,0.119220
1000.7902,0.121391
1002.6539,0.123510
1004.5175,0.125511
1006.3812,0.127407
1008.2449,0.129179
1010.1086,0.130746
1011.9722,0.132020
1013.8359,0.132911
1015.6996,0.133251
1017.5632,0.132964
1019.4269,0.132190
1021.2906,0.131230
1023.1542,0.130247
1025.0179,0.129093
1026.8816,0.128115
1028.7452,0.127648
1030.6089,0.127506
1032.4726,0.127575
1034.3362,0.127958
1036.1999,0.128935
1038.0636,0.130588
1039.9273,0.132609
1041.7909,0.135252
1043.6546,0.138622
1045.5183,0.142155
1047.3819,0.144577
1049.2456,0.143017
1051.1093,0.134886
1052.9729,0.122190
1054.8366,0.110539
1056.7003,0.103277
1058.5639,0.100045
1060.4276,0.099145
1062.2913,0.099243
1064.1550,0.099775
1066.0186,0.100569
1067.8823,0.101713
1069.7460,0.103305
1071.6096,0.105117
1073.4733,0.107005
1075.3370,0.109081
1077.2006,0.111175
1079.0643,0.113325
1080.9280,0.115727
1082.7916,0.118256
1084.6553,0.120993
1086.5190,0.124303
1088.3826,0.128145
1090.2463,0.132377
1092.1100,0.137280
1093.9737,0.143134
1095.8373,0.149814
1097.7010,0.157214
1099.5647,0.165388
1101.4283,0.174032
1103.2920,0.182186
1105.1557,0.188258
1107.0193,0.189953
1108.8830,0.185145
1110.7467,0.173770
1112.6103,0.158312
1114.4740,0.142027
1116.3377,0.127179
1118.2014,0.114982
1120.0650,0.105885
1121.9287,0.099560
1123.7924,0.095190
1125.6560,0.091896
1127.5197,0.089024
1129.3834,0.086251
1131.2470,0.083749
1133.1107,0.081685
1134.9744,0.079951
1136.8380,0.078607
1138.7017,0.077840
1140.5654,0.077501
1142.4290,0.077325
1144.2927,0.077410
1146.1564,0.077726
1148.0201,0.078077
1149.8837,0.078475
1151.7474,0.078967
1153.6111,0.079508
1155.4747,0.080202
1157.3384,0.081165
1159.2021,0.082297
1161.0657,0.083602
1162.9294,0.085305
1164.7931,0.087786
1166.6567,0.091264
1168.5204,0.095640
1170.3841,0.100468
1172.2477,0.104145
1174.1114,0.104054
1175.9751,0.099517
1177.8388,0.093026
1179.7024,0.087381
1181.5661,0.083889
1183.4298,0.082406
1185.2934,0.082158
1187.1571,0.082322
1189.0208,0.082390
1190.8844,0.082343
1192.7481,0.082240
1194.6118,0.082207
1196.4754,0.082408
1198.3391,0.082786
1200.2028,0.083216
1202.0665,0.083657
1203.9301,0.084139
1205.7938,0.084668
1207.6575,0.085197
1209.5211,0.085777
1211.3848,0.086474
1213.2485,0.087161
1215.1121,0.087765
1216.9758,0.088408
1218.8395,0.089033
1220.7031,0.089597
1222.5668,0.090248
1224.4305,0.090920
1226.2941,0.091481
1228.1578,0.091998
1230.0215,0.092547
1231.8852,0.093141
1233.7488,0.093755
1235.6125,0.094263
1237.4762,0.094789
1239.3398,0.095491
1241.2035,0.096141
1243.0672,0.096722
1244.9308,0.097395
1246.7945,0.098088
1248.6582,0.098822
1250.5218,0.099660
1252.3855,0.100563
1254.2492,0.101437
1256.1129,0.102327
1257.9765,0.103387
1259.8402,0.104650
1261.7039,0.106031
1263.5675,0.107408
1265.4312,0.108546
1267.2949,0.109178
1269.1585,0.109339
1271.0222,0.109256
1272.8859,0.109210
1274.7495,0.109518
1276.6132,0.110391
1278.4769,0.111679
1280.3405,0.113279
1282.2042,0.115250
1284.0679,0.117430
1285.9316,0.119876
1287.7952,0.122826
1289.6589,0.126202
1291.5226,0.130094
1293.3862,0.134666
1295.2499,0.139989
1297.1136,0.146298
1298.9772,0.153856
1300.8409,0.163027
1302.7046,0.173381
1304.5682,0.182231
1306.4319,0.183905
1308.2956,0.171543
1310.1592,0.145452
1312.0229,0.117590
1313.8866,0.099141
1315.7503,0.091953
1317.6139,0.091390
1319.4776,0.093608
1321.3413,0.096494
1323.2049,0.099468
1325.0686,0.102896
1326.9323,0.106465
1328.7959,0.109848
1330.6596,0.112992
1332.5233,0.115501
1334.3869,0.117154
1336.2506,0.118486
1338.1143,0.120640
1339.9780,0.123329
1341.8416,0.124102
1343.7053,0.123840
1345.5690,0.124501
1347.4326,0.125826
1349.2963,0.127458
1351.1600,0.129309
1353.0236,0.131557
1354.8873,0.134431
1356.7510,0.137332
1358.6146,0.139932
1360.4783,0.143703
1362.3420,0.150088
1364.2056,0.155674
1366.0693,0.158398
1367.9330,0.162558
1369.7967,0.167713
1371.6603,0.171934
1373.5240,0.178192
1375.3877,0.185388
1377.2513,0.189906
1379.1150,0.195640
1380.9787,0.203406
1382.8423,0.211461
1384.7060,0.220052
1386.5697,0.231506
1388.4333,0.244284
1390.2970,0.250589
1392.1607,0.253647
1394.0244,0.255061
1395.8880,0.248908
1397.7517,0.236799
1399.6154,0.222984
1401.4790,0.209582
1403.3427,0.197857
1405.2064,0.181058
1407.0700,0.158109
1408.9337,0.135352
1410.7974,0.114839
1412.6610,0.100427
1414.5247,0.093822
1416.3884,0.093746
1418.2520,0.100520
1420.1157,0.112103
1421.9794,0.116987
1423.8431,0.113742
1425.7067,0.101991
1427.5704,0.089768
1429.4341,0.083268
1431.2977,0.081458
1433.1614,0.081660
1435.0251,0.083680
1436.8887,0.088811
1438.7524,0.091830
1440.6161,0.092364
1442.4797,0.094051
1444.3434,0.095680
1446.2071,0.096986
1448.0707,0.097677
1449.9344,0.095551
1451.7981,0.091445
1453.6618,0.087429
1455.5254,0.086630
1457.3891,0.091996
1459.2528,0.094111
1461.1164,0.092007
1462.9801,0.091810
1464.8438,0.093298
1466.7074,0.092584
1468.5711,0.089649
1470.4348,0.088348
1472.2984,0.090127
1474.1621,0.092138
1476.0258,0.091900
1477.8895,0.091629
1479.7531,0.091466
1481.6168,0.092424
1483.4805,0.093038
1485.3441,0.093290
1487.2078,0.095001
1489.0715,0.098851
1490.9351,0.102009
1492.7988,0.101318
1494.6625,0.101286
1496.5261,0.105170
1498.3898,0.108880
1500.2535,0.109418
1502.1171,0.108457
1503.9808,0.107885
1505.8445,0.112382
1507.7082,0.123592
1509.5718,0.122480
1511.4355,0.120958
1513.2992,0.121587
1515.1628,0.122967
1517.0265,0.125793
1518.8902,0.127347
1520.7538,0.129812
1522.6175,0.134218
1524.4812,0.133843
1526.3448,0.135080
1528.2085,0.136450
1530.0722,0.136085
1531.9359,0.137628
1533.7995,0.141819
1535.6632,0.141856
1537.5269,0.140769
1539.3905,0.146465
1541.2542,0.155958
1543.1179,0.156559
1544.9815,0.157572
1546.8452,0.158015
1548.7089,0.159042
1550.5725,0.162140
1552.4362,0.163922
1554.2999,0.165479
1556.1635,0.168184
1558.0272,0.175358
1559.8909,0.191075
1561.7546,0.186098
1563.6182,0.183582
1565.4819,0.186211
1567.3456,0.189325
1569.2092,0.194717
1571.0729,0.200247
1572.9366,0.200361
1574.8002,0.204217
1576.6639,0.213869
1578.5276,0.217523
1580.3912,0.217841
1582.2549,0.220803
1584.1186,0.223687
1585.9822,0.225942
1587.8459,0.227331
1589.7096,0.228224
1591.5733,0.228207
1593.4369,0.227358
1595.3006,0.225819
1597.1643,0.223434
1599.0279,0.220304
1600.8916,0.217675
1602.7553,0.215147
1604.6189,0.212481
1606.4826,0.210215
1608.3463,0.208426
1610.2099,0.206138
1612.0736,0.202545
1613.9373,0.198429
1615.8010,0.194251
1617.6646,0.186403
1619.5283,0.176717
1621.3920,0.169766
1623.2556,0.161930
1625.1193,0.151990
1626.9830,0.142582
1628.8466,0.131428
1630.7103,0.119821
1632.5740,0.110357
1634.4376,0.101855
1636.3013,0.093002
1638.1650,0.086647
1640.0286,0.084344
1641.8923,0.082976
1643.7560,0.083244
1645.6197,0.085757
1647.4833,0.090287
1649.3470,0.091886
1651.2107,0.093845
1653.0743,0.101313
1654.9380,0.106858
1656.8017,0.104516
1658.6653,0.104317
1660.5290,0.104338
1662.3927,0.103567
1664.2563,0.100875
1666.1200,0.097550
1667.9837,0.094981
1669.8474,0.092947
1671.7110,0.090876
1673.5747,0.090729
1675.4384,0.093437
1677.3020,0.096957
1679.1657,0.099612
1681.0294,0.104386
1682.8930,0.110302
1684.7567,0.118669
1686.6204,0.120163
1688.4840,0.117881
1690.3477,0.115501
1692.2114,0.111536
1694.0750,0.107404
1695.9387,0.102938
1697.8024,0.096933
1699.6661,0.092554
1701.5297,0.083803
1703.3934,0.075333
1705.2571,0.066291
1707.1207,0.055181
1708.9844,0.047478
1710.8481,0.041994
1712.7117,0.037519
1714.5754,0.034684
1716.4391,0.032598
1718.3027,0.031467
1720.1664,0.029999
1722.0301,0.028671
1723.8937,0.026782
1725.7574,0.024466
1727.6211,0.022150
1729.4848,0.020240
1731.3484,0.018457
1733.2121,0.017274
1735.0758,0.016027
1736.9394,0.015555
1738.8031,0.015250
1740.6668,0.014970
1742.5304,0.014570
1744.3941,0.014295
1746.2578,0.013626
1748.1214,0.013223
1749.9851,0.013010
1751.8488,0.012926
1753.7125,0.012467
1755.5761,0.012300
1757.4398,0.012235
1759.3035,0.012202
1761.1671,0.012124
1763.0308,0.012194
1764.8945,0.011954
1766.7581,0.011943
1768.6218,0.011881
1770.4855,0.011797
1772.3491,0.011702
1774.2128,0.011889
1776.0765,0.011850
1777.9401,0.011968
1779.8038,0.012005
1781.6675,0.012211
1783.5312,0.012231
1785.3948,0.012243
1787.2585,0.012026
1789.1222,0.011990
1790.9858,0.012204
1792.8495,0.012349
1794.7132,0.012059
1796.5768,0.012077
1798.4405,0.012222
1800.3042,0.012475
1802.1678,0.012473
1804.0315,0.012547
1805.8952,0.012621
1807.7589,0.012813
1809.6225,0.012950
1811.4862,0.013034
1813.3499,0.012739
1815.2135,0.012567
1817.0772,0.012502
1818.9409,0.012651
1820.8045,0.012704
1822.6682,0.012790
1824.5319,0.012763
1826.3955,0.012732
1828.2592,0.012559
1830.1229,0.012612
1831.9865,0.012287
1833.8502,0.012153
1835.7139,0.011911
1837.5776,0.011967
1839.4412,0.012182
1841.3049,0.012333
1843.1686,0.012403
1845.0322,0.012621
1846.8959,0.012434
1848.7596,0.012490
1850.6232,0.012405
1852.4869,0.012516
1854.3506,0.012767
1856.2142,0.012900
1858.0779,0.012613
1859.9416,0.012718
1861.8052,0.012736
1863.6689,0.012529
1865.5326,0.012417
1867.3963,0.012663
1869.2599,0.012797
1871.1236,0.012696
1872.9873,0.012454
1874.8509,0.012764
1876.7146,0.012750
1878.5783,0.012535
1880.4419,0.012623
1882.3056,0.013040
1884.1693,0.012971
1886.0329,0.012729
1887.8966,0.012591
1889.7603,0.012804
1891.6240,0.012572
1893.4876,0.012556
1895.3513,0.012513
1897.2150,0.012576
1899.0786,0.012491
1900.9423,0.012613
1902.8060,0.012783
1904.6696,0.013089
1906.5333,0.012568
1908.3970,0.012368
1910.2606,0.012618
1912.1243,0.012882
1913.9880,0.012974
1915.8516,0.013164
1917.7153,0.012770
1919.5790,0.012642
1921.4427,0.012447
1923.3063,0.011994
1925.1700,0.011901
1927.0337,0.012695
1928.8973,0.012842
1930.7610,0.012660
1932.6247,0.012418
1934.4883,0.012362
1936.3520,0.011677
1938.2157,0.012098
1940.0793,0.012344
1941.9430,0.012447
1943.8067,0.010952
1945.6704,0.010192
1947.5340,0.010177
1949.3977,0.011026
1951.2614,0.011254
1953.1250,0.010681
1954.9887,0.010012
1956.8524,0.009607
1958.7160,0.008779
1960.5797,0.008986
1962.4434,0.008193
1964.3070,0.006825
1966.1707,0.005360
1968.0344,0.005297
1969.8980,0.005621
1971.7617,0.006355
1973.6254,0.005682
1975.4891,0.005280
1977.3527,0.005320
1979.2164,0.006035
1981.0801,0.005687
1982.9437,0.007106
1984.8074,0.007611
1986.6711,0.007754
1988.5347,0.008205
1990.3984,0.007998
1992.2621,0.007336
1994.1257,0.008124
1995.9894,0.008125
1997.8531,0.008597
1999.7167,0.009113
2001.5804,0.009432
2003.4441,0.009569
2005.3078,0.009632
2007.1714,0.008642
2009.0351,0.008494
2010.8988,0.007667
2012.7624,0.006520
2014.6261,0.005487
2016.4898,0.006236
2018.3534,0.005591
2020.2171,0.005350
2022.0808,0.005020
2023.9444,0.005295
2025.8081,0.005373
2027.6718,0.005968
2029.5355,0.005316
2031.3991,0.006169
2033.2628,0.007006
2035.1265,0.007401
2036.9901,0.007411
2038.8538,0.008553
2040.7175,0.009076
2042.5811,0.009294
2044.4448,0.008408
2046.3085,0.008843
2048.1721,0.010037
2050.0358,0.011409
2051.8995,0.012230
2053.7631,0.012132
2055.6268,0.012004
2057.4905,0.013175
2059.3542,0.013588
2061.2178,0.013613
2063.0815,0.013367
2064.9452,0.013948
2066.8088,0.014536
2068.6725,0.014100
2070.5362,0.014248
2072.3998,0.014882
2074.2635,0.014607
2076.1272,0.014598
2077.9908,0.015307
2079.8545,0.016276
2081.7182,0.016460
2083.5819,0.016648
2085.4455,0.016225
2087.3092,0.016029
2089.1729,0.016177
2091.0365,0.016378
2092.9002,0.015735
2094.7639,0.015850
2096.6275,0.016558
2098.4912,0.016766
2100.3549,0.016448
2102.2185,0.016209
2104.0822,0.016114
2105.9459,0.016900
2107.8095,0.017027
2109.6732,0.016551
2111.5369,0.016729
2113.4006,0.017451
2115.2642,0.017182
2117.1279,0.016749
2118.9916,0.016497
2120.8552,0.017161
2122.7189,0.017563
2124.5826,0.017166
2126.4462,0.017287
2128.3099,0.017818
2130.1736,0.017087
2132.0372,0.015594
2133.9009,0.015019
2135.7646,0.014936
2137.6282,0.014513
2139.4919,0.014364
2141.3556,0.013985
2143.2193,0.013762
2145.0829,0.013240
2146.9466,0.012973
2148.8103,0.011667
2150.6739,0.011104
2152.5376,0.010109
2154.4013,0.008535
2156.2649,0.007727
2158.1286,0.008339
2159.9923,0.007648
2161.8559,0.009524
2163.7196,0.009979
2165.5833,0.009898
2167.4470,0.009859
2169.3106,0.010291
2171.1743,0.011216
2173.0380,0.012215
2174.9016,0.011969
2176.7653,0.011681
2178.6290,0.010687
2180.4926,0.011475
2182.3563,0.012453
2184.2200,0.011977
2186.0836,0.011875
2187.9473,0.014109
2189.8110,0.014638
2191.6746,0.014486
2193.5383,0.014669
2195.4020,0.014624
2197.2657,0.014443
2199.1293,0.014646
2200.9930,0.015426
2202.8567,0.015605
2204.7203,0.015896
2206.5840,0.016504
2208.4477,0.016711
2210.3113,0.016923
2212.1750,0.016814
2214.0387,0.017164
2215.9023,0.016495
2217.7660,0.016207
2219.6297,0.015862
2221.4934,0.016836
2223.3570,0.017704
2225.2207,0.017561
2227.0844,0.017981
2228.9480,0.018369
2230.8117,0.018571
2232.6754,0.019283
2234.5390,0.019307
2236.4027,0.019649
2238.2664,0.020115
2240.1300,0.020413
2241.9937,0.020118
2243.8574,0.019986
2245.7210,0.019962
2247.5847,0.019568
2249.4484,0.019675
2251.3121,0.020772
2253.1757,0.020721
2255.0394,0.020380
2256.9031,0.020366
2258.7667,0.020962
2260.6304,0.021162
2262.4941,0.022074
2264.3577,0.022754
2266.2214,0.022538
2268.0851,0.022328
2269.9487,0.022891
2271.8124,0.023325
2273.6761,0.023683
2275.5397,0.024235
2277.4034,0.024776
2279.2671,0.024781
2281.1308,0.024736
2282.9944,0.025145
2284.8581,0.025633
2286.7218,0.025501
2288.5854,0.025653
2290.4491,0.025881
2292.3128,0.026150
2294.1764,0.026150
2296.0401,0.026047
2297.9038,0.025827
2299.7674,0.025914
2301.6311,0.026114
2303.4948,0.026661
2305.3585,0.026524
2307.2221,0.026092
2309.0858,0.026145
2310.9495,0.026176
2312.8131,0.026129
2314.6768,0.026135
2316.5405,0.026261
2318.4041,0.026343
2320.2678,0.026401
2322.1315,0.026538
2323.9951,0.026319
2325.8588,0.025851
2327.7225,0.025288
2329.5861,0.025208
2331.4498,0.025090
2333.3135,0.024991
2335.1772,0.024980
2337.0408,0.024976
2338.9045,0.024766
2340.7682,0.025082
2342.6318,0.025314
2344.4955,0.025463
2346.3592,0.025300
2348.2228,0.024956
2350.0865,0.024687
2351.9502,0.024404
2353.8138,0.024330
2355.6775,0.024389
2357.5412,0.024375
2359.4049,0.024551
2361.2685,0.024400
2363.1322,0.023976
2364.9959,0.024168
2366.8595,0.024629
2368.7232,0.025198
2370.5869,0.025969
2372.4505,0.026236
2374.3142,0.026046
2376.1779,0.025968
2378.0415,0.026254
2379.9052,0.026640
2381.7689,0.026699
2383.6325,0.026562
2385.4962,0.026610
2387.3599,0.026774
2389.2236,0.026570
2391.0872,0.026594
2392.9509,0.026912
2394.8146,0.026936
2396.6782,0.026895
2398.5419,0.026955
2400.4056,0.026996
2402.2692,0.027012
2404.1329,0.027221
2405.9966,0.027278
2407.8602,0.027177
2409.7239,0.027024
2411.5876,0.027114
2413.4512,0.027362
2415.3149,0.027495
2417.1786,0.027475
2419.0423,0.027645
2420.9059,0.027752
2422.7696,0.027756
2424.6333,0.027751
2426.4969,0.028005
2428.3606,0.028164
2430.2243,0.028119
2432.0879,0.028297
2433.9516,0.028785
2435.8153,0.028651
2437.6789,0.028256
2439.5426,0.028427
2441.4063,0.028311
2443.2700,0.028148
2445.1336,0.028499
2446.9973,0.028573
2448.8610,0.028111
2450.7246,0.028020
2452.5883,0.028195
2454.4520,0.028494
2456.3156,0.028858
2458.1793,0.028682
2460.0430,0.028305
2461.9066,0.027883
2463.7703,0.027749
2465.6340,0.027827
2467.4976,0.027878
2469.3613,0.027793
2471.2250,0.027855
2473.0887,0.027785
2474.9523,0.028000
2476.8160,0.028163
2478.6797,0.028302
2480.5433,0.028519
2482.4070,0.028637
2484.2707,0.028744
2486.1343,0.028708
2487.9980,0.028720
2489.8617,0.029092
2491.7253,0.029181
2493.5890,0.029270
2495.4527,0.029342
2497.3164,0.029531
2499.1800,0.029572
2501.0437,0.029646
2502.9074,0.029783
2504.7710,0.029794
2506.6347,0.029876
2508.4984,0.029925
2510.3620,0.029920
2512.2257,0.029732
2514.0894,0.029512
2515.9530,0.029806
2517.8167,0.030657
2519.6804,0.030890
2521.5440,0.030407
2523.4077,0.030521
2525.2714,0.030673
2527.1351,0.030714
2528.9987,0.030975
2530.8624,0.031130
2532.7261,0.031049
2534.5897,0.030673
2536.4534,0.030822
2538.3171,0.031096
2540.1807,0.031256
2542.0444,0.031339
2543.9081,0.030800
2545.7717,0.030957
2547.6354,0.031266
2549.4991,0.030896
2551.3627,0.030946
2553.2264,0.031245
2555.0901,0.031319
2556.9538,0.031224
2558.8174,0.031160
2560.6811,0.031600
2562.5448,0.032050
2564.4084,0.031801
2566.2721,0.031786
2568.1358,0.032029
2569.9994,0.031932
2571.8631,0.032291
2573.7268,0.032885
2575.5904,0.032842
2577.4541,0.032889
2579.3178,0.033047
2581.1815,0.033167
2583.0451,0.033601
2584.9088,0.033794
2586.7725,0.033853
2588.6361,0.034149
2590.4998,0.034165
2592.3635,0.034236
2594.2271,0.034727
2596.0908,0.035022
2597.9545,0.034977
2599.8181,0.034934
2601.6818,0.035180
2603.5455,0.035613
2605.4091,0.035829
2607.2728,0.035658
2609.1365,0.035731
2611.0002,0.035890
2612.8638,0.036044
2614.7275,0.036391
2616.5912,0.036532
2618.4548,0.036516
2620.3185,0.036442
2622.1822,0.036664
2624.0458,0.037238
2625.9095,0.037772
2627.7732,0.038283
2629.6368,0.038421
2631.5005,0.038652
2633.3642,0.038699
2635.2279,0.038908
2637.0915,0.039428
2638.9552,0.039836
2640.8189,0.039986
2642.6825,0.040114
2644.5462,0.040480
2646.4099,0.040807
2648.2735,0.040856
2650.1372,0.040978
2652.0009,0.041167
2653.8645,0.041287
2655.7282,0.041384
2657.5919,0.041397
2659.4555,0.041567
2661.3192,0.041725
2663.1829,0.041782
2665.0466,0.041868
2666.9102,0.041960
2668.7739,0.042102
2670.6376,0.042215
2672.5012,0.042334
2674.3649,0.042536
2676.2286,0.042773
2678.0922,0.043022
2679.9559,0.043364
2681.8196,0.043660
2683.6832,0.043726
2685.5469,0.043713
2687.4106,0.044027
2689.2742,0.044409
2691.1379,0.044619
2693.0016,0.044893
2694.8653,0.045358
2696.7289,0.045699
2698.5926,0.045937
2700.4563,0.046436
2702.3199,0.046908
2704.1836,0.047290
2706.0473,0.047697
2707.9109,0.048007
2709.7746,0.048215
2711.6383,0.048618
2713.5019,0.048988
2715.3656,0.049401
2717.2293,0.049837
2719.0930,0.050297
2720.9566,0.050671
2722.8203,0.050921
2724.6840,0.051388
2726.5476,0.052162
2728.4113,0.052931
2730.2750,0.053376
2732.1386,0.053679
2734.0023,0.054260
2735.8660,0.054813
2737.7296,0.055417
2739.5933,0.056066
2741.4570,0.056640
2743.3206,0.057095
2745.1843,0.057511
2747.0480,0.058171
2748.9117,0.059090
2750.7753,0.059969
2752.6390,0.060591
2754.5027,0.060922
2756.3663,0.061350
2758.2300,0.062007
2760.0937,0.062786
2761.9573,0.063549
2763.8210,0.064257
2765.6847,0.065037
2767.5483,0.065817
2769.4120,0.066286
2771.2757,0.067020
2773.1394,0.067791
2775.0030,0.068800
2776.8667,0.070117
2778.7304,0.070663
2780.5940,0.070479
2782.4577,0.070644
2784.3214,0.070744
2786.1850,0.070368
2788.0487,0.069916
2789.9124,0.069666
2791.7760,0.069355
2793.6397,0.068562
2795.5034,0.067487
2797.3670,0.067010
2799.2307,0.066820
2801.0944,0.066351
2802.9581,0.065418
2804.8217,0.064799
2806.6854,0.064503
2808.5491,0.064351
2810.4127,0.064179
2812.2764,0.064089
2814.1401,0.063837
2816.0037,0.063628
2817.8674,0.063634
2819.7311,0.063970
2821.5947,0.064383
2823.4584,0.064618
2825.3221,0.064392
2827.1857,0.063935
2829.0494,0.063522
2830.9131,0.063131
2832.7768,0.062643
2834.6404,0.062544
2836.5041,0.062895
2838.3678,0.063368
2840.2314,0.063669
2842.0951,0.064025
2843.9588,0.064422
2845.8224,0.064817
2847.6861,0.065536
2849.5498,0.066398
2851.4134,0.067101
2853.2771,0.067986
2855.1408,0.068923
2857.0045,0.069598
2858.8681,0.070182
2860.7318,0.071053
2862.5955,0.071757
2864.4591,0.072172
2866.3228,0.072393
2868.1865,0.072389
2870.0501,0.072590
2871.9138,0.073271
2873.7775,0.073752
2875.6411,0.074023
2877.5048,0.074506
2879.3685,0.074998
2881.2321,0.075434
2883.0958,0.076159
2884.9595,0.076739
2886.8232,0.077319
2888.6868,0.078076
2890.5505,0.078648
2892.4142,0.079238
2894.2778,0.079998
2896.1415,0.080516
2898.0052,0.080863
2899.8688,0.081017
2901.7325,0.080996
2903.5962,0.081135
2905.4598,0.081400
2907.3235,0.081477
2909.1872,0.082042
2911.0509,0.082744
2912.9145,0.083156
2914.7782,0.084055
2916.6419,0.085173
2918.5055,0.085990
2920.3692,0.086986
2922.2329,0.087811
2924.0965,0.088385
2925.9602,0.089113
2927.8239,0.089782
2929.6875,0.090451
2931.5512,0.091192
2933.4149,0.091887
2935.2785,0.092539
2937.1422,0.092884
2939.0059,0.093280
2940.8696,0.093742
2942.7332,0.094086
2944.5969,0.094279
2946.4606,0.094693
2948.3242,0.094947
2950.1879,0.095131
2952.0516,0.095624
2953.9152,0.096351
2955.7789,0.096936
2957.6426,0.097569
2959.5062,0.098280
2961.3699,0.098914
2963.2336,0.099717
2965.0972,0.100881
2966.9609,0.102027
2968.8246,0.103078
2970.6883,0.103866
2972.5519,0.104685
2974.4156,0.105580
2976.2793,0.106379
2978.1429,0.106593
2980.0066,0.106736
2981.8703,0.107049
2983.7339,0.107053
2985.5976,0.107362
2987.4613,0.108274
2989.3249,0.109082
2991.1886,0.109884
2993.0523,0.110474
2994.9160,0.111416
2996.7796,0.112643
2998.6433,0.113846
3000.5070,0.114777
3002.3706,0.115713
3004.2343,0.116562
3006.0980,0.117568
3007.9616,0.118456
3009.8253,0.119441
3011.6890,0.120440
3013.5526,0.121579
3015.4163,0.122329
3017.2800,0.123149
3019.1436,0.123404
3021.0073,0.123630
3022.8710,0.124189
3024.7347,0.124856
3026.5983,0.125214
3028.4620,0.125902
3030.3257,0.126809
3032.1893,0.127291
3034.0530,0.127059
3035.9167,0.127564
3037.7803,0.128136
3039.6440,0.128411
3041.5077,0.128864
3043.3713,0.129541
3045.2350,0.129658
3047.0987,0.129884
3048.9624,0.130457
3050.8260,0.131220
3052.6897,0.131777
3054.5534,0.131948
3056.4170,0.131811
3058.2807,0.132098
3060.1444,0.132263
3062.0080,0.132526
3063.8717,0.132636
3065.7354,0.132611
3067.5990,0.132788
3069.4627,0.133040
3071.3264,0.132874
3073.1900,0.132799
3075.0537,0.132171
3076.9174,0.131919
3078.7811,0.132124
3080.6447,0.132249
3082.5084,0.131652
3084.3721,0.130960
3086.2357,0.130368
3088.0994,0.129724
3089.9631,0.128635
3091.8267,0.127863
3093.6904,0.127234
3095.5541,0.126181
3097.4177,0.124781
3099.2814,0.123738
3101.1451,0.122978
3103.0087,0.122284
3104.8724,0.121001
3106.7361,0.119837
3108.5998,0.118426
3110.4634,0.117157
3112.3271,0.115941
3114.1908,0.115120
3116.0544,0.114412
3117.9181,0.113400
3119.7818,0.111975
3121.6454,0.111395
3123.5091,0.110527
3125.3728,0.109185
3127.2364,0.107823
3129.1001,0.106603
3130.9638,0.105867
3132.8275,0.105451
3134.6911,0.104604
3136.5548,0.103811
3138.4185,0.103324
3140.2821,0.103431
3142.1458,0.102676
3144.0095,0.101396
3145.8731,0.100706
3147.7368,0.099814
3149.6005,0.098857
3151.4641,0.098891
3153.3278,0.099100
3155.1915,0.098876
3157.0551,0.097962
3158.9188,0.097062
3160.7825,0.096151
3162.6462,0.095373
3164.5098,0.094593
3166.3735,0.094083
3168.2372,0.093855
3170.1008,0.093484
3171.9645,0.092623
3173.8282,0.092474
3175.6918,0.092579
3177.5555,0.092460
3179.4192,0.092270
3181.2828,0.091876
3183.1465,0.091129
3185.0102,0.090750
3186.8739,0.090366
3188.7375,0.090133
3190.6012,0.090486
3192.4649,0.090457
3194.3285,0.090413
3196.1922,0.091003
3198.0559,0.091149
3199.9195,0.091148
3201.7832,0.090991
3203.6469,0.090542
3205.5105,0.090486
3207.3742,0.090609
3209.2379,0.090763
3211.1015,0.091393
3212.9652,0.091678
3214.8289,0.091872
3216.6926,0.091988
3218.5562,0.092147
3220.4199,0.092763
3222.2836,0.093203
3224.1472,0.092888
3226.0109,0.092954
3227.8746,0.093076
3229.7382,0.093076
3231.6019,0.093489
3233.4656,0.094806
3235.3292,0.095595
3237.1929,0.095931
3239.0566,0.096173
3240.9202,0.096044
3242.7839,0.096210
3244.6476,0.097203
3246.5113,0.097728
3248.3749,0.097934
3250.2386,0.098367
3252.1023,0.098711
3253.9659,0.099150
3255.8296,0.100361
3257.6933,0.101028
3259.5569,0.101113
3261.4206,0.101417
3263.2843,0.102164
3265.1479,0.102750
3267.0116,0.103188
3268.8753,0.103495
3270.7390,0.103370
3272.6026,0.102973
3274.4663,0.102937
3276.3300,0.102418
3278.1936,0.101965
3280.0573,0.101783
3281.9210,0.101918
3283.7846,0.101510
3285.6483,0.100824
3287.5120,0.099495
3289.3756,0.098376
3291.2393,0.098392
3293.1030,0.097836
3294.9666,0.096108
3296.8303,0.095249
3298.6940,0.094516
3300.5577,0.092702
3302.4213,0.091243
3304.2850,0.090684
3306.1487,0.089745
3308.0123,0.089041
3309.8760,0.088924
3311.7397,0.088425
3313.6033,0.087597
3315.4670,0.087225
3317.3307,0.087551
3319.1943,0.087691
3321.0580,0.087305
3322.9217,0.087656
3324.7854,0.087978
3326.6490,0.088104
3328.5127,0.088101
3330.3764,0.087799
3332.2400,0.087302
3334.1037,0.086956
3335.9674,0.086017
3337.8310,0.085466
3339.6947,0.084905
3341.5584,0.083187
3343.4220,0.081558
3345.2857,0.080137
3347.1494,0.078746
3349.0130,0.077051
3350.8767,0.074723
3352.7404,0.073965
3354.6041,0.073697
3356.4677,0.072020
3358.3314,0.069887
3360.1951,0.068805
3362.0587,0.068363
3363.9224,0.068064
3365.7861,0.067137
3367.6497,0.066451
3369.5134,0.066459
3371.3771,0.066184
3373.2407,0.065949
3375.1044,0.066257
3376.9681,0.066450
3378.8317,0.066609
3380.6954,0.066965
3382.5591,0.067610
3384.4228,0.068349
3386.2864,0.069068
3388.1501,0.069439
3390.0138,0.070004
3391.8774,0.070419
3393.7411,0.070940
3395.6048,0.071123
3397.4684,0.070567
3399.3321,0.070589
3401.1958,0.071505
3403.0594,0.071858
3404.9231,0.070308
3406.7868,0.067720
3408.6505,0.065899
3410.5141,0.064303
3412.3778,0.062562
3414.2415,0.060513
3416.1051,0.058806
3417.9688,0.056793
3419.8325,0.054062
3421.6961,0.051967
3423.5598,0.050561
3425.4235,0.049294
3427.2871,0.047775
3429.1508,0.046022
3431.0145,0.044544
3432.8781,0.043973
3434.7418,0.042844
3436.6055,0.040665
3438.4692,0.039938
3440.3328,0.039902
3442.1965,0.039422
3444.0602,0.038404
3445.9238,0.036599
3447.7875,0.035345
3449.6512,0.034843
3451.5148,0.034146
3453.3785,0.033999
3455.2422,0.033537
3457.1058,0.032614
3458.9695,0.032223
3460.8332,0.032254
3462.6969,0.032362
3464.5605,0.031638
3466.4242,0.030331
3468.2879,0.029450
3470.1515,0.028612
3472.0152,0.028125
3473.8789,0.028337
3475.7425,0.028273
3477.6062,0.027055
3479.4699,0.026082
3481.3335,0.025976
3483.1972,0.025573
3485.0609,0.024919
3486.9245,0.024772
3488.7882,0.024451
3490.6519,0.023394
3492.5156,0.022759
3494.3792,0.023076
3496.2429,0.023094
3498.1066,0.022665
3499.9702,0.022220
3501.8339,0.020824
3503.6976,0.020077
3505.5612,0.020039
3507.4249,0.019416
3509.2886,0.019276
3511.1522,0.019028
3513.0159,0.017917
3514.8796,0.017156
3516.7432,0.017332
3518.6069,0.017254
3520.4706,0.016330
3522.3343,0.015365
3524.1979,0.015770
3526.0616,0.015868
3527.9253,0.015003
3529.7889,0.014997
3531.6526,0.015045
3533.5163,0.014558
3535.3799,0.014545
3537.2436,0.014493
3539.1073,0.014280
3540.9709,0.014071
3542.8346,0.013595
3544.6983,0.012976
3546.5620,0.012594
3548.4256,0.013034
3550.2893,0.013919
3552.1530,0.013825
3554.0166,0.013205
3555.8803,0.012822
3557.7440,0.012103
3559.6076,0.011573
3561.4713,0.011579
3563.3350,0.010876
3565.1986,0.010480
3567.0623,0.010461
3568.9260,0.009899
3570.7896,0.010046
3572.6533,0.010757
3574.5170,0.011112
3576.3807,0.010840
3578.2443,0.010026
3580.1080,0.010034
3581.9717,0.010950
3583.8353,0.011102
3585.6990,0.010488
3587.5627,0.009836
3589.4263,0.009654
3591.2900,0.010509
3593.1537,0.010436
3595.0173,0.010009
3596.8810,0.010607
3598.7447,0.010674
3600.6084,0.010551
3602.4720,0.010271
3604.3357,0.009727
3606.1994,0.010065
3608.0630,0.010793
3609.9267,0.011451
3611.7904,0.011280
3613.6540,0.010287
3615.5177,0.009752
3617.3814,0.009149
3619.2450,0.008489
3621.1087,0.009099
3622.9724,0.010160
3624.8360,0.010212
3626.6997,0.009938
3628.5634,0.010043
3630.4271,0.009760
3632.2907,0.009522
3634.1544,0.010143
3636.0181,0.010368
3637.8817,0.010023
3639.7454,0.010301
3641.6091,0.010690
3643.4727,0.010714
3645.3364,0.010955
3647.2001,0.010618
3649.0637,0.009230
3650.9274,0.008452
3652.7911,0.009371
3654.6547,0.010540
3656.5184,0.011049
3658.3821,0.011213
3660.2458,0.011388
3662.1094,0.011566
3663.9731,0.012003
3665.8368,0.012514
3667.7004,0.012508
3669.5641,0.011660
3671.4278,0.011996
3673.2914,0.013567
3675.1551,0.013794
3677.0188,0.013237
3678.8824,0.011537
3680.7461,0.010392
3682.6098,0.010108
3684.4735,0.010069
3686.3371,0.009636
3688.2008,0.010006
3690.0645,0.011039
3691.9281,0.010454
3693.7918,0.010300
3695.6555,0.010787
3697.5191,0.010555
3699.3828,0.010461
3701.2465,0.010798
3703.1101,0.010639
3704.9738,0.010648
3706.8375,0.010714
3708.7011,0.010501
3710.5648,0.010544
3712.4285,0.010597
3714.2922,0.010494
3716.1558,0.010738
3718.0195,0.011137
3719.8832,0.011160
3721.7468,0.011018
3723.6105,0.010924
3725.4742,0.010699
3727.3378,0.009998
3729.2015,0.009459
3731.0652,0.009783
3732.9288,0.010278
3734.7925,0.010419
3736.6562,0.010225
3738.5199,0.009906
3740.3835,0.009980
3742.2472,0.010170
3744.1109,0.009414
3745.9745,0.008303
3747.8382,0.009254
3749.7019,0.010313
3751.5655,0.010310
3753.4292,0.010369
3755.2929,0.010824
3757.1565,0.011469
3759.0202,0.012214
3760.8839,0.012391
3762.7475,0.012144
3764.6112,0.012352
3766.4749,0.012679
3768.3386,0.012603
3770.2022,0.012314
3772.0659,0.012325
3773.9296,0.012775
3775.7932,0.012976
3777.6569,0.013013
3779.5206,0.013122
3781.3842,0.012944
3783.2479,0.012650
3785.1116,0.012350
3786.9752,0.012320
3788.8389,0.013027
3790.7026,0.013415
3792.5662,0.013254
3794.4299,0.013007
3796.2936,0.012809
3798.1573,0.013006
3800.0209,0.012854
3801.8846,0.012413
3803.7483,0.012494
3805.6119,0.012728
3807.4756,0.012544
3809.3393,0.012101
3811.2029,0.012225
3813.0666,0.012781
3814.9303,0.012687
3816.7939,0.012105
3818.6576,0.012202
3820.5213,0.012664
3822.3850,0.012913
3824.2486,0.012692
3826.1123,0.012613
3827.9760,0.012925
3829.8396,0.013054
3831.7033,0.012929
3833.5670,0.012789
3835.4306,0.012547
3837.2943,0.012490
3839.1580,0.012695
3841.0216,0.012827
3842.8853,0.012714
3844.7490,0.012596
3846.6126,0.013104
3848.4763,0.013636
3850.3400,0.013289
3852.2037,0.012366
3854.0673,0.011847
3855.9310,0.012238
3857.7947,0.012962
3859.6583,0.013459
3861.5220,0.013811
3863.3857,0.013807
3865.2493,0.013631
3867.1130,0.013712
3868.9767,0.013525
3870.8403,0.012923
3872.7040,0.013000
3874.5677,0.013231
3876.4314,0.013127
3878.2950,0.013037
3880.1587,0.013328
3882.0224,0.013754
3883.8860,0.013829
3885.7497,0.013945
3887.6134,0.014084
3889.4770,0.013896
3891.3407,0.013560
3893.2044,0.013755
3895.0680,0.014110
3896.9317,0.013810
3898.7954,0.013848
3900.6590,0.014104
3902.5227,0.014313
3904.3864,0.014764
3906.2501,0.014659
3908.1137,0.014410
3909.9774,0.014513
3911.8411,0.014581
3913.7047,0.014692
3915.5684,0.014406
3917.4321,0.013977
3919.2957,0.014211
3921.1594,0.014698
3923.0231,0.014742
3924.8867,0.014767
3926.7504,0.014891
3928.6141,0.014564
3930.4777,0.014116
3932.3414,0.014159
3934.2051,0.014511
3936.0688,0.014999
3937.9324,0.015146
3939.7961,0.015251
3941.6598,0.015448
3943.5234,0.015388
3945.3871,0.014964
3947.2508,0.014673
3949.1144,0.014701
3950.9781,0.015112
3952.8418,0.015335
3954.7054,0.015332
3956.5691,0.015259
3958.4328,0.014943
3960.2965,0.014589
3962.1601,0.014785
3964.0238,0.015179
3965.8875,0.015234
3967.7511,0.015189
3969.6148,0.015475
3971.4785,0.015683
3973.3421,0.015503
3975.2058,0.015346
3977.0695,0.015491
3978.9331,0.015761
3980.7968,0.015694
3982.6605,0.015369
3984.5241,0.015373
3986.3878,0.015865
3988.2515,0.016005
3990.1152,0.015439
3991.9788,0.014986
3993.8425,0.015072
3995.7062,0.015664
3997.5698,0.016053
3999.4335,0.015877
