Wavenumber,Intensity
650.4205,0.208758
652.2841,0.204231
654.1478,0.197192
656.0115,0.188817
657.8751,0.183130
659.7388,0.181113
661.6025,0.179580
663.4661,0.175082
665.3298,0.170606
667.1935,0.168800
669.0571,0.168951
670.9208,0.165881
672.7845,0.165597
674.6481,0.167340
676.5118,0.169288
678.3755,0.169971
680.2392,0.171764
682.1028,0.172628
683.9665,0.172882
685.8302,0.172666
687.6938,0.173048
689.5575,0.172852
691.4212,0.173573
693.2848,0.173025
695.1485,0.173559
697.0122,0.174881
698.8758,0.175794
700.7395,0.175608
702.6032,0.174873
704.4669,0.171311
706.3305,0.165945
708.1942,0.158130
710.0579,0.149342
711.9215,0.141617
713.7852,0.133829
715.6489,0.126168
717.5125,0.120306
719.3762,0.114146
721.2399,0.108544
723.1035,0.104729
724.9672,0.100866
726.8309,0.096079
728.6945,0.091465
730.5582,0.087543
732.4219,0.084749
734.2856,0.081637
736.1492,0.078537
738.0129,0.076732
739.8766,0.077964
741.7402,0.081024
743.6039,0.083594
745.4676,0.084727
747.3312,0.084868
749.1949,0.084813
751.0586,0.083697
752.9222,0.082368
754.7859,0.081946
756.6496,0.081679
758.5132,0.080903
760.3769,0.080150
762.2406,0.079613
764.1043,0.078920
765.9679,0.078795
767.8316,0.078808
769.6953,0.078778
771.5589,0.079078
773.4226,0.079531
775.2863,0.079978
777.1499,0.080717
779.0136,0.081580
780.8773,0.082141
782.7409,0.082892
784.6046,0.084264
786.4683,0.085862
788.3320,0.087736
790.1956,0.089628
792.0593,0.091618
793.9230,0.093597
795.7866,0.095310
797.6503,0.096703
799.5140,0.098011
801.3776,0.098713
803.2413,0.098749
805.1050,0.098377
806.9686,0.097710
808.8323,0.096445
810.6960,0.094201
812.5596,0.090934
814.4233,0.087766
816.2870,0.084881
818.1507,0.082129
820.0143,0.079781
821.8780,0.078356
823.7417,0.077718
825.6053,0.078534
827.4690,0.080868
829.3327,0.082116
831.1963,0.077676
833.0600,0.067729
834.9237,0.059006
836.7873,0.055476
838.6510,0.055039
840.5147,0.054681
842.3784,0.054221
844.2420,0.054230
846.1057,0.053780
847.9694,0.052396
849.8330,0.049813
851.6967,0.046613
853.5604,0.044320
855.4240,0.042874
857.2877,0.041934
859.1514,0.041265
861.0150,0.040659
862.8787,0.040344
864.7424,0.040525
866.6060,0.040651
868.4697,0.040599
870.3334,0.040650
872.1971,0.041069
874.0607,0.041696
875.9244,0.042266
877.7881,0.042936
879.6517,0.043814
881.5154,0.044900
883.3791,0.045715
885.2427,0.046113
887.1064,0.046060
888.9701,0.045408
890.8337,0.044854
892.6974,0.044731
894.5611,0.044944
896.4247,0.045612
898.2884,0.046704
900.1521,0.047994
902.0158,0.049780
903.8794,0.052333
905.7431,0.055804
907.6068,0.060039
909.4704,0.064740
911.3341,0.069944
913.1978,0.075642
915.0614,0.077990
916.9251,0.070397
918.7888,0.056638
920.6524,0.046480
922.5161,0.042205
924.3798,0.041214
926.2435,0.041306
928.1071,0.041541
929.9708,0.041852
931.8345,0.042332
933.6981,0.043010
935.5618,0.043934
937.4255,0.044909
939.2891,0.045848
941.1528,0.046782
943.0165,0.047673
944.8801,0.048234
946.7438,0.048534
948.6075,0.048726
950.4711,0.048905
952.3348,0.049412
954.1985,0.050266
956.0622,0.051211
957.9258,0.052282
959.7895,0.053440
961.6532,0.054754
963.5168,0.056402
965.3805,0.058340
967.2442,0.060573
969.1078,0.063183
970.9715,0.066111
972.8352,0.069719
974.6988,0.075274
976.5625,0.084720
978.4262,0.100790
980.2899,0.121902
982.1535,0.127984
984.0172,0.102312
985.8809,0.072029
987.7445,0.059499
989.6082,0.058200
991.4719,0.058110
993.3355,0.056626
995.1992,0.055046
997.0629,0.054206
998.9265,0.053948
1000.7902,0.054138
1002.6539,0.054601
1004.5175,0.055084
1006.3812,0.055694
1008.2449,0.056536
1010.1086,0.057354
1011.9722,0.058125
1013.8359,0.059173
1015.6996,0.060432
1017.5632,0.061590
1019.4269,0.062630
1021.2906,0.063761
1023.1542,0.064879
1025.0179,0.065992
1026.8816,0.067216
1028.7452,0.068599
1030.6089,0.070143
1032.4726,0.071857
1034.3362,0.073941
1036.1999,0.076372
1038.0636,0.078889
1039.9273,0.081538
1041.7909,0.084725
1043.6546,0.088583
1045.5183,0.092524
1047.3819,0.095590
1049.2456,0.095775
1051.1093,0.091208
1052.9729,0.083251
1054.8366,0.075841
1056.7003,0.071456
1058.5639,0.069893
1060.4276,0.069723
1062.2913,0.069475
1064.1550,0.069113
1066.0186,0.069195
1067.8823,0.069953
1069.7460,0.071459
1071.6096,0.073201
1073.4733,0.075067
1075.3370,0.077112
1077.2006,0.079289
1079.0643,0.081631
1080.9280,0.084233
1082.7916,0.087217
1084.6553,0.090439
1086.5190,0.093908
1088.3826,0.097539
1090.2463,0.101482
1092.1100,0.106006
1093.9737,0.111198
1095.8373,0.117011
1097.7010,0.123352
1099.5647,0.130045
1101.4283,0.136603
1103.2920,0.142339
1105.1557,0.146113
1107.0193,0.146211
1108.8830,0.141384
1110.7467,0.131989
1112.6103,0.120207
1114.4740,0.108144
1116.3377,0.097312
1118.2014,0.088692
1120.0650,0.082429
1121.9287,0.078293
1123.7924,0.075738
1125.6560,0.073896
1127.5197,0.072256
1129.3834,0.070513
1131.2470,0.068554
1133.1107,0.066474
1134.9744,0.064498
1136.8380,0.062886
1138.7017,0.061756
1140.5654,0.061194
1142.4290,0.060964
1144.2927,0.060936
1146.1564,0.061115
1148.0201,0.061528
1149.8837,0.062171
1151.7474,0.063052
1153.6111,0.064103
1155.4747,0.065201
1157.3384,0.065964
1159.2021,0.066143
1161.0657,0.066227
1162.9294,0.066799
1164.7931,0.068182
1166.6567,0.070515
1168.5204,0.073319
1170.3841,0.076170
1172.2477,0.078306
1174.1114,0.078111
1175.9751,0.074964
1177.8388,0.070536
1179.7024,0.066982
1181.5661,0.065075
1183.4298,0.064502
1185.2934,0.064420
1187.1571,0.064270
1189.0208,0.064069
1190.8844,0.063643
1192.7481,0.063070
1194.6118,0.062690
1196.4754,0.062581
1198.3391,0.062705
1200.2028,0.063028
1202.0665,0.063302
1203.9301,0.063357
1205.7938,0.063343
1207.6575,0.063394
1209.5211,0.063594
1211.3848,0.063910
1213.2485,0.064287
1215.1121,0.064788
1216.9758,0.065334
1218.8395,0.065879
1220.7031,0.066297
1222.5668,0.066548
1224.4305,0.066917
1226.2941,0.067468
1228.1578,0.068002
1230.0215,0.068572
1231.8852,0.069126
1233.7488,0.069658
1235.6125,0.070292
1237.4762,0.070921
1239.3398,0.071555
1241.2035,0.072339
1243.0672,0.073211
1244.9308,0.074135
1246.7945,0.075030
1248.6582,0.075983
1250.5218,0.077107
1252.3855,0.078438
1254.2492,0.079882
1256.1129,0.081324
1257.9765,0.082859
1259.8402,0.084434
1261.7039,0.085583
1263.5675,0.085978
1265.4312,0.085803
1267.2949,0.085210
1269.1585,0.084411
1271.0222,0.083890
1272.8859,0.084047
1274.7495,0.084824
1276.6132,0.086028
1278.4769,0.087632
1280.3405,0.089544
1282.2042,0.091659
1284.0679,0.094015
1285.9316,0.096773
1287.7952,0.100128
1289.6589,0.104092
1291.5226,0.108696
1293.3862,0.113635
1295.2499,0.118197
1297.1136,0.122423
1298.9772,0.127344
1300.8409,0.134159
1302.7046,0.141971
1304.5682,0.146555
1306.4319,0.142728
1308.2956,0.128063
1310.1592,0.106353
1312.0229,0.086602
1313.8866,0.075098
1315.7503,0.071700
1317.6139,0.072828
1319.4776,0.075894
1321.3413,0.079194
1323.2049,0.082506
1325.0686,0.086213
1326.9323,0.090247
1328.7959,0.094458
1330.6596,0.098081
1332.5233,0.100226
1334.3869,0.100083
1336.2506,0.098392
1338.1143,0.097549
1339.9780,0.098453
1341.8416,0.098539
1343.7053,0.097396
1345.5690,0.096930
1347.4326,0.097428
1349.2963,0.098978
1351.1600,0.101112
1353.0236,0.103378
1354.8873,0.106445
1356.7510,0.109558
1358.6146,0.111657
1360.4783,0.114078
1362.3420,0.119151
1364.2056,0.124468
1366.0693,0.127006
1367.9330,0.130943
1369.7967,0.136508
1371.6603,0.140879
1373.5240,0.147225
1375.3877,0.155337
1377.2513,0.160213
1379.1150,0.165404
1380.9787,0.172343
1382.8423,0.179266
1384.7060,0.185907
1386.5697,0.193765
1388.4333,0.202114
1390.2970,0.203341
1392.1607,0.200321
1394.0244,0.196611
1395.8880,0.190700
1397.7517,0.182082
1399.6154,0.172698
1401.4790,0.162901
1403.3427,0.152012
1405.2064,0.136797
1407.0700,0.118522
1408.9337,0.101976
1410.7974,0.088412
1412.6610,0.079701
1414.5247,0.075525
1416.3884,0.074663
1418.2520,0.077946
1420.1157,0.085044
1421.9794,0.087130
1423.8431,0.084059
1425.7067,0.076170
1427.5704,0.067271
1429.4341,0.061768
1431.2977,0.059658
1433.1614,0.058918
1435.0251,0.059594
1436.8887,0.064208
1438.7524,0.068212
1440.6161,0.068959
1442.4797,0.070907
1444.3434,0.072848
1446.2071,0.074319
1448.0707,0.075790
1449.9344,0.074775
1451.7981,0.071030
1453.6618,0.067187
1455.5254,0.065778
1457.3891,0.071925
1459.2528,0.076953
1461.1164,0.075589
1462.9801,0.075264
1464.8438,0.077003
1466.7074,0.076886
1468.5711,0.073477
1470.4348,0.070903
1472.2984,0.072060
1474.1621,0.075059
1476.0258,0.074829
1477.8895,0.074026
1479.7531,0.073181
1481.6168,0.073798
1483.4805,0.074761
1485.3441,0.074859
1487.2078,0.076220
1489.0715,0.080012
1490.9351,0.084143
1492.7988,0.083910
1494.6625,0.083008
1496.5261,0.086303
1498.3898,0.090814
1500.2535,0.091891
1502.1171,0.091043
1503.9808,0.089450
1505.8445,0.091335
1507.7082,0.101983
1509.5718,0.102033
1511.4355,0.098897
1513.2992,0.097304
1515.1628,0.096309
1517.0265,0.097185
1518.8902,0.097404
1520.7538,0.097848
1522.6175,0.101719
1524.4812,0.101904
1526.3448,0.102716
1528.2085,0.104409
1530.0722,0.104097
1531.9359,0.104833
1533.7995,0.109360
1535.6632,0.111062
1537.5269,0.108829
1539.3905,0.112815
1541.2542,0.124944
1543.1179,0.127328
1544.9815,0.129286
1546.8452,0.130945
1548.7089,0.131782
1550.5725,0.135559
1552.4362,0.138235
1554.2999,0.139506
1556.1635,0.141269
1558.0272,0.145713
1559.8909,0.165286
1561.7546,0.163427
1563.6182,0.158825
1565.4819,0.159820
1567.3456,0.161359
1569.2092,0.164394
1571.0729,0.169149
1572.9366,0.168117
1574.8002,0.168082
1576.6639,0.174256
1578.5276,0.177101
1580.3912,0.175352
1582.2549,0.175540
1584.1186,0.175955
1585.9822,0.175900
1587.8459,0.175485
1589.7096,0.174305
1591.5733,0.172768
1593.4369,0.171137
1595.3006,0.169177
1597.1643,0.166579
1599.0279,0.163568
1600.8916,0.160690
1602.7553,0.158192
1604.6189,0.155883
1606.4826,0.153646
1608.3463,0.151574
1610.2099,0.149274
1612.0736,0.145717
1613.9373,0.141006
1615.8010,0.136036
1617.6646,0.130751
1619.5283,0.124510
1621.3920,0.118272
1623.2556,0.111827
1625.1193,0.105219
1626.9830,0.097787
1628.8466,0.089349
1630.7103,0.080958
1632.5740,0.073028
1634.4376,0.064968
1636.3013,0.057906
1638.1650,0.054353
1640.0286,0.052378
1641.8923,0.050680
1643.7560,0.050088
1645.6197,0.051116
1647.4833,0.054842
1649.3470,0.056837
1651.2107,0.056392
1653.0743,0.059983
1654.9380,0.067907
1656.8017,0.066966
1658.6653,0.066475
1660.5290,0.066750
1662.3927,0.067162
1664.2563,0.067482
1666.1200,0.065919
1667.9837,0.063945
1669.8474,0.063775
1671.7110,0.064393
1673.5747,0.064408
1675.4384,0.066373
1677.3020,0.069431
1679.1657,0.070259
1681.0294,0.071941
1682.8930,0.073333
1684.7567,0.077646
1686.6204,0.080068
1688.4840,0.077085
1690.3477,0.073844
1692.2114,0.070020
1694.0750,0.065469
1695.9387,0.061360
1697.8024,0.058523
1699.6661,0.054894
1701.5297,0.050721
1703.3934,0.045835
1705.2571,0.039788
1707.1207,0.033393
1708.9844,0.028617
1710.8481,0.025001
1712.7117,0.022079
1714.5754,0.019804
1716.4391,0.018449
1718.3027,0.018669
1720.1664,0.018818
1722.0301,0.017435
1723.8937,0.015990
1725.7574,0.014523
1727.6211,0.012809
1729.4848,0.011306
1731.3484,0.010049
1733.2121,0.008717
1735.0758,0.008977
1736.9394,0.008798
1738.8031,0.007708
1740.6668,0.007662
1742.5304,0.007453
1744.3941,0.007281
1746.2578,0.006900
1748.1214,0.006353
1749.9851,0.006338
1751.8488,0.006752
1753.7125,0.006738
1755.5761,0.005988
1757.4398,0.005837
1759.3035,0.006000
1761.1671,0.005787
1763.0308,0.006188
1764.8945,0.006108
1766.7581,0.005495
1768.6218,0.005335
1770.4855,0.005285
1772.3491,0.005379
1774.2128,0.006184
1776.0765,0.005922
1777.9401,0.005667
1779.8038,0.005544
1781.6675,0.005808
1783.5312,0.005735
1785.3948,0.005715
1787.2585,0.005792
1789.1222,0.005438
1790.9858,0.005081
1792.8495,0.005717
1794.7132,0.006263
1796.5768,0.005936
1798.4405,0.005465
1800.3042,0.005356
1802.1678,0.005677
1804.0315,0.005872
1805.8952,0.005867
1807.7589,0.005915
1809.6225,0.005847
1811.4862,0.005876
1813.3499,0.005747
1815.2135,0.005581
1817.0772,0.005593
1818.9409,0.005745
1820.8045,0.005772
1822.6682,0.005647
1824.5319,0.005400
1826.3955,0.005700
1828.2592,0.005550
1830.1229,0.005457
1831.9865,0.005888
1833.8502,0.005729
1835.7139,0.005496
1837.5776,0.005444
1839.4412,0.005511
1841.3049,0.005400
1843.1686,0.005139
1845.0322,0.005793
1846.8959,0.006205
1848.7596,0.005859
1850.6232,0.005839
1852.4869,0.005812
1854.3506,0.005760
1856.2142,0.005707
1858.0779,0.005764
1859.9416,0.005972
1861.8052,0.006141
1863.6689,0.005911
1865.5326,0.005545
1867.3963,0.005262
1869.2599,0.005559
1871.1236,0.006110
1872.9873,0.006134
1874.8509,0.006133
1876.7146,0.005850
1878.5783,0.005596
1880.4419,0.005670
1882.3056,0.005727
1884.1693,0.005520
1886.0329,0.005683
1887.8966,0.006074
1889.7603,0.005954
1891.6240,0.005666
1893.4876,0.005554
1895.3513,0.005839
1897.2150,0.006050
1899.0786,0.005707
1900.9423,0.005691
1902.8060,0.005770
1904.6696,0.005646
1906.5333,0.005776
1908.3970,0.006102
1910.2606,0.006164
1912.1243,0.006203
1913.9880,0.005984
1915.8516,0.005658
1917.7153,0.005979
1919.5790,0.006300
1921.4427,0.006016
1923.3063,0.005958
1925.1700,0.005657
1927.0337,0.005305
1928.8973,0.005414
1930.7610,0.005657
1932.6247,0.005954
1934.4883,0.005904
1936.3520,0.005766
1938.2157,0.005815
1940.0793,0.005379
1941.9430,0.004923
1943.8067,0.005018
1945.6704,0.004882
1947.5340,0.005008
1949.3977,0.004884
1951.2614,0.004482
1953.1250,0.004492
1954.9887,0.004349
1956.8524,0.004503
1958.7160,0.005003
1960.5797,0.004492
1962.4434,0.003333
1964.3070,0.002601
1966.1707,0.001896
1968.0344,0.001498
1969.8980,0.000835
1971.7617,0.000948
1973.6254,0.001209
1975.4891,0.002255
1977.3527,0.004444
1979.2164,0.005232
1981.0801,0.004660
1982.9437,0.004116
1984.8074,0.004336
1986.6711,0.004689
1988.5347,0.004626
1990.3984,0.004899
1992.2621,0.004804
1994.1257,0.004280
1995.9894,0.004313
1997.8531,0.004677
1999.7167,0.004895
2001.5804,0.004541
2003.4441,0.003280
2005.3078,0.003553
2007.1714,0.004850
2009.0351,0.005228
2010.8988,0.003912
2012.7624,0.003058
2014.6261,0.003455
2016.4898,0.003454
2018.3534,0.002757
2020.2171,0.002283
2022.0808,0.002592
2023.9444,0.004099
2025.8081,0.004824
2027.6718,0.004762
2029.5355,0.003968
2031.3991,0.003669
2033.2628,0.003844
2035.1265,0.003640
2036.9901,0.003043
2038.8538,0.003565
2040.7175,0.005303
2042.5811,0.006629
2044.4448,0.006316
2046.3085,0.005581
2048.1721,0.006201
2050.0358,0.007448
2051.8995,0.007602
2053.7631,0.006716
2055.6268,0.006928
2057.4905,0.007564
2059.3542,0.007365
2061.2178,0.007561
2063.0815,0.007973
2064.9452,0.007995
2066.8088,0.007545
2068.6725,0.006620
2070.5362,0.006721
2072.3998,0.007529
2074.2635,0.007860
2076.1272,0.008301
2077.9908,0.008811
2079.8545,0.009060
2081.7182,0.009086
2083.5819,0.009130
2085.4455,0.009289
2087.3092,0.009348
2089.1729,0.009156
2091.0365,0.008948
2092.9002,0.008649
2094.7639,0.008929
2096.6275,0.008917
2098.4912,0.008732
2100.3549,0.009494
2102.2185,0.010027
2104.0822,0.009778
2105.9459,0.009448
2107.8095,0.009174
2109.6732,0.009515
2111.5369,0.009726
2113.4006,0.009734
2115.2642,0.009387
2117.1279,0.008731
2118.9916,0.008896
2120.8552,0.009952
2122.7189,0.010285
2124.5826,0.009690
2126.4462,0.009274
2128.3099,0.009105
2130.1736,0.008919
2132.0372,0.008516
2133.9009,0.007983
2135.7646,0.008328
2137.6282,0.008151
2139.4919,0.006762
2141.3556,0.006355
2143.2193,0.007246
2145.0829,0.006980
2146.9466,0.006470
2148.8103,0.006509
2150.6739,0.006010
2152.5376,0.005955
2154.4013,0.005724
2156.2649,0.003514
2158.1286,0.002561
2159.9923,0.004777
2161.8559,0.007573
2163.7196,0.007809
2165.5833,0.007454
2167.4470,0.006420
2169.3106,0.005440
2171.1743,0.005107
2173.0380,0.006209
2174.9016,0.007819
2176.7653,0.007757
2178.6290,0.007783
2180.4926,0.008344
2182.3563,0.008459
2184.2200,0.009373
2186.0836,0.008919
2187.9473,0.007791
2189.8110,0.008784
2191.6746,0.010218
2193.5383,0.009948
2195.4020,0.009854
2197.2657,0.009408
2199.1293,0.008901
2200.9930,0.009695
2202.8567,0.010936
2204.7203,0.010466
2206.5840,0.010206
2208.4477,0.010394
2210.3113,0.011050
2212.1750,0.011256
2214.0387,0.010884
2215.9023,0.011001
2217.7660,0.011353
2219.6297,0.011028
2221.4934,0.010936
2223.3570,0.011027
2225.2207,0.011039
2227.0844,0.010671
2228.9480,0.010344
2230.8117,0.010740
2232.6754,0.011653
2234.5390,0.012606
2236.4027,0.012102
2238.2664,0.011626
2240.1300,0.012316
2241.9937,0.013234
2243.8574,0.013509
2245.7210,0.013156
2247.5847,0.012528
2249.4484,0.011858
2251.3121,0.011579
2253.1757,0.011574
2255.0394,0.012180
2256.9031,0.013202
2258.7667,0.013360
2260.6304,0.012744
2262.4941,0.012518
2264.3577,0.013220
2266.2214,0.013335
2268.0851,0.013180
2269.9487,0.013827
2271.8124,0.014239
2273.6761,0.014411
2275.5397,0.014433
2277.4034,0.014919
2279.2671,0.015574
2281.1308,0.015794
2282.9944,0.015982
2284.8581,0.015758
2286.7218,0.015569
2288.5854,0.015756
2290.4491,0.015779
2292.3128,0.015808
2294.1764,0.015649
2296.0401,0.015502
2297.9038,0.015588
2299.7674,0.015641
2301.6311,0.015667
2303.4948,0.015691
2305.3585,0.015878
2307.2221,0.015745
2309.0858,0.015677
2310.9495,0.015686
2312.8131,0.015600
2314.6768,0.015721
2316.5405,0.015949
2318.4041,0.015714
2320.2678,0.015473
2322.1315,0.015860
2323.9951,0.016386
2325.8588,0.016161
2327.7225,0.015390
2329.5861,0.014857
2331.4498,0.014885
2333.3135,0.014966
2335.1772,0.015015
2337.0408,0.014997
2338.9045,0.014850
2340.7682,0.014675
2342.6318,0.014854
2344.4955,0.015077
2346.3592,0.014928
2348.2228,0.014816
2350.0865,0.014540
2351.9502,0.014160
2353.8138,0.013846
2355.6775,0.013686
2357.5412,0.014228
2359.4049,0.014589
2361.2685,0.014231
2363.1322,0.014312
2364.9959,0.014890
2366.8595,0.015128
2368.7232,0.015199
2370.5869,0.015509
2372.4505,0.016097
2374.3142,0.016366
2376.1779,0.016243
2378.0415,0.016038
2379.9052,0.015974
2381.7689,0.015902
2383.6325,0.015852
2385.4962,0.015768
2387.3599,0.015742
2389.2236,0.015936
2391.0872,0.016080
2392.9509,0.016043
2394.8146,0.016151
2396.6782,0.016269
2398.5419,0.016436
2400.4056,0.016407
2402.2692,0.016220
2404.1329,0.016371
2405.9966,0.016706
2407.8602,0.016776
2409.7239,0.016727
2411.5876,0.016659
2413.4512,0.017106
2415.3149,0.017131
2417.1786,0.016716
2419.0423,0.017005
2420.9059,0.017347
2422.7696,0.017390
2424.6333,0.017342
2426.4969,0.017187
2428.3606,0.017118
2430.2243,0.017384
2432.0879,0.017917
2433.9516,0.017963
2435.8153,0.017819
2437.6789,0.017577
2439.5426,0.017599
2441.4063,0.017879
2443.2700,0.018226
2445.1336,0.018389
2446.9973,0.018335
2448.8610,0.018248
2450.7246,0.018213
2452.5883,0.018342
2454.4520,0.018250
2456.3156,0.018239
2458.1793,0.018424
2460.0430,0.018319
2461.9066,0.018702
2463.7703,0.018701
2465.6340,0.018285
2467.4976,0.018317
2469.3613,0.018467
2471.2250,0.018769
2473.0887,0.019093
2474.9523,0.018927
2476.8160,0.018555
2478.6797,0.018505
2480.5433,0.018789
2482.4070,0.018795
2484.2707,0.019049
2486.1343,0.019480
2487.9980,0.019566
2489.8617,0.019524
2491.7253,0.019829
2493.5890,0.019558
2495.4527,0.019305
2497.3164,0.019640
2499.1800,0.019872
2501.0437,0.020045
2502.9074,0.019972
2504.7710,0.019855
2506.6347,0.020077
2508.4984,0.020084
2510.3620,0.020335
2512.2257,0.020940
2514.0894,0.020919
2515.9530,0.020555
2517.8167,0.020408
2519.6804,0.020464
2521.5440,0.020786
2523.4077,0.021371
2525.2714,0.021440
2527.1351,0.021004
2528.9987,0.021177
2530.8624,0.021161
2532.7261,0.021316
2534.5897,0.021436
2536.4534,0.021337
2538.3171,0.021090
2540.1807,0.021254
2542.0444,0.021814
2543.9081,0.022006
2545.7717,0.021887
2547.6354,0.021892
2549.4991,0.022118
2551.3627,0.022038
2553.2264,0.022099
2555.0901,0.022341
2556.9538,0.022247
2558.8174,0.022321
2560.6811,0.022317
2562.5448,0.022604
2564.4084,0.022826
2566.2721,0.023005
2568.1358,0.023555
2569.9994,0.023552
2571.8631,0.023260
2573.7268,0.023578
2575.5904,0.023935
2577.4541,0.024089
2579.3178,0.024238
2581.1815,0.024220
2583.0451,0.023978
2584.9088,0.024238
2586.7725,0.024675
2588.6361,0.024919
2590.4998,0.025107
2592.3635,0.025437
2594.2271,0.025449
2596.0908,0.025538
2597.9545,0.026064
2599.8181,0.026294
2601.6818,0.026453
2603.5455,0.026894
2605.4091,0.026807
2607.2728,0.026695
2609.1365,0.026814
2611.0002,0.027271
2612.8638,0.027636
2614.7275,0.027900
2616.5912,0.027757
2618.4548,0.027739
2620.3185,0.028180
2622.1822,0.028464
2624.0458,0.028565
2625.9095,0.028704
2627.7732,0.028489
2629.6368,0.028887
2631.5005,0.029496
2633.3642,0.029564
2635.2279,0.029638
2637.0915,0.029853
2638.9552,0.030086
2640.8189,0.030420
2642.6825,0.030633
2644.5462,0.030564
2646.4099,0.030312
2648.2735,0.030679
2650.1372,0.030924
2652.0009,0.030613
2653.8645,0.030530
2655.7282,0.030691
2657.5919,0.030640
2659.4555,0.030753
2661.3192,0.030854
2663.1829,0.030783
2665.0466,0.030678
2666.9102,0.030635
2668.7739,0.030716
2670.6376,0.030879
2672.5012,0.030917
2674.3649,0.031085
2676.2286,0.031225
2678.0922,0.031472
2679.9559,0.031761
2681.8196,0.031911
2683.6832,0.032203
2685.5469,0.032520
2687.4106,0.032661
2689.2742,0.032963
2691.1379,0.033334
2693.0016,0.033612
2694.8653,0.033846
2696.7289,0.034164
2698.5926,0.034545
2700.4563,0.034855
2702.3199,0.034926
2704.1836,0.035221
2706.0473,0.035465
2707.9109,0.035657
2709.7746,0.035938
2711.6383,0.036147
2713.5019,0.036511
2715.3656,0.036991
2717.2293,0.037283
2719.0930,0.037541
2720.9566,0.037752
2722.8203,0.038269
2724.6840,0.038822
2726.5476,0.039123
2728.4113,0.039515
2730.2750,0.039838
2732.1386,0.040096
2734.0023,0.040424
2735.8660,0.040767
2737.7296,0.041375
2739.5933,0.041841
2741.4570,0.042069
2743.3206,0.042256
2745.1843,0.042638
2747.0480,0.042912
2748.9117,0.043513
2750.7753,0.044314
2752.6390,0.044808
2754.5027,0.044827
2756.3663,0.045034
2758.2300,0.045491
2760.0937,0.046272
2761.9573,0.046884
2763.8210,0.047189
2765.6847,0.047367
2767.5483,0.047794
2769.4120,0.048516
2771.2757,0.049100
2773.1394,0.049452
2775.0030,0.049994
2776.8667,0.050684
2778.7304,0.051313
2780.5940,0.051641
2782.4577,0.051976
2784.3214,0.051932
2786.1850,0.052011
2788.0487,0.051837
2789.9124,0.051332
2791.7760,0.050694
2793.6397,0.050182
2795.5034,0.049982
2797.3670,0.049910
2799.2307,0.049480
2801.0944,0.049033
2802.9581,0.048463
2804.8217,0.048169
2806.6854,0.047656
2808.5491,0.047227
2810.4127,0.047239
2812.2764,0.047331
2814.1401,0.047163
2816.0037,0.047034
2817.8674,0.046824
2819.7311,0.046930
2821.5947,0.047288
2823.4584,0.047407
2825.3221,0.047232
2827.1857,0.047273
2829.0494,0.047237
2830.9131,0.047087
2832.7768,0.047338
2834.6404,0.047883
2836.5041,0.048083
2838.3678,0.048213
2840.2314,0.048217
2842.0951,0.048426
2843.9588,0.048621
2845.8224,0.048960
2847.6861,0.049710
2849.5498,0.050648
2851.4134,0.051256
2853.2771,0.051747
2855.1408,0.052369
2857.0045,0.053262
2858.8681,0.053584
2860.7318,0.054132
2862.5955,0.054862
2864.4591,0.055394
2866.3228,0.055401
2868.1865,0.055330
2870.0501,0.055489
2871.9138,0.055682
2873.7775,0.055568
2875.6411,0.055909
2877.5048,0.056284
2879.3685,0.056541
2881.2321,0.056573
2883.0958,0.056924
2884.9595,0.057264
2886.8232,0.057125
2888.6868,0.057180
2890.5505,0.057927
2892.4142,0.058119
2894.2778,0.058171
2896.1415,0.058570
2898.0052,0.058710
2899.8688,0.058319
2901.7325,0.058598
2903.5962,0.059025
2905.4598,0.059258
2907.3235,0.059218
2909.1872,0.059647
2911.0509,0.060236
2912.9145,0.060771
2914.7782,0.061279
2916.6419,0.061966
2918.5055,0.062710
2920.3692,0.063237
2922.2329,0.063338
2924.0965,0.063899
2925.9602,0.064365
2927.8239,0.064939
2929.6875,0.065551
2931.5512,0.066127
2933.4149,0.066374
2935.2785,0.066462
2937.1422,0.066667
2939.0059,0.067364
2940.8696,0.067523
2942.7332,0.067732
2944.5969,0.068566
2946.4606,0.069124
2948.3242,0.068943
2950.1879,0.068728
2952.0516,0.068632
2953.9152,0.068811
2955.7789,0.068778
2957.6426,0.068665
2959.5062,0.068928
2961.3699,0.069525
2963.2336,0.069939
2965.0972,0.070610
2966.9609,0.070963
2968.8246,0.071584
2970.6883,0.072716
2972.5519,0.073634
2974.4156,0.073680
2976.2793,0.073642
2978.1429,0.074022
2980.0066,0.074877
2981.8703,0.075030
2983.7339,0.075204
2985.5976,0.075592
2987.4613,0.075678
2989.3249,0.076588
2991.1886,0.077379
2993.0523,0.077395
2994.9160,0.077780
2996.7796,0.078453
2998.6433,0.079055
3000.5070,0.079087
3002.3706,0.079458
3004.2343,0.080439
3006.0980,0.081303
3007.9616,0.081592
3009.8253,0.081815
3011.6890,0.082615
3013.5526,0.083736
3015.4163,0.083618
3017.2800,0.083302
3019.1436,0.083547
3021.0073,0.083882
3022.8710,0.083980
3024.7347,0.083631
3026.5983,0.083263
3028.4620,0.083300
3030.3257,0.083891
3032.1893,0.084361
3034.0530,0.084462
3035.9167,0.084771
3037.7803,0.084942
3039.6440,0.084831
3041.5077,0.084824
3043.3713,0.084982
3045.2350,0.084640
3047.0987,0.084887
3048.9624,0.085165
3050.8260,0.085301
3052.6897,0.085114
3054.5534,0.085039
3056.4170,0.084847
3058.2807,0.085071
3060.1444,0.084982
3062.0080,0.084653
3063.8717,0.084284
3065.7354,0.084355
3067.5990,0.084923
3069.4627,0.085299
3071.3264,0.084779
3073.1900,0.084176
3075.0537,0.083092
3076.9174,0.082367
3078.7811,0.081887
3080.6447,0.081238
3082.5084,0.081272
3084.3721,0.081496
3086.2357,0.080648
3088.0994,0.079822
3089.9631,0.079019
3091.8267,0.078546
3093.6904,0.077796
3095.5541,0.076598
3097.4177,0.075892
3099.2814,0.075664
3101.1451,0.074948
3103.0087,0.074316
3104.8724,0.072935
3106.7361,0.071836
3108.5998,0.071235
3110.4634,0.070647
3112.3271,0.069554
3114.1908,0.068922
3116.0544,0.069176
3117.9181,0.069055
3119.7818,0.068557
3121.6454,0.067707
3123.5091,0.066938
3125.3728,0.066280
3127.2364,0.065310
3129.1001,0.064739
3130.9638,0.063994
3132.8275,0.063345
3134.6911,0.063148
3136.5548,0.062657
3138.4185,0.061586
3140.2821,0.061459
3142.1458,0.061394
3144.0095,0.060626
3145.8731,0.059931
3147.7368,0.060128
3149.6005,0.060276
3151.4641,0.059708
3153.3278,0.058706
3155.1915,0.058531
3157.0551,0.058639
3158.9188,0.058783
3160.7825,0.057881
3162.6462,0.056917
3164.5098,0.056562
3166.3735,0.056096
3168.2372,0.055054
3170.1008,0.054455
3171.9645,0.054381
3173.8282,0.054428
3175.6918,0.054215
3177.5555,0.053415
3179.4192,0.052987
3181.2828,0.053563
3183.1465,0.053207
3185.0102,0.052686
3186.8739,0.052836
3188.7375,0.052590
3190.6012,0.051855
3192.4649,0.051956
3194.3285,0.052261
3196.1922,0.052348
3198.0559,0.052372
3199.9195,0.052149
3201.7832,0.051644
3203.6469,0.051593
3205.5105,0.052084
3207.3742,0.052208
3209.2379,0.051826
3211.1015,0.051917
3212.9652,0.052494
3214.8289,0.052398
3216.6926,0.051754
3218.5562,0.051948
3220.4199,0.052375
3222.2836,0.052931
3224.1472,0.052746
3226.0109,0.052067
3227.8746,0.052051
3229.7382,0.052402
3231.6019,0.052401
3233.4656,0.052243
3235.3292,0.052503
3237.1929,0.052834
3239.0566,0.053189
3240.9202,0.053622
3242.7839,0.053257
3244.6476,0.053139
3246.5113,0.053117
3248.3749,0.053032
3250.2386,0.053500
3252.1023,0.054028
3253.9659,0.054130
3255.8296,0.054657
3257.6933,0.055356
3259.5569,0.055322
3261.4206,0.055104
3263.2843,0.055752
3265.1479,0.056339
3267.0116,0.056082
3268.8753,0.055531
3270.7390,0.055668
3272.6026,0.055810
3274.4663,0.056207
3276.3300,0.055875
3278.1936,0.054982
3280.0573,0.054198
3281.9210,0.053908
3283.7846,0.054225
3285.6483,0.053379
3287.5120,0.052730
3289.3756,0.052380
3291.2393,0.051999
3293.1030,0.051669
3294.9666,0.050939
3296.8303,0.050950
3298.6940,0.050456
3300.5577,0.049372
3302.4213,0.049003
3304.2850,0.048349
3306.1487,0.047375
3308.0123,0.046961
3309.8760,0.046568
3311.7397,0.046286
3313.6033,0.046263
3315.4670,0.046604
3317.3307,0.046393
3319.1943,0.045590
3321.0580,0.044971
3322.9217,0.045279
3324.7854,0.045499
3326.6490,0.045926
3328.5127,0.045817
3330.3764,0.046141
3332.2400,0.046287
3334.1037,0.045175
3335.9674,0.044733
3337.8310,0.044878
3339.6947,0.044173
3341.5584,0.042985
3343.4220,0.041782
3345.2857,0.040674
3347.1494,0.040134
3349.0130,0.039880
3350.8767,0.038764
3352.7404,0.037760
3354.6041,0.037460
3356.4677,0.036823
3358.3314,0.035810
3360.1951,0.035397
3362.0587,0.035289
3363.9224,0.033757
3365.7861,0.032564
3367.6497,0.032703
3369.5134,0.033154
3371.3771,0.032971
3373.2407,0.031994
3375.1044,0.032282
3376.9681,0.032218
3378.8317,0.031730
3380.6954,0.032536
3382.5591,0.032990
3384.4228,0.031811
3386.2864,0.031395
3388.1501,0.032317
3390.0138,0.033462
3391.8774,0.033139
3393.7411,0.032443
3395.6048,0.032598
3397.4684,0.033253
3399.3321,0.032953
3401.1958,0.033020
3403.0594,0.033153
3404.9231,0.031735
3406.7868,0.030375
3408.6505,0.029058
3410.5141,0.027221
3412.3778,0.026102
3414.2415,0.025356
3416.1051,0.024820
3417.9688,0.023718
3419.8325,0.022276
3421.6961,0.022028
3423.5598,0.021985
3425.4235,0.020670
3427.2871,0.019470
3429.1508,0.018797
3431.0145,0.017868
3432.8781,0.017187
3434.7418,0.017066
3436.6055,0.016953
3438.4692,0.015977
3440.3328,0.014751
3442.1965,0.015027
3444.0602,0.015491
3445.9238,0.014488
3447.7875,0.013206
3449.6512,0.013833
3451.5148,0.013317
3453.3785,0.012205
3455.2422,0.012403
3457.1058,0.013030
3458.9695,0.013222
3460.8332,0.012895
3462.6969,0.012719
3464.5605,0.012697
3466.4242,0.011478
3468.2879,0.010761
3470.1515,0.010954
3472.0152,0.010758
3473.8789,0.010209
3475.7425,0.010613
3477.6062,0.010481
3479.4699,0.009659
3481.3335,0.009736
3483.1972,0.009654
3485.0609,0.009177
3486.9245,0.008993
3488.7882,0.008288
3490.6519,0.007784
3492.5156,0.008521
3494.3792,0.008597
3496.2429,0.007721
3498.1066,0.007046
3499.9702,0.006803
3501.8339,0.007130
3503.6976,0.007837
3505.5612,0.007097
3507.4249,0.006169
3509.2886,0.005808
3511.1522,0.006031
3513.0159,0.006689
3514.8796,0.006944
3516.7432,0.006085
3518.6069,0.005595
3520.4706,0.006169
3522.3343,0.005129
3524.1979,0.004342
3526.0616,0.004467
3527.9253,0.003971
3529.7889,0.004641
3531.6526,0.005269
3533.5163,0.005499
3535.3799,0.004850
3537.2436,0.004074
3539.1073,0.004198
3540.9709,0.003943
3542.8346,0.003515
3544.6983,0.003206
3546.5620,0.003455
3548.4256,0.004105
3550.2893,0.004315
3552.1530,0.003820
3554.0166,0.003701
3555.8803,0.004200
3557.7440,0.004117
3559.6076,0.003852
3561.4713,0.003664
3563.3350,0.003013
3565.1986,0.002923
3567.0623,0.002534
3568.9260,0.001684
3570.7896,0.003325
3572.6533,0.003895
3574.5170,0.003047
3576.3807,0.002696
3578.2443,0.003370
3580.1080,0.003735
3581.9717,0.003306
3583.8353,0.002806
3585.6990,0.002752
3587.5627,0.002171
3589.4263,0.001926
3591.2900,0.002797
3593.1537,0.002991
3595.0173,0.003648
3596.8810,0.004234
3598.7447,0.003503
3600.6084,0.002993
3602.4720,0.003369
3604.3357,0.004032
3606.1994,0.003213
3608.0630,0.001399
3609.9267,0.001411
3611.7904,0.002544
3613.6540,0.002158
3615.5177,0.002466
3617.3814,0.003647
3619.2450,0.003919
3621.1087,0.002975
3622.9724,0.002824
3624.8360,0.004058
3626.6997,0.003618
3628.5634,0.001059
3630.4271,-0.000069
3632.2907,0.003685
3634.1544,0.004496
3636.0181,0.003539
3637.8817,0.003122
3639.7454,0.002795
3641.6091,0.002984
3643.4727,0.002667
3645.3364,0.002647
3647.2001,0.001947
3649.0637,0.000877
3650.9274,0.001735
3652.7911,0.003582
3654.6547,0.003838
3656.5184,0.002825
3658.3821,0.002892
3660.2458,0.003616
3662.1094,0.003514
3663.9731,0.004066
3665.8368,0.003663
3667.7004,0.002749
3669.5641,0.002004
3671.4278,0.002158
3673.2914,0.003213
3675.1551,0.001952
3677.0188,0.001996
3678.8824,0.004691
3680.7461,0.004088
3682.6098,0.003516
3684.4735,0.003470
3686.3371,0.002174
3688.2008,0.001143
3690.0645,0.001707
3691.9281,0.003410
3693.7918,0.003915
3695.6555,0.003797
3697.5191,0.003381
3699.3828,0.003403
3701.2465,0.003793
3703.1101,0.004340
3704.9738,0.004647
3706.8375,0.004368
3708.7011,0.003389
3710.5648,0.002197
3712.4285,0.002303
3714.2922,0.004014
3716.1558,0.005004
3718.0195,0.003919
3719.8832,0.002840
3721.7468,0.002604
3723.6105,0.002494
3725.4742,0.002792
3727.3378,0.003443
3729.2015,0.004114
3731.0652,0.003717
3732.9288,0.002196
3734.7925,0.001460
3736.6562,0.001268
3738.5199,0.003489
3740.3835,0.004759
3742.2472,0.003404
3744.1109,0.002310
3745.9745,0.001709
3747.8382,0.003703
3749.7019,0.002711
3751.5655,0.001168
3753.4292,0.003195
3755.2929,0.004201
3757.1565,0.004150
3759.0202,0.003343
3760.8839,0.003417
3762.7475,0.004476
3764.6112,0.004635
3766.4749,0.003731
3768.3386,0.003991
3770.2022,0.003922
3772.0659,0.004332
3773.9296,0.005244
3775.7932,0.003936
3777.6569,0.002886
3779.5206,0.002892
3781.3842,0.003772
3783.2479,0.005224
3785.1116,0.005263
3786.9752,0.004934
3788.8389,0.004798
3790.7026,0.004606
3792.5662,0.004518
3794.4299,0.004157
3796.2936,0.003433
3798.1573,0.003187
3800.0209,0.003787
3801.8846,0.003284
3803.7483,0.004012
3805.6119,0.005237
3807.4756,0.004541
3809.3393,0.004917
3811.2029,0.005461
3813.0666,0.004472
3814.9303,0.003425
3816.7939,0.002687
3818.6576,0.003519
3820.5213,0.004050
3822.3850,0.003196
3824.2486,0.004910
3826.1123,0.005326
3827.9760,0.004325
3829.8396,0.004376
3831.7033,0.003970
3833.5670,0.003135
3835.4306,0.003472
3837.2943,0.003697
3839.1580,0.003921
3841.0216,0.004443
3842.8853,0.005126
3844.7490,0.004957
3846.6126,0.004757
3848.4763,0.004693
3850.3400,0.003930
3852.2037,0.002182
3854.0673,0.001264
3855.9310,0.003705
3857.7947,0.005880
3859.6583,0.005436
3861.5220,0.004537
3863.3857,0.003393
3865.2493,0.003773
3867.1130,0.004512
3868.9767,0.004822
3870.8403,0.004165
3872.7040,0.005324
3874.5677,0.005534
3876.4314,0.004604
3878.2950,0.005016
3880.1587,0.004088
3882.0224,0.003651
3883.8860,0.005405
3885.7497,0.005234
3887.6134,0.004131
3889.4770,0.005278
3891.3407,0.005159
3893.2044,0.004627
3895.0680,0.005837
3896.9317,0.005873
3898.7954,0.005060
3900.6590,0.004420
3902.5227,0.004162
3904.3864,0.004288
3906.2501,0.005187
3908.1137,0.005742
3909.9774,0.005364
3911.8411,0.005223
3913.7047,0.005163
3915.5684,0.004879
3917.4321,0.004280
3919.2957,0.004512
3921.1594,0.005578
3923.0231,0.005725
3924.8867,0.005205
3926.7504,0.004792
3928.6141,0.005450
3930.4777,0.005164
3932.3414,0.005093
3934.2051,0.005739
3936.0688,0.005759
3937.9324,0.005701
3939.7961,0.005678
3941.6598,0.005342
3943.5234,0.005219
3945.3871,0.005677
3947.2508,0.005722
3949.1144,0.005235
3950.9781,0.005487
3952.8418,0.005500
3954.7054,0.005337
3956.5691,0.005352
3958.4328,0.005354
3960.2965,0.005819
3962.1601,0.005952
3964.0238,0.005501
3965.8875,0.005296
3967.7511,0.005194
3969.6148,0.005147
3971.4785,0.005240
3973.3421,0.005685
3975.2058,0.005769
3977.0695,0.005677
3978.9331,0.005476
3980.7968,0.005554
3982.6605,0.005813
3984.5241,0.005607
3986.3878,0.005566
3988.2515,0.005740
3990.1152,0.005964
3991.9788,0.006104
3993.8425,0.005721
3995.7062,0.005742
3997.5698,0.005815
3999.4335,0.005561
