Wavenumber,Intensity
650.4205,0.181178
652.2841,0.178329
654.1478,0.175884
656.0115,0.169424
657.8751,0.164324
659.7388,0.161015
661.6025,0.158918
663.4661,0.155444
665.3298,0.153489
667.1935,0.153113
669.0571,0.153383
670.9208,0.152223
672.7845,0.151798
674.6481,0.151889
676.5118,0.152080
678.3755,0.151594
680.2392,0.153484
682.1028,0.155320
683.9665,0.156061
685.8302,0.155591
687.6938,0.154884
689.5575,0.154172
691.4212,0.154668
693.2848,0.155017
695.1485,0.155301
697.0122,0.155016
698.8758,0.157137
700.7395,0.158851
702.6032,0.157576
704.4669,0.154080
706.3305,0.150252
708.1942,0.142988
710.0579,0.134655
711.9215,0.128192
713.7852,0.121935
715.6489,0.114941
717.5125,0.108606
719.3762,0.103755
721.2399,0.099367
723.1035,0.094559
724.9672,0.090819
726.8309,0.086989
728.6945,0.083437
730.5582,0.080321
732.4219,0.077078
734.2856,0.074302
736.1492,0.072727
738.0129,0.071438
739.8766,0.071338
741.7402,0.073565
743.6039,0.075952
745.4676,0.077286
747.3312,0.077406
749.1949,0.076732
751.0586,0.075789
752.9222,0.075085
754.7859,0.074599
756.6496,0.074059
758.5132,0.073399
760.3769,0.072802
762.2406,0.072444
764.1043,0.072063
765.9679,0.071890
767.8316,0.072115
769.6953,0.071856
771.5589,0.071777
773.4226,0.072278
775.2863,0.072683
777.1499,0.073134
779.0136,0.073665
780.8773,0.074491
782.7409,0.075608
784.6046,0.076803
786.4683,0.078317
788.3320,0.079894
790.1956,0.081371
792.0593,0.083163
793.9230,0.085043
795.7866,0.086684
797.6503,0.087905
799.5140,0.088594
801.3776,0.088916
803.2413,0.089413
805.1050,0.089766
806.9686,0.088905
808.8323,0.087045
810.6960,0.084903
812.5596,0.081993
814.4233,0.078767
816.2870,0.076111
818.1507,0.073747
820.0143,0.071723
821.8780,0.070244
823.7417,0.069465
825.6053,0.070076
827.4690,0.071835
829.3327,0.073019
831.1963,0.069266
833.0600,0.060527
834.9237,0.053055
836.7873,0.049842
838.6510,0.048826
840.5147,0.048590
842.3784,0.048369
844.2420,0.048013
846.1057,0.047724
847.9694,0.047041
849.8330,0.045130
851.6967,0.042378
853.5604,0.039817
855.4240,0.038352
857.2877,0.037654
859.1514,0.037222
861.0150,0.036901
862.8787,0.036481
864.7424,0.036240
866.6060,0.036231
868.4697,0.036411
870.3334,0.036678
872.1971,0.036854
874.0607,0.036857
875.9244,0.037137
877.7881,0.037792
879.6517,0.038604
881.5154,0.039527
883.3791,0.040385
885.2427,0.040666
887.1064,0.040588
888.9701,0.040467
890.8337,0.040125
892.6974,0.039889
894.5611,0.040079
896.4247,0.040544
898.2884,0.041510
900.1521,0.042946
902.0158,0.044663
903.8794,0.046877
905.7431,0.049997
907.6068,0.053895
909.4704,0.058208
911.3341,0.063111
913.1978,0.068641
915.0614,0.070947
916.9251,0.064297
918.7888,0.051799
920.6524,0.041926
922.5161,0.037458
924.3798,0.036237
926.2435,0.036182
928.1071,0.036422
929.9708,0.036653
931.8345,0.037016
933.6981,0.037603
935.5618,0.038298
937.4255,0.038993
939.2891,0.039791
941.1528,0.040705
943.0165,0.041614
944.8801,0.042271
946.7438,0.042614
948.6075,0.042843
950.4711,0.043320
952.3348,0.043934
954.1985,0.044608
956.0622,0.045451
957.9258,0.046463
959.7895,0.047541
961.6532,0.048741
963.5168,0.050156
965.3805,0.051736
967.2442,0.053762
969.1078,0.056315
970.9715,0.058942
972.8352,0.062052
974.6988,0.067106
976.5625,0.075570
978.4262,0.089708
980.2899,0.108537
982.1535,0.114772
984.0172,0.092789
985.8809,0.065428
987.7445,0.053670
989.6082,0.052262
991.4719,0.051970
993.3355,0.050547
995.1992,0.049103
997.0629,0.048385
998.9265,0.048137
1000.7902,0.048197
1002.6539,0.048571
1004.5175,0.049099
1006.3812,0.049767
1008.2449,0.050520
1010.1086,0.051301
1011.9722,0.052108
1013.8359,0.052979
1015.6996,0.053879
1017.5632,0.054948
1019.4269,0.056101
1021.2906,0.057234
1023.1542,0.058438
1025.0179,0.059641
1026.8816,0.060875
1028.7452,0.062164
1030.6089,0.063515
1032.4726,0.065058
1034.3362,0.066865
1036.1999,0.068966
1038.0636,0.071240
1039.9273,0.073683
1041.7909,0.076727
1043.6546,0.080262
1045.5183,0.083955
1047.3819,0.086796
1049.2456,0.086908
1051.1093,0.082923
1052.9729,0.075847
1054.8366,0.068940
1056.7003,0.064620
1058.5639,0.062996
1060.4276,0.062741
1062.2913,0.062476
1064.1550,0.062145
1066.0186,0.062383
1067.8823,0.063284
1069.7460,0.064621
1071.6096,0.066120
1073.4733,0.067802
1075.3370,0.069716
1077.2006,0.071647
1079.0643,0.073661
1080.9280,0.075982
1082.7916,0.078687
1084.6553,0.081568
1086.5190,0.084577
1088.3826,0.087825
1090.2463,0.091508
1092.1100,0.095642
1093.9737,0.100200
1095.8373,0.105248
1097.7010,0.110764
1099.5647,0.116597
1101.4283,0.122334
1103.2920,0.127313
1105.1557,0.130819
1107.0193,0.131235
1108.8830,0.127199
1110.7467,0.119117
1112.6103,0.108911
1114.4740,0.098246
1116.3377,0.088493
1118.2014,0.080664
1120.0650,0.074989
1121.9287,0.071038
1123.7924,0.068485
1125.6560,0.066809
1127.5197,0.065243
1129.3834,0.063498
1131.2470,0.061685
1133.1107,0.059933
1134.9744,0.058182
1136.8380,0.056738
1138.7017,0.055788
1140.5654,0.055220
1142.4290,0.054983
1144.2927,0.054970
1146.1564,0.055129
1148.0201,0.055446
1149.8837,0.055936
1151.7474,0.056768
1153.6111,0.057924
1155.4747,0.059038
1157.3384,0.059846
1159.2021,0.060178
1161.0657,0.060239
1162.9294,0.060800
1164.7931,0.062258
1166.6567,0.064353
1168.5204,0.066971
1170.3841,0.069792
1172.2477,0.071754
1174.1114,0.071518
1175.9751,0.068561
1177.8388,0.064402
1179.7024,0.060950
1181.5661,0.058996
1183.4298,0.058273
1185.2934,0.058101
1187.1571,0.058019
1189.0208,0.057671
1190.8844,0.057205
1192.7481,0.056874
1194.6118,0.056637
1196.4754,0.056543
1198.3391,0.056639
1200.2028,0.056888
1202.0665,0.057167
1203.9301,0.057270
1205.7938,0.057222
1207.6575,0.057225
1209.5211,0.057413
1211.3848,0.057714
1213.2485,0.058045
1215.1121,0.058527
1216.9758,0.059065
1218.8395,0.059470
1220.7031,0.059836
1222.5668,0.060206
1224.4305,0.060521
1226.2941,0.060882
1228.1578,0.061318
1230.0215,0.061831
1231.8852,0.062454
1233.7488,0.062964
1235.6125,0.063360
1237.4762,0.063917
1239.3398,0.064560
1241.2035,0.065206
1243.0672,0.065944
1244.9308,0.066728
1246.7945,0.067506
1248.6582,0.068444
1250.5218,0.069548
1252.3855,0.070643
1254.2492,0.071948
1256.1129,0.073428
1257.9765,0.074770
1259.8402,0.076176
1261.7039,0.077401
1263.5675,0.077902
1265.4312,0.077729
1267.2949,0.077110
1269.1585,0.076376
1271.0222,0.075983
1272.8859,0.076109
1274.7495,0.076745
1276.6132,0.077823
1278.4769,0.079197
1280.3405,0.080892
1282.2042,0.082844
1284.0679,0.085009
1285.9316,0.087511
1287.7952,0.090519
1289.6589,0.094141
1291.5226,0.098294
1293.3862,0.102428
1295.2499,0.105938
1297.1136,0.109098
1298.9772,0.113040
1300.8409,0.118659
1302.7046,0.125140
1304.5682,0.129201
1306.4319,0.126544
1308.2956,0.114766
1310.1592,0.096509
1312.0229,0.079123
1313.8866,0.068321
1315.7503,0.064725
1317.6139,0.065401
1319.4776,0.067903
1321.3413,0.070891
1323.2049,0.073937
1325.0686,0.077239
1326.9323,0.080991
1328.7959,0.084870
1330.6596,0.088050
1332.5233,0.089869
1334.3869,0.089801
1336.2506,0.088386
1338.1143,0.087543
1339.9780,0.088156
1341.8416,0.088169
1343.7053,0.087496
1345.5690,0.087355
1347.4326,0.087824
1349.2963,0.089092
1351.1600,0.090907
1353.0236,0.092962
1354.8873,0.095547
1356.7510,0.098123
1358.6146,0.100197
1360.4783,0.102829
1362.3420,0.107455
1364.2056,0.111639
1366.0693,0.113884
1367.9330,0.117630
1369.7967,0.122428
1371.6603,0.126316
1373.5240,0.132049
1375.3877,0.138580
1377.2513,0.142515
1379.1150,0.147075
1380.9787,0.152909
1382.8423,0.158724
1384.7060,0.164450
1386.5697,0.171091
1388.4333,0.177049
1390.2970,0.177673
1392.1607,0.175961
1394.0244,0.173873
1395.8880,0.168819
1397.7517,0.161386
1399.6154,0.153250
1401.4790,0.144175
1403.3427,0.135075
1405.2064,0.122036
1407.0700,0.105988
1408.9337,0.092123
1410.7974,0.080698
1412.6610,0.072556
1414.5247,0.068157
1416.3884,0.067048
1418.2520,0.069887
1420.1157,0.075512
1421.9794,0.077415
1423.8431,0.075086
1425.7067,0.067779
1427.5704,0.059990
1429.4341,0.055193
1431.2977,0.052974
1433.1614,0.052369
1435.0251,0.053627
1436.8887,0.057484
1438.7524,0.059896
1440.6161,0.060841
1442.4797,0.062926
1444.3434,0.064880
1446.2071,0.066376
1448.0707,0.067353
1449.9344,0.065932
1451.7981,0.062849
1453.6618,0.059758
1455.5254,0.059179
1457.3891,0.064122
1459.2528,0.066824
1461.1164,0.065779
1462.9801,0.066181
1464.8438,0.067943
1466.7074,0.067453
1468.5711,0.064664
1470.4348,0.063080
1472.2984,0.064259
1474.1621,0.065763
1476.0258,0.065454
1477.8895,0.064804
1479.7531,0.064337
1481.6168,0.064924
1483.4805,0.065618
1485.3441,0.066160
1487.2078,0.067778
1489.0715,0.071168
1490.9351,0.074257
1492.7988,0.073850
1494.6625,0.073930
1496.5261,0.077337
1498.3898,0.080824
1500.2535,0.081570
1502.1171,0.081164
1503.9808,0.080845
1505.8445,0.084115
1507.7082,0.092015
1509.5718,0.090055
1511.4355,0.087660
1513.2992,0.086548
1515.1628,0.086025
1517.0265,0.086776
1518.8902,0.086643
1520.7538,0.088070
1522.6175,0.090726
1524.4812,0.090008
1526.3448,0.090974
1528.2085,0.092341
1530.0722,0.092188
1531.9359,0.093558
1533.7995,0.097304
1535.6632,0.097600
1537.5269,0.096758
1539.3905,0.102117
1541.2542,0.111555
1543.1179,0.112269
1544.9815,0.113693
1546.8452,0.114847
1548.7089,0.116436
1550.5725,0.120286
1552.4362,0.122736
1554.2999,0.124635
1556.1635,0.127051
1558.0272,0.133584
1559.8909,0.148440
1561.7546,0.142871
1563.6182,0.140002
1565.4819,0.141900
1567.3456,0.143693
1569.2092,0.147226
1571.0729,0.150380
1572.9366,0.149030
1574.8002,0.150490
1576.6639,0.155773
1578.5276,0.155864
1580.3912,0.154349
1582.2549,0.154918
1584.1186,0.155520
1585.9822,0.155785
1587.8459,0.155533
1589.7096,0.154639
1591.5733,0.153466
1593.4369,0.152076
1595.3006,0.150227
1597.1643,0.147996
1599.0279,0.145593
1600.8916,0.143226
1602.7553,0.141164
1604.6189,0.139154
1606.4826,0.137307
1608.3463,0.135662
1610.2099,0.133236
1612.0736,0.130003
1613.9373,0.126567
1615.8010,0.123394
1617.6646,0.117997
1619.5283,0.111225
1621.3920,0.106671
1623.2556,0.101782
1625.1193,0.095024
1626.9830,0.088640
1628.8466,0.081322
1630.7103,0.073436
1632.5740,0.066909
1634.4376,0.060984
1636.3013,0.054270
1638.1650,0.049740
1640.0286,0.047995
1641.8923,0.046699
1643.7560,0.046289
1645.6197,0.047423
1647.4833,0.050039
1649.3470,0.051002
1651.2107,0.052237
1653.0743,0.057510
1654.9380,0.061663
1656.8017,0.060413
1658.6653,0.060766
1660.5290,0.061708
1662.3927,0.062343
1664.2563,0.061789
1666.1200,0.060597
1667.9837,0.059978
1669.8474,0.059619
1671.7110,0.058823
1673.5747,0.058888
1675.4384,0.060760
1677.3020,0.062791
1679.1657,0.063961
1681.0294,0.066091
1682.8930,0.068732
1684.7567,0.072580
1686.6204,0.072149
1688.4840,0.069754
1690.3477,0.067538
1692.2114,0.064498
1694.0750,0.061432
1695.9387,0.058317
1697.8024,0.054774
1699.6661,0.052245
1701.5297,0.047106
1703.3934,0.042306
1705.2571,0.037729
1707.1207,0.031583
1708.9844,0.027145
1710.8481,0.023914
1712.7117,0.021348
1714.5754,0.019659
1716.4391,0.018236
1718.3027,0.017323
1720.1664,0.016647
1722.0301,0.016032
1723.8937,0.015033
1725.7574,0.013609
1727.6211,0.012176
1729.4848,0.010831
1731.3484,0.009702
1733.2121,0.009047
1735.0758,0.008097
1736.9394,0.007585
1738.8031,0.007460
1740.6668,0.007180
1742.5304,0.006942
1744.3941,0.006800
1746.2578,0.006489
1748.1214,0.006186
1749.9851,0.005927
1751.8488,0.005888
1753.7125,0.005800
1755.5761,0.005616
1757.4398,0.005327
1759.3035,0.005202
1761.1671,0.005151
1763.0308,0.005125
1764.8945,0.005277
1766.7581,0.005417
1768.6218,0.005203
1770.4855,0.004947
1772.3491,0.004915
1774.2128,0.004947
1776.0765,0.004885
1777.9401,0.004859
1779.8038,0.004847
1781.6675,0.004959
1783.5312,0.004954
1785.3948,0.004916
1787.2585,0.005006
1789.1222,0.005040
1790.9858,0.004883
1792.8495,0.004784
1794.7132,0.004879
1796.5768,0.005063
1798.4405,0.004975
1800.3042,0.004857
1802.1678,0.004922
1804.0315,0.005124
1805.8952,0.005156
1807.7589,0.005169
1809.6225,0.005140
1811.4862,0.005031
1813.3499,0.004836
1815.2135,0.004688
1817.0772,0.004720
1818.9409,0.004908
1820.8045,0.004770
1822.6682,0.004796
1824.5319,0.005056
1826.3955,0.004917
1828.2592,0.004672
1830.1229,0.004639
1831.9865,0.004646
1833.8502,0.004791
1835.7139,0.004778
1837.5776,0.004670
1839.4412,0.004490
1841.3049,0.004454
1843.1686,0.004610
1845.0322,0.004515
1846.8959,0.004487
1848.7596,0.004716
1850.6232,0.004739
1852.4869,0.004871
1854.3506,0.004885
1856.2142,0.004821
1858.0779,0.004778
1859.9416,0.004733
1861.8052,0.004773
1863.6689,0.004783
1865.5326,0.004661
1867.3963,0.004785
1869.2599,0.004898
1871.1236,0.004709
1872.9873,0.004647
1874.8509,0.004976
1876.7146,0.004818
1878.5783,0.004394
1880.4419,0.004339
1882.3056,0.004442
1884.1693,0.004503
1886.0329,0.004819
1887.8966,0.004760
1889.7603,0.004487
1891.6240,0.004452
1893.4876,0.004455
1895.3513,0.004315
1897.2150,0.004674
1899.0786,0.004962
1900.9423,0.004696
1902.8060,0.004689
1904.6696,0.004816
1906.5333,0.004439
1908.3970,0.004304
1910.2606,0.004560
1912.1243,0.004997
1913.9880,0.004947
1915.8516,0.004601
1917.7153,0.004342
1919.5790,0.004423
1921.4427,0.004623
1923.3063,0.004462
1925.1700,0.004324
1927.0337,0.004268
1928.8973,0.004032
1930.7610,0.004538
1932.6247,0.005152
1934.4883,0.004890
1936.3520,0.004223
1938.2157,0.004375
1940.0793,0.004825
1941.9430,0.004503
1943.8067,0.003894
1945.6704,0.003704
1947.5340,0.003751
1949.3977,0.003659
1951.2614,0.003150
1953.1250,0.003355
1954.9887,0.003767
1956.8524,0.003551
1958.7160,0.003139
1960.5797,0.003430
1962.4434,0.003778
1964.3070,0.002552
1966.1707,0.000968
1968.0344,0.000806
1969.8980,0.000554
1971.7617,0.000757
1973.6254,0.001174
1975.4891,0.000984
1977.3527,0.001029
1979.2164,0.002392
1981.0801,0.002771
1982.9437,0.002816
1984.8074,0.003831
1986.6711,0.003617
1988.5347,0.002379
1990.3984,0.002704
1992.2621,0.002918
1994.1257,0.002858
1995.9894,0.003296
1997.8531,0.004309
1999.7167,0.003795
2001.5804,0.002699
2003.4441,0.002280
2005.3078,0.002652
2007.1714,0.003653
2009.0351,0.003587
2010.8988,0.002458
2012.7624,0.002463
2014.6261,0.002906
2016.4898,0.003318
2018.3534,0.002805
2020.2171,0.002509
2022.0808,0.003274
2023.9444,0.003870
2025.8081,0.002617
2027.6718,0.001297
2029.5355,0.000658
2031.3991,0.000345
2033.2628,0.000535
2035.1265,0.001601
2036.9901,0.002574
2038.8538,0.003144
2040.7175,0.003113
2042.5811,0.004048
2044.4448,0.004375
2046.3085,0.004270
2048.1721,0.004273
2050.0358,0.005126
2051.8995,0.006064
2053.7631,0.006288
2055.6268,0.005620
2057.4905,0.005086
2059.3542,0.004838
2061.2178,0.005312
2063.0815,0.005147
2064.9452,0.004732
2066.8088,0.005388
2068.6725,0.006265
2070.5362,0.006016
2072.3998,0.006156
2074.2635,0.006117
2076.1272,0.006225
2077.9908,0.007103
2079.8545,0.007620
2081.7182,0.007257
2083.5819,0.007048
2085.4455,0.007054
2087.3092,0.006972
2089.1729,0.007014
2091.0365,0.007106
2092.9002,0.006781
2094.7639,0.006733
2096.6275,0.006867
2098.4912,0.006747
2100.3549,0.006945
2102.2185,0.007142
2104.0822,0.006903
2105.9459,0.007588
2107.8095,0.007988
2109.6732,0.007733
2111.5369,0.007824
2113.4006,0.008027
2115.2642,0.007843
2117.1279,0.007540
2118.9916,0.007240
2120.8552,0.007414
2122.7189,0.007766
2124.5826,0.008211
2126.4462,0.007901
2128.3099,0.007054
2130.1736,0.006558
2132.0372,0.006389
2133.9009,0.006101
2135.7646,0.006001
2137.6282,0.005994
2139.4919,0.006320
2141.3556,0.006162
2143.2193,0.004330
2145.0829,0.004063
2146.9466,0.005238
2148.8103,0.005666
2150.6739,0.005684
2152.5376,0.004103
2154.4013,0.002110
2156.2649,0.001797
2158.1286,0.002366
2159.9923,0.003858
2161.8559,0.004828
2163.7196,0.004869
2165.5833,0.005244
2167.4470,0.004918
2169.3106,0.005175
2171.1743,0.005465
2173.0380,0.005170
2174.9016,0.004624
2176.7653,0.005214
2178.6290,0.005228
2180.4926,0.005050
2182.3563,0.005293
2184.2200,0.006795
2186.0836,0.006710
2187.9473,0.006417
2189.8110,0.007119
2191.6746,0.007337
2193.5383,0.007626
2195.4020,0.007730
2197.2657,0.007769
2199.1293,0.008195
2200.9930,0.007920
2202.8567,0.007585
2204.7203,0.007507
2206.5840,0.008477
2208.4477,0.008802
2210.3113,0.008705
2212.1750,0.009662
2214.0387,0.010040
2215.9023,0.009655
2217.7660,0.008744
2219.6297,0.008754
2221.4934,0.009033
2223.3570,0.009028
2225.2207,0.010052
2227.0844,0.010428
2228.9480,0.010172
2230.8117,0.010184
2232.6754,0.009896
2234.5390,0.009847
2236.4027,0.009856
2238.2664,0.009142
2240.1300,0.009786
2241.9937,0.010879
2243.8574,0.010833
2245.7210,0.010568
2247.5847,0.011184
2249.4484,0.010929
2251.3121,0.009564
2253.1757,0.008995
2255.0394,0.010073
2256.9031,0.011012
2258.7667,0.010756
2260.6304,0.010865
2262.4941,0.011366
2264.3577,0.010889
2266.2214,0.010582
2268.0851,0.011023
2269.9487,0.011334
2271.8124,0.011273
2273.6761,0.012051
2275.5397,0.012897
2277.4034,0.013012
2279.2671,0.012740
2281.1308,0.012309
2282.9944,0.012468
2284.8581,0.013103
2286.7218,0.013045
2288.5854,0.013144
2290.4491,0.013568
2292.3128,0.013443
2294.1764,0.013154
2296.0401,0.013292
2297.9038,0.013330
2299.7674,0.013154
2301.6311,0.013300
2303.4948,0.013586
2305.3585,0.013726
2307.2221,0.013601
2309.0858,0.013072
2310.9495,0.013129
2312.8131,0.013364
2314.6768,0.013288
2316.5405,0.013451
2318.4041,0.013627
2320.2678,0.013542
2322.1315,0.013591
2323.9951,0.013448
2325.8588,0.012999
2327.7225,0.012417
2329.5861,0.012244
2331.4498,0.012638
2333.3135,0.012905
2335.1772,0.012686
2337.0408,0.012395
2338.9045,0.012522
2340.7682,0.012616
2342.6318,0.012543
2344.4955,0.012682
2346.3592,0.012721
2348.2228,0.012492
2350.0865,0.012227
2351.9502,0.012084
2353.8138,0.012081
2355.6775,0.011843
2357.5412,0.011887
2359.4049,0.012155
2361.2685,0.012395
2363.1322,0.012438
2364.9959,0.012493
2366.8595,0.013228
2368.7232,0.013246
2370.5869,0.012729
2372.4505,0.012840
2374.3142,0.013090
2376.1779,0.012916
2378.0415,0.012890
2379.9052,0.013201
2381.7689,0.013349
2383.6325,0.013241
2385.4962,0.013257
2387.3599,0.013381
2389.2236,0.013450
2391.0872,0.013374
2392.9509,0.013425
2394.8146,0.013445
2396.6782,0.013473
2398.5419,0.013546
2400.4056,0.013795
2402.2692,0.014096
2404.1329,0.014165
2405.9966,0.014222
2407.8602,0.014082
2409.7239,0.013782
2411.5876,0.013888
2413.4512,0.014167
2415.3149,0.014217
2417.1786,0.014356
2419.0423,0.014840
2420.9059,0.014850
2422.7696,0.014606
2424.6333,0.014959
2426.4969,0.015096
2428.3606,0.015152
2430.2243,0.015377
2432.0879,0.015223
2433.9516,0.015042
2435.8153,0.015041
2437.6789,0.014896
2439.5426,0.014630
2441.4063,0.015151
2443.2700,0.015639
2445.1336,0.015379
2446.9973,0.015154
2448.8610,0.015298
2450.7246,0.015297
2452.5883,0.015495
2454.4520,0.015687
2456.3156,0.015410
2458.1793,0.015258
2460.0430,0.015183
2461.9066,0.015416
2463.7703,0.015514
2465.6340,0.015420
2467.4976,0.015720
2469.3613,0.016038
2471.2250,0.015678
2473.0887,0.015561
2474.9523,0.015412
2476.8160,0.015359
2478.6797,0.015962
2480.5433,0.016107
2482.4070,0.016036
2484.2707,0.016281
2486.1343,0.016585
2487.9980,0.016676
2489.8617,0.016987
2491.7253,0.016890
2493.5890,0.016697
2495.4527,0.016969
2497.3164,0.016973
2499.1800,0.017068
2501.0437,0.017270
2502.9074,0.017326
2504.7710,0.017160
2506.6347,0.017077
2508.4984,0.017357
2510.3620,0.017620
2512.2257,0.017404
2514.0894,0.016959
2515.9530,0.017307
2517.8167,0.017917
2519.6804,0.018179
2521.5440,0.018066
2523.4077,0.017866
2525.2714,0.017996
2527.1351,0.017993
2528.9987,0.018124
2530.8624,0.018673
2532.7261,0.019120
2534.5897,0.018942
2536.4534,0.018668
2538.3171,0.018417
2540.1807,0.018478
2542.0444,0.018888
2543.9081,0.019199
2545.7717,0.019251
2547.6354,0.019276
2549.4991,0.019157
2551.3627,0.018999
2553.2264,0.018637
2555.0901,0.018684
2556.9538,0.019098
2558.8174,0.019500
2560.6811,0.019756
2562.5448,0.019726
2564.4084,0.019853
2566.2721,0.020313
2568.1358,0.020427
2569.9994,0.020427
2571.8631,0.020596
2573.7268,0.020634
2575.5904,0.020803
2577.4541,0.020846
2579.3178,0.020754
2581.1815,0.021231
2583.0451,0.021310
2584.9088,0.021082
2586.7725,0.021147
2588.6361,0.021535
2590.4998,0.022187
2592.3635,0.022430
2594.2271,0.022450
2596.0908,0.022899
2597.9545,0.023046
2599.8181,0.022976
2601.6818,0.023260
2603.5455,0.023615
2605.4091,0.023695
2607.2728,0.023779
2609.1365,0.023977
2611.0002,0.024273
2612.8638,0.024384
2614.7275,0.024385
2616.5912,0.024580
2618.4548,0.025093
2620.3185,0.025146
2622.1822,0.025182
2624.0458,0.025264
2625.9095,0.025376
2627.7732,0.025543
2629.6368,0.025885
2631.5005,0.026226
2633.3642,0.026510
2635.2279,0.026576
2637.0915,0.026606
2638.9552,0.026546
2640.8189,0.026828
2642.6825,0.027182
2644.5462,0.027534
2646.4099,0.027532
2648.2735,0.027566
2650.1372,0.027600
2652.0009,0.027465
2653.8645,0.027195
2655.7282,0.027256
2657.5919,0.027526
2659.4555,0.027601
2661.3192,0.027626
2663.1829,0.027708
2665.0466,0.027639
2666.9102,0.027577
2668.7739,0.027715
2670.6376,0.027879
2672.5012,0.027830
2674.3649,0.028024
2676.2286,0.028394
2678.0922,0.028483
2679.9559,0.028570
2681.8196,0.028886
2683.6832,0.029179
2685.5469,0.029339
2687.4106,0.029659
2689.2742,0.029868
2691.1379,0.030137
2693.0016,0.030479
2694.8653,0.030772
2696.7289,0.031004
2698.5926,0.031315
2700.4563,0.031723
2702.3199,0.032231
2704.1836,0.032535
2706.0473,0.032685
2707.9109,0.032790
2709.7746,0.032931
2711.6383,0.033242
2713.5019,0.033589
2715.3656,0.034023
2717.2293,0.034292
2719.0930,0.034457
2720.9566,0.034878
2722.8203,0.035399
2724.6840,0.035789
2726.5476,0.036366
2728.4113,0.036720
2730.2750,0.036669
2732.1386,0.037007
2734.0023,0.037452
2735.8660,0.037846
2737.7296,0.038369
2739.5933,0.038647
2741.4570,0.039147
2743.3206,0.039753
2745.1843,0.040059
2747.0480,0.040212
2748.9117,0.040596
2750.7753,0.041027
2752.6390,0.041605
2754.5027,0.042075
2756.3663,0.042560
2758.2300,0.042901
2760.0937,0.043330
2761.9573,0.043808
2763.8210,0.044294
2765.6847,0.044818
2767.5483,0.045301
2769.4120,0.045788
2771.2757,0.046335
2773.1394,0.046879
2775.0030,0.047360
2776.8667,0.047779
2778.7304,0.048200
2780.5940,0.048723
2782.4577,0.049118
2784.3214,0.049020
2786.1850,0.048659
2788.0487,0.048543
2789.9124,0.048496
2791.7760,0.047919
2793.6397,0.047488
2795.5034,0.046989
2797.3670,0.046517
2799.2307,0.046450
2801.0944,0.046184
2802.9581,0.045636
2804.8217,0.045296
2806.6854,0.044958
2808.5491,0.044735
2810.4127,0.044493
2812.2764,0.044449
2814.1401,0.044262
2816.0037,0.043985
2817.8674,0.044091
2819.7311,0.044316
2821.5947,0.044584
2823.4584,0.044680
2825.3221,0.044758
2827.1857,0.044719
2829.0494,0.044465
2830.9131,0.044269
2832.7768,0.044144
2834.6404,0.044468
2836.5041,0.044779
2838.3678,0.044914
2840.2314,0.045139
2842.0951,0.045514
2843.9588,0.046015
2845.8224,0.046514
2847.6861,0.046887
2849.5498,0.047377
2851.4134,0.048091
2853.2771,0.048659
2855.1408,0.049295
2857.0045,0.049758
2858.8681,0.050071
2860.7318,0.050840
2862.5955,0.051625
2864.4591,0.052275
2866.3228,0.052273
2868.1865,0.051997
2870.0501,0.052118
2871.9138,0.052280
2873.7775,0.052563
2875.6411,0.053033
2877.5048,0.053062
2879.3685,0.053286
2881.2321,0.053790
2883.0958,0.054097
2884.9595,0.054123
2886.8232,0.054178
2888.6868,0.054283
2890.5505,0.054801
2892.4142,0.055192
2894.2778,0.055425
2896.1415,0.055635
2898.0052,0.055982
2899.8688,0.056078
2901.7325,0.056273
2903.5962,0.056366
2905.4598,0.056431
2907.3235,0.056582
2909.1872,0.056938
2911.0509,0.057436
2912.9145,0.058179
2914.7782,0.058485
2916.6419,0.058931
2918.5055,0.059385
2920.3692,0.060009
2922.2329,0.060705
2924.0965,0.061215
2925.9602,0.061493
2927.8239,0.061987
2929.6875,0.062751
2931.5512,0.063594
2933.4149,0.064073
2935.2785,0.064177
2937.1422,0.064224
2939.0059,0.064835
2940.8696,0.064854
2942.7332,0.064546
2944.5969,0.064910
2946.4606,0.065897
2948.3242,0.066078
2950.1879,0.065921
2952.0516,0.065969
2953.9152,0.066032
2955.7789,0.066185
2957.6426,0.066293
2959.5062,0.066392
2961.3699,0.066927
2963.2336,0.067513
2965.0972,0.067931
2966.9609,0.068598
2968.8246,0.069763
2970.6883,0.070110
2972.5519,0.070206
2974.4156,0.070598
2976.2793,0.071307
2978.1429,0.071706
2980.0066,0.072070
2981.8703,0.072311
2983.7339,0.072239
2985.5976,0.072491
2987.4613,0.073245
2989.3249,0.073604
2991.1886,0.073886
2993.0523,0.074197
2994.9160,0.075241
2996.7796,0.075918
2998.6433,0.076195
3000.5070,0.076484
3002.3706,0.076831
3004.2343,0.077210
3006.0980,0.078313
3007.9616,0.078656
3009.8253,0.078763
3011.6890,0.079597
3013.5526,0.080104
3015.4163,0.080145
3017.2800,0.080136
3019.1436,0.080182
3021.0073,0.080463
3022.8710,0.080699
3024.7347,0.081470
3026.5983,0.081724
3028.4620,0.081483
3030.3257,0.081176
3032.1893,0.081341
3034.0530,0.081582
3035.9167,0.081994
3037.7803,0.082122
3039.6440,0.082220
3041.5077,0.082200
3043.3713,0.082212
3045.2350,0.082370
3047.0987,0.082904
3048.9624,0.083036
3050.8260,0.083136
3052.6897,0.082747
3054.5534,0.082403
3056.4170,0.082557
3058.2807,0.082859
3060.1444,0.082768
3062.0080,0.082641
3063.8717,0.082100
3065.7354,0.081919
3067.5990,0.082275
3069.4627,0.082588
3071.3264,0.081924
3073.1900,0.081463
3075.0537,0.080977
3076.9174,0.080507
3078.7811,0.080316
3080.6447,0.080445
3082.5084,0.079745
3084.3721,0.078870
3086.2357,0.078736
3088.0994,0.078799
3089.9631,0.077696
3091.8267,0.076500
3093.6904,0.075611
3095.5541,0.075201
3097.4177,0.074641
3099.2814,0.074199
3101.1451,0.073885
3103.0087,0.073063
3104.8724,0.072017
3106.7361,0.071212
3108.5998,0.070358
3110.4634,0.069850
3112.3271,0.069014
3114.1908,0.068230
3116.0544,0.067237
3117.9181,0.066607
3119.7818,0.066286
3121.6454,0.066079
3123.5091,0.065655
3125.3728,0.064890
3127.2364,0.064158
3129.1001,0.063800
3130.9638,0.063524
3132.8275,0.063125
3134.6911,0.061792
3136.5548,0.060950
3138.4185,0.060718
3140.2821,0.060744
3142.1458,0.060649
3144.0095,0.060538
3145.8731,0.060236
3147.7368,0.059328
3149.6005,0.058478
3151.4641,0.058255
3153.3278,0.058508
3155.1915,0.058374
3157.0551,0.057547
3158.9188,0.056779
3160.7825,0.055907
3162.6462,0.055874
3164.5098,0.055670
3166.3735,0.055160
3168.2372,0.054408
3170.1008,0.054680
3171.9645,0.054447
3173.8282,0.053974
3175.6918,0.053078
3177.5555,0.052362
3179.4192,0.052340
3181.2828,0.052552
3183.1465,0.052349
3185.0102,0.052252
3186.8739,0.052007
3188.7375,0.051935
3190.6012,0.051410
3192.4649,0.051772
3194.3285,0.052169
3196.1922,0.052198
3198.0559,0.051685
3199.9195,0.051102
3201.7832,0.051266
3203.6469,0.051560
3205.5105,0.051172
3207.3742,0.051056
3209.2379,0.051338
3211.1015,0.051725
3212.9652,0.051743
3214.8289,0.051764
3216.6926,0.051700
3218.5562,0.051607
3220.4199,0.051529
3222.2836,0.051561
3224.1472,0.051918
3226.0109,0.052014
3227.8746,0.051783
3229.7382,0.051384
3231.6019,0.051261
3233.4656,0.051818
3235.3292,0.051630
3237.1929,0.051907
3239.0566,0.053006
3240.9202,0.053665
3242.7839,0.053515
3244.6476,0.053364
3246.5113,0.053782
3248.3749,0.054292
3250.2386,0.054313
3252.1023,0.054310
3253.9659,0.054199
3255.8296,0.054385
3257.6933,0.054450
3259.5569,0.054950
3261.4206,0.055544
3263.2843,0.055949
3265.1479,0.055445
3267.0116,0.054839
3268.8753,0.055750
3270.7390,0.056458
3272.6026,0.056101
3274.4663,0.055980
3276.3300,0.055478
3278.1936,0.055041
3280.0573,0.054544
3281.9210,0.053908
3283.7846,0.053646
3285.6483,0.053517
3287.5120,0.052972
3289.3756,0.052184
3291.2393,0.051849
3293.1030,0.052225
3294.9666,0.051844
3296.8303,0.051229
3298.6940,0.050366
3300.5577,0.049760
3302.4213,0.049667
3304.2850,0.049548
3306.1487,0.048411
3308.0123,0.047714
3309.8760,0.047115
3311.7397,0.047110
3313.6033,0.046644
3315.4670,0.045682
3317.3307,0.045368
3319.1943,0.045159
3321.0580,0.045610
3322.9217,0.046490
3324.7854,0.045784
3326.6490,0.045286
3328.5127,0.046442
3330.3764,0.047866
3332.2400,0.047267
3334.1037,0.045098
3335.9674,0.044533
3337.8310,0.044910
3339.6947,0.044285
3341.5584,0.043563
3343.4220,0.043147
3345.2857,0.042635
3347.1494,0.041378
3349.0130,0.040713
3350.8767,0.039643
3352.7404,0.038928
3354.6041,0.038665
3356.4677,0.038040
3358.3314,0.036950
3360.1951,0.036869
3362.0587,0.036362
3363.9224,0.034759
3365.7861,0.033039
3367.6497,0.032615
3369.5134,0.033080
3371.3771,0.033586
3373.2407,0.032753
3375.1044,0.032670
3376.9681,0.032758
3378.8317,0.032657
3380.6954,0.033587
3382.5591,0.033888
3384.4228,0.033278
3386.2864,0.033922
3388.1501,0.033813
3390.0138,0.033387
3391.8774,0.033848
3393.7411,0.033821
3395.6048,0.033700
3397.4684,0.034459
3399.3321,0.034304
3401.1958,0.033653
3403.0594,0.033414
3404.9231,0.032310
3406.7868,0.030714
3408.6505,0.029716
3410.5141,0.029144
3412.3778,0.028689
3414.2415,0.027391
3416.1051,0.026268
3417.9688,0.026196
3419.8325,0.025176
3421.6961,0.024178
3423.5598,0.022996
3425.4235,0.021071
3427.2871,0.020051
3429.1508,0.019439
3431.0145,0.018786
3432.8781,0.018663
3434.7418,0.018183
3436.6055,0.016987
3438.4692,0.016816
3440.3328,0.017044
3442.1965,0.016766
3444.0602,0.015755
3445.9238,0.015328
3447.7875,0.015262
3449.6512,0.014773
3451.5148,0.014292
3453.3785,0.013883
3455.2422,0.013190
3457.1058,0.012897
3458.9695,0.013157
3460.8332,0.012663
3462.6969,0.012991
3464.5605,0.013360
3466.4242,0.012243
3468.2879,0.011148
3470.1515,0.011215
3472.0152,0.011248
3473.8789,0.010654
3475.7425,0.010761
3477.6062,0.010956
3479.4699,0.010287
3481.3335,0.009434
3483.1972,0.009294
3485.0609,0.009181
3486.9245,0.008628
3488.7882,0.008874
3490.6519,0.010197
3492.5156,0.009802
3494.3792,0.008589
3496.2429,0.008221
3498.1066,0.007705
3499.9702,0.007267
3501.8339,0.007701
3503.6976,0.008375
3505.5612,0.008627
3507.4249,0.007329
3509.2886,0.005889
3511.1522,0.005583
3513.0159,0.006007
3514.8796,0.006085
3516.7432,0.006600
3518.6069,0.006709
3520.4706,0.006276
3522.3343,0.006215
3524.1979,0.006247
3526.0616,0.005522
3527.9253,0.004596
3529.7889,0.004758
3531.6526,0.005288
3533.5163,0.004430
3535.3799,0.003482
3537.2436,0.003491
3539.1073,0.003681
3540.9709,0.004148
3542.8346,0.005270
3544.6983,0.004327
3546.5620,0.002865
3548.4256,0.004278
3550.2893,0.005201
3552.1530,0.004271
3554.0166,0.003278
3555.8803,0.003142
3557.7440,0.003165
3559.6076,0.002602
3561.4713,0.002895
3563.3350,0.003285
3565.1986,0.002802
3567.0623,0.002719
3568.9260,0.002551
3570.7896,0.002338
3572.6533,0.002524
3574.5170,0.002019
3576.3807,0.001763
3578.2443,0.002520
3580.1080,0.002358
3581.9717,0.002080
3583.8353,0.002721
3585.6990,0.002933
3587.5627,0.002286
3589.4263,0.001501
3591.2900,0.001211
3593.1537,0.002074
3595.0173,0.003156
3596.8810,0.002779
3598.7447,0.002243
3600.6084,0.002912
3602.4720,0.002698
3604.3357,0.002401
3606.1994,0.003262
3608.0630,0.003197
3609.9267,0.002338
3611.7904,0.001999
3613.6540,0.001954
3615.5177,0.001624
3617.3814,0.002191
3619.2450,0.002069
3621.1087,0.001189
3622.9724,0.002228
3624.8360,0.003290
3626.6997,0.003433
3628.5634,0.002239
3630.4271,0.000386
3632.2907,0.001322
3634.1544,0.002579
3636.0181,0.002291
3637.8817,0.002531
3639.7454,0.003412
3641.6091,0.003277
3643.4727,0.002789
3645.3364,0.002927
3647.2001,0.002436
3649.0637,0.001093
3650.9274,0.000736
3652.7911,0.001424
3654.6547,0.002305
3656.5184,0.003139
3658.3821,0.002506
3660.2458,0.002367
3662.1094,0.003106
3663.9731,0.002940
3665.8368,0.002619
3667.7004,0.001898
3669.5641,0.001583
3671.4278,0.001904
3673.2914,0.002324
3675.1551,0.002691
3677.0188,0.002309
3678.8824,0.001976
3680.7461,0.002631
3682.6098,0.003038
3684.4735,0.002841
3686.3371,0.002829
3688.2008,0.003177
3690.0645,0.002333
3691.9281,0.001226
3693.7918,0.001618
3695.6555,0.002736
3697.5191,0.003508
3699.3828,0.003533
3701.2465,0.002704
3703.1101,0.002116
3704.9738,0.002530
3706.8375,0.003190
3708.7011,0.002468
3710.5648,0.001416
3712.4285,0.001471
3714.2922,0.001856
3716.1558,0.002443
3718.0195,0.003395
3719.8832,0.003408
3721.7468,0.002835
3723.6105,0.002490
3725.4742,0.002210
3727.3378,0.002142
3729.2015,0.002329
3731.0652,0.002756
3732.9288,0.003151
3734.7925,0.002531
3736.6562,0.001404
3738.5199,0.001152
3740.3835,0.002031
3742.2472,0.002852
3744.1109,0.002836
3745.9745,0.002599
3747.8382,0.001968
3749.7019,0.002080
3751.5655,0.002086
3753.4292,0.001345
3755.2929,0.001684
3757.1565,0.002590
3759.0202,0.002739
3760.8839,0.002155
3762.7475,0.002758
3764.6112,0.003632
3766.4749,0.003342
3768.3386,0.002877
3770.2022,0.003165
3772.0659,0.002919
3773.9296,0.002676
3775.7932,0.003275
3777.6569,0.003637
3779.5206,0.003425
3781.3842,0.003204
3783.2479,0.003515
3785.1116,0.003644
3786.9752,0.003422
3788.8389,0.003641
3790.7026,0.003951
3792.5662,0.003902
3794.4299,0.003703
3796.2936,0.003321
3798.1573,0.003281
3800.0209,0.003434
3801.8846,0.003284
3803.7483,0.003203
3805.6119,0.003276
3807.4756,0.002917
3809.3393,0.002771
3811.2029,0.003572
3813.0666,0.003626
3814.9303,0.003225
3816.7939,0.002675
3818.6576,0.002885
3820.5213,0.003753
3822.3850,0.003438
3824.2486,0.002904
3826.1123,0.003241
3827.9760,0.003365
3829.8396,0.003288
3831.7033,0.003436
3833.5670,0.003255
3835.4306,0.003107
3837.2943,0.003401
3839.1580,0.003226
3841.0216,0.002475
3842.8853,0.002098
3844.7490,0.002634
3846.6126,0.003186
3848.4763,0.003623
3850.3400,0.003858
3852.2037,0.003840
3854.0673,0.003226
3855.9310,0.001777
3857.7947,0.002605
3859.6583,0.003735
3861.5220,0.003874
3863.3857,0.003407
3865.2493,0.003151
3867.1130,0.003286
3868.9767,0.002972
3870.8403,0.002981
3872.7040,0.002744
3874.5677,0.002739
3876.4314,0.003733
3878.2950,0.004047
3880.1587,0.003541
3882.0224,0.003119
3883.8860,0.003245
3885.7497,0.003916
3887.6134,0.004196
3889.4770,0.004250
3891.3407,0.004457
3893.2044,0.004217
3895.0680,0.003811
3896.9317,0.003955
3898.7954,0.004095
3900.6590,0.003620
3902.5227,0.003440
3904.3864,0.003924
3906.2501,0.003949
3908.1137,0.003668
3909.9774,0.004245
3911.8411,0.004742
3913.7047,0.004438
3915.5684,0.003889
3917.4321,0.003763
3919.2957,0.003954
3921.1594,0.003723
3923.0231,0.003575
3924.8867,0.003526
3926.7504,0.003960
3928.6141,0.004371
3930.4777,0.004380
3932.3414,0.004179
3934.2051,0.004323
3936.0688,0.004395
3937.9324,0.004666
3939.7961,0.004608
3941.6598,0.004194
3943.5234,0.004334
3945.3871,0.004405
3947.2508,0.004518
3949.1144,0.004552
3950.9781,0.004222
3952.8418,0.004321
3954.7054,0.004305
3956.5691,0.003788
3958.4328,0.004081
3960.2965,0.004843
3962.1601,0.004865
3964.0238,0.004624
3965.8875,0.004470
3967.7511,0.004382
3969.6148,0.004535
3971.4785,0.004871
3973.3421,0.004886
3975.2058,0.004617
3977.0695,0.004792
3978.9331,0.004695
3980.7968,0.004360
3982.6605,0.004949
3984.5241,0.005371
3986.3878,0.004812
3988.2515,0.004587
3990.1152,0.004730
3991.9788,0.004680
3993.8425,0.004492
3995.7062,0.004414
3997.5698,0.004519
3999.4335,0.004672
