Wavenumber,Intensity
650.4205,0.259616
652.2841,0.250610
654.1478,0.245871
656.0115,0.243274
657.8751,0.240774
659.7388,0.237473
661.6025,0.234956
663.4661,0.232385
665.3298,0.232058
667.1935,0.234097
669.0571,0.232483
670.9208,0.226866
672.7845,0.223821
674.6481,0.222769
676.5118,0.222999
678.3755,0.222066
680.2392,0.222839
682.1028,0.222375
683.9665,0.221644
685.8302,0.220340
687.6938,0.219610
689.5575,0.220364
691.4212,0.221754
693.2848,0.222114
695.1485,0.223334
697.0122,0.225502
698.8758,0.227828
700.7395,0.228365
702.6032,0.229131
704.4669,0.226937
706.3305,0.220987
708.1942,0.212374
710.0579,0.203024
711.9215,0.192521
713.7852,0.182418
715.6489,0.172835
717.5125,0.162250
719.3762,0.152195
721.2399,0.144768
723.1035,0.138835
724.9672,0.133278
726.8309,0.127889
728.6945,0.123067
730.5582,0.118512
732.4219,0.114517
734.2856,0.111137
736.1492,0.107693
738.0129,0.105240
739.8766,0.105739
741.7402,0.108853
743.6039,0.112328
745.4676,0.114356
747.3312,0.114711
749.1949,0.114135
751.0586,0.113141
752.9222,0.111396
754.7859,0.109719
756.6496,0.108349
758.5132,0.107132
760.3769,0.106400
762.2406,0.106678
764.1043,0.107114
765.9679,0.107626
767.8316,0.108336
769.6953,0.108073
771.5589,0.106955
773.4226,0.107107
775.2863,0.107562
777.1499,0.106604
779.0136,0.106109
780.8773,0.107009
782.7409,0.108150
784.6046,0.109602
786.4683,0.111311
788.3320,0.113213
790.1956,0.115756
792.0593,0.118495
793.9230,0.120920
795.7866,0.123695
797.6503,0.126739
799.5140,0.129442
801.3776,0.131013
803.2413,0.131118
805.1050,0.129965
806.9686,0.128097
808.8323,0.125965
810.6960,0.122974
812.5596,0.119172
814.4233,0.115636
816.2870,0.112187
818.1507,0.109083
820.0143,0.106892
821.8780,0.105420
823.7417,0.104385
825.6053,0.104597
827.4690,0.106348
829.3327,0.107582
831.1963,0.102104
833.0600,0.088901
834.9237,0.076196
836.7873,0.068948
838.6510,0.066077
840.5147,0.065546
842.3784,0.066086
844.2420,0.066857
846.1057,0.067373
847.9694,0.067021
849.8330,0.065500
851.6967,0.063534
853.5604,0.061700
855.4240,0.060444
857.2877,0.059896
859.1514,0.059646
861.0150,0.059494
862.8787,0.059388
864.7424,0.059470
866.6060,0.059711
868.4697,0.060010
870.3334,0.060290
872.1971,0.060397
874.0607,0.060320
875.9244,0.060131
877.7881,0.060051
879.6517,0.060236
881.5154,0.060434
883.3791,0.060662
885.2427,0.061386
887.1064,0.062681
888.9701,0.063783
890.8337,0.064237
892.6974,0.064491
894.5611,0.065187
896.4247,0.066380
898.2884,0.068217
900.1521,0.070624
902.0158,0.073197
903.8794,0.075906
905.7431,0.079588
907.6068,0.084863
909.4704,0.091706
911.3341,0.100508
913.1978,0.111109
915.0614,0.117013
916.9251,0.108044
918.7888,0.088669
920.6524,0.073295
922.5161,0.066315
924.3798,0.063565
926.2435,0.061965
928.1071,0.060937
929.9708,0.060571
931.8345,0.060835
933.6981,0.061432
935.5618,0.062329
937.4255,0.063574
939.2891,0.064999
941.1528,0.066570
943.0165,0.067943
944.8801,0.068658
946.7438,0.069050
948.6075,0.069268
950.4711,0.069288
952.3348,0.069533
954.1985,0.070439
956.0622,0.071794
957.9258,0.073425
959.7895,0.075402
961.6532,0.077454
963.5168,0.079255
965.3805,0.081050
967.2442,0.083336
969.1078,0.086360
970.9715,0.089786
972.8352,0.093966
974.6988,0.100730
976.5625,0.112791
978.4262,0.133699
980.2899,0.163150
982.1535,0.175840
984.0172,0.144208
985.8809,0.101803
987.7445,0.082350
989.6082,0.079092
991.4719,0.079506
993.3355,0.080372
995.1992,0.081380
997.0629,0.082427
998.9265,0.083519
1000.7902,0.084692
1002.6539,0.085806
1004.5175,0.086570
1006.3812,0.087150
1008.2449,0.087705
1010.1086,0.088336
1011.9722,0.089163
1013.8359,0.090218
1015.6996,0.091418
1017.5632,0.092807
1019.4269,0.094318
1021.2906,0.095907
1023.1542,0.097811
1025.0179,0.099985
1026.8816,0.102031
1028.7452,0.103986
1030.6089,0.106029
1032.4726,0.108064
1034.3362,0.109943
1036.1999,0.111781
1038.0636,0.113971
1039.9273,0.117048
1041.7909,0.121302
1043.6546,0.126622
1045.5183,0.132345
1047.3819,0.136803
1049.2456,0.137352
1051.1093,0.131199
1052.9729,0.119594
1054.8366,0.108144
1056.7003,0.100806
1058.5639,0.097784
1060.4276,0.097436
1062.2913,0.098066
1064.1550,0.098902
1066.0186,0.099676
1067.8823,0.100419
1069.7460,0.101640
1071.6096,0.103526
1073.4733,0.105848
1075.3370,0.108484
1077.2006,0.111405
1079.0643,0.114437
1080.9280,0.117591
1082.7916,0.121092
1084.6553,0.124913
1086.5190,0.128707
1088.3826,0.132450
1090.2463,0.136880
1092.1100,0.142375
1093.9737,0.148674
1095.8373,0.155751
1097.7010,0.163842
1099.5647,0.173050
1101.4283,0.182844
1103.2920,0.191833
1105.1557,0.198152
1107.0193,0.199793
1108.8830,0.194741
1110.7467,0.183009
1112.6103,0.167157
1114.4740,0.150377
1116.3377,0.135192
1118.2014,0.122948
1120.0650,0.114040
1121.9287,0.108059
1123.7924,0.104103
1125.6560,0.101092
1127.5197,0.098306
1129.3834,0.095653
1131.2470,0.093219
1133.1107,0.090986
1134.9744,0.089101
1136.8380,0.087599
1138.7017,0.086271
1140.5654,0.085238
1142.4290,0.084760
1144.2927,0.084616
1146.1564,0.084388
1148.0201,0.084180
1149.8837,0.084190
1151.7474,0.084435
1153.6111,0.084838
1155.4747,0.085561
1157.3384,0.086706
1159.2021,0.088092
1161.0657,0.089919
1162.9294,0.092516
1164.7931,0.095886
1166.6567,0.100219
1168.5204,0.105412
1170.3841,0.110590
1172.2477,0.114236
1174.1114,0.114026
1175.9751,0.109059
1177.8388,0.101920
1179.7024,0.095939
1181.5661,0.092427
1183.4298,0.091014
1185.2934,0.090699
1187.1571,0.090587
1189.0208,0.090050
1190.8844,0.088727
1192.7481,0.086957
1194.6118,0.085573
1196.4754,0.084846
1198.3391,0.084562
1200.2028,0.084614
1202.0665,0.084863
1203.9301,0.085211
1205.7938,0.085602
1207.6575,0.086008
1209.5211,0.086484
1211.3848,0.087076
1213.2485,0.087713
1215.1121,0.088301
1216.9758,0.088929
1218.8395,0.089661
1220.7031,0.090425
1222.5668,0.091197
1224.4305,0.091967
1226.2941,0.092805
1228.1578,0.093683
1230.0215,0.094545
1231.8852,0.095491
1233.7488,0.096502
1235.6125,0.097573
1237.4762,0.098643
1239.3398,0.099483
1241.2035,0.100027
1243.0672,0.100479
1244.9308,0.101121
1246.7945,0.101969
1248.6582,0.102877
1250.5218,0.103746
1252.3855,0.104627
1254.2492,0.105633
1256.1129,0.106821
1257.9765,0.108176
1259.8402,0.109709
1261.7039,0.111379
1263.5675,0.113108
1265.4312,0.114830
1267.2949,0.116299
1269.1585,0.117166
1271.0222,0.117210
1272.8859,0.116595
1274.7495,0.116098
1276.6132,0.116598
1278.4769,0.118099
1280.3405,0.120219
1282.2042,0.122821
1284.0679,0.125805
1285.9316,0.129308
1287.7952,0.133681
1289.6589,0.138664
1291.5226,0.144119
1293.3862,0.150215
1295.2499,0.156598
1297.1136,0.162894
1298.9772,0.169750
1300.8409,0.178829
1302.7046,0.190050
1304.5682,0.199444
1306.4319,0.200290
1308.2956,0.186516
1310.1592,0.159808
1312.0229,0.132139
1313.8866,0.113801
1315.7503,0.106388
1317.6139,0.105790
1319.4776,0.108173
1321.3413,0.111221
1323.2049,0.114921
1325.0686,0.119745
1326.9323,0.124714
1328.7959,0.128536
1330.6596,0.130440
1332.5233,0.130782
1334.3869,0.130841
1336.2506,0.132176
1338.1143,0.135759
1339.9780,0.140226
1341.8416,0.141883
1343.7053,0.141796
1345.5690,0.142903
1347.4326,0.145072
1349.2963,0.147542
1351.1600,0.149313
1353.0236,0.150753
1354.8873,0.153361
1356.7510,0.156665
1358.6146,0.159431
1360.4783,0.162854
1362.3420,0.168660
1364.2056,0.173198
1366.0693,0.174847
1367.9330,0.179236
1369.7967,0.185719
1371.6603,0.190823
1373.5240,0.197258
1375.3877,0.203982
1377.2513,0.208559
1379.1150,0.216061
1380.9787,0.226150
1382.8423,0.235828
1384.7060,0.245560
1386.5697,0.257973
1388.4333,0.271211
1390.2970,0.277386
1392.1607,0.280474
1394.0244,0.282158
1395.8880,0.275337
1397.7517,0.261004
1399.6154,0.244657
1401.4790,0.228799
1403.3427,0.215297
1405.2064,0.197308
1407.0700,0.172859
1408.9337,0.148732
1410.7974,0.127606
1412.6610,0.112626
1414.5247,0.104912
1416.3884,0.103410
1418.2520,0.108913
1420.1157,0.119403
1421.9794,0.123556
1423.8431,0.120089
1425.7067,0.108032
1427.5704,0.095015
1429.4341,0.087374
1431.2977,0.084315
1433.1614,0.083903
1435.0251,0.086400
1436.8887,0.093031
1438.7524,0.096330
1440.6161,0.096150
1442.4797,0.097582
1444.3434,0.099207
1446.2071,0.100927
1448.0707,0.102696
1449.9344,0.101345
1451.7981,0.097760
1453.6618,0.094393
1455.5254,0.094196
1457.3891,0.100831
1459.2528,0.103128
1461.1164,0.100530
1462.9801,0.100541
1464.8438,0.102870
1466.7074,0.102615
1468.5711,0.099441
1470.4348,0.098048
1472.2984,0.100038
1474.1621,0.101499
1476.0258,0.100363
1477.8895,0.099749
1479.7531,0.099569
1481.6168,0.101028
1483.4805,0.102107
1485.3441,0.102834
1487.2078,0.105581
1489.0715,0.110925
1490.9351,0.115447
1492.7988,0.115036
1494.6625,0.115178
1496.5261,0.120563
1498.3898,0.126290
1500.2535,0.127528
1502.1171,0.126827
1503.9808,0.126696
1505.8445,0.132739
1507.7082,0.146534
1509.5718,0.144089
1511.4355,0.140767
1513.2992,0.139603
1515.1628,0.138928
1517.0265,0.139351
1518.8902,0.138434
1520.7538,0.138637
1522.6175,0.140202
1524.4812,0.137708
1526.3448,0.137232
1528.2085,0.137140
1530.0722,0.135786
1531.9359,0.136783
1533.7995,0.141199
1535.6632,0.141235
1537.5269,0.140034
1539.3905,0.147704
1541.2542,0.161256
1543.1179,0.162871
1544.9815,0.165332
1546.8452,0.167314
1548.7089,0.169813
1550.5725,0.175643
1552.4362,0.179712
1554.2999,0.182705
1556.1635,0.186975
1558.0272,0.197582
1559.8909,0.221504
1561.7546,0.214661
1563.6182,0.210796
1565.4819,0.214453
1567.3456,0.218945
1569.2092,0.225920
1571.0729,0.232853
1572.9366,0.232370
1574.8002,0.236623
1576.6639,0.248635
1578.5276,0.252581
1580.3912,0.251899
1582.2549,0.254671
1584.1186,0.256754
1585.9822,0.257400
1587.8459,0.256587
1589.7096,0.254723
1591.5733,0.251704
1593.4369,0.248124
1595.3006,0.244465
1597.1643,0.240598
1599.0279,0.236530
1600.8916,0.232721
1602.7553,0.229102
1604.6189,0.225623
1606.4826,0.222383
1608.3463,0.219044
1610.2099,0.214626
1612.0736,0.208392
1613.9373,0.201536
1615.8010,0.195128
1617.6646,0.185550
1619.5283,0.174399
1621.3920,0.166672
1623.2556,0.158198
1625.1193,0.147555
1626.9830,0.136984
1628.8466,0.124879
1630.7103,0.112506
1632.5740,0.102567
1634.4376,0.093647
1636.3013,0.084290
1638.1650,0.077499
1640.0286,0.074580
1641.8923,0.072376
1643.7560,0.071766
1645.6197,0.073486
1647.4833,0.077287
1649.3470,0.078451
1651.2107,0.080410
1653.0743,0.088313
1654.9380,0.094606
1656.8017,0.092445
1658.6653,0.092588
1660.5290,0.093134
1662.3927,0.093308
1664.2563,0.091610
1666.1200,0.088875
1667.9837,0.087019
1669.8474,0.085984
1671.7110,0.084686
1673.5747,0.084923
1675.4384,0.088063
1677.3020,0.091634
1679.1657,0.094075
1681.0294,0.098921
1682.8930,0.105024
1684.7567,0.114093
1686.6204,0.115977
1688.4840,0.113885
1690.3477,0.112003
1692.2114,0.108330
1694.0750,0.104360
1695.9387,0.100840
1697.8024,0.096006
1699.6661,0.092150
1701.5297,0.084176
1703.3934,0.075703
1705.2571,0.067152
1707.1207,0.056462
1708.9844,0.048432
1710.8481,0.042670
1712.7117,0.038158
1714.5754,0.035395
1716.4391,0.033345
1718.3027,0.031971
1720.1664,0.030471
1722.0301,0.029288
1723.8937,0.027303
1725.7574,0.024825
1727.6211,0.022533
1729.4848,0.020632
1731.3484,0.018931
1733.2121,0.018024
1735.0758,0.016842
1736.9394,0.016039
1738.8031,0.015690
1740.6668,0.015496
1742.5304,0.014904
1744.3941,0.014603
1746.2578,0.014209
1748.1214,0.013987
1749.9851,0.013631
1751.8488,0.013328
1753.7125,0.012699
1755.5761,0.012302
1757.4398,0.012074
1759.3035,0.011968
1761.1671,0.011806
1763.0308,0.011885
1764.8945,0.011580
1766.7581,0.011391
1768.6218,0.011196
1770.4855,0.011210
1772.3491,0.011236
1774.2128,0.011246
1776.0765,0.010933
1777.9401,0.010922
1779.8038,0.010908
1781.6675,0.011176
1783.5312,0.011209
1785.3948,0.011211
1787.2585,0.011183
1789.1222,0.011215
1790.9858,0.011256
1792.8495,0.011447
1794.7132,0.011237
1796.5768,0.011306
1798.4405,0.011197
1800.3042,0.011221
1802.1678,0.011482
1804.0315,0.011630
1805.8952,0.011438
1807.7589,0.011390
1809.6225,0.011359
1811.4862,0.011479
1813.3499,0.011440
1815.2135,0.011425
1817.0772,0.011234
1818.9409,0.011373
1820.8045,0.011442
1822.6682,0.011465
1824.5319,0.011343
1826.3955,0.011338
1828.2592,0.011237
1830.1229,0.011211
1831.9865,0.010773
1833.8502,0.010716
1835.7139,0.010659
1837.5776,0.010688
1839.4412,0.010680
1841.3049,0.010822
1843.1686,0.010745
1845.0322,0.010991
1846.8959,0.011137
1848.7596,0.011217
1850.6232,0.011062
1852.4869,0.011072
1854.3506,0.011129
1856.2142,0.011325
1858.0779,0.011357
1859.9416,0.011272
1861.8052,0.011091
1863.6689,0.011425
1865.5326,0.011466
1867.3963,0.011317
1869.2599,0.011291
1871.1236,0.011384
1872.9873,0.011126
1874.8509,0.011106
1876.7146,0.011217
1878.5783,0.011454
1880.4419,0.011204
1882.3056,0.011232
1884.1693,0.011018
1886.0329,0.010924
1887.8966,0.010985
1889.7603,0.011311
1891.6240,0.011187
1893.4876,0.011176
1895.3513,0.011015
1897.2150,0.010712
1899.0786,0.010667
1900.9423,0.011061
1902.8060,0.011199
1904.6696,0.011314
1906.5333,0.011194
1908.3970,0.011049
1910.2606,0.010486
1912.1243,0.010371
1913.9880,0.010437
1915.8516,0.010881
1917.7153,0.011187
1919.5790,0.011430
1921.4427,0.010945
1923.3063,0.010659
1925.1700,0.010910
1927.0337,0.011021
1928.8973,0.010620
1930.7610,0.011170
1932.6247,0.011262
1934.4883,0.011091
1936.3520,0.010689
1938.2157,0.010224
1940.0793,0.010052
1941.9430,0.010056
1943.8067,0.009398
1945.6704,0.009470
1947.5340,0.009442
1949.3977,0.009897
1951.2614,0.009783
1953.1250,0.009275
1954.9887,0.008719
1956.8524,0.008464
1958.7160,0.007431
1960.5797,0.007755
1962.4434,0.007010
1964.3070,0.004947
1966.1707,0.003832
1968.0344,0.004697
1969.8980,0.004411
1971.7617,0.004132
1973.6254,0.003370
1975.4891,0.003631
1977.3527,0.003844
1979.2164,0.006402
1981.0801,0.007342
1982.9437,0.007150
1984.8074,0.007361
1986.6711,0.007979
1988.5347,0.007442
1990.3984,0.007485
1992.2621,0.007414
1994.1257,0.007073
1995.9894,0.007070
1997.8531,0.007504
1999.7167,0.007149
2001.5804,0.008278
2003.4441,0.008656
2005.3078,0.008237
2007.1714,0.007365
2009.0351,0.006727
2010.8988,0.006187
2012.7624,0.006752
2014.6261,0.007036
2016.4898,0.007506
2018.3534,0.006426
2020.2171,0.005723
2022.0808,0.004959
2023.9444,0.005100
2025.8081,0.006023
2027.6718,0.006596
2029.5355,0.005450
2031.3991,0.005629
2033.2628,0.005521
2035.1265,0.006210
2036.9901,0.006882
2038.8538,0.008175
2040.7175,0.008392
2042.5811,0.008348
2044.4448,0.008440
2046.3085,0.009386
2048.1721,0.010007
2050.0358,0.010820
2051.8995,0.011283
2053.7631,0.011848
2055.6268,0.011953
2057.4905,0.011970
2059.3542,0.011555
2061.2178,0.012382
2063.0815,0.013493
2064.9452,0.013827
2066.8088,0.014065
2068.6725,0.013983
2070.5362,0.013432
2072.3998,0.013632
2074.2635,0.014197
2076.1272,0.014474
2077.9908,0.014527
2079.8545,0.015237
2081.7182,0.016008
2083.5819,0.016518
2085.4455,0.016538
2087.3092,0.016591
2089.1729,0.016427
2091.0365,0.016542
2092.9002,0.016601
2094.7639,0.016550
2096.6275,0.016174
2098.4912,0.016312
2100.3549,0.016953
2102.2185,0.017502
2104.0822,0.017416
2105.9459,0.017303
2107.8095,0.016754
2109.6732,0.017047
2111.5369,0.017550
2113.4006,0.017818
2115.2642,0.017824
2117.1279,0.017838
2118.9916,0.017743
2120.8552,0.018053
2122.7189,0.017997
2124.5826,0.017991
2126.4462,0.017778
2128.3099,0.016923
2130.1736,0.016073
2132.0372,0.015647
2133.9009,0.015100
2135.7646,0.015826
2137.6282,0.016140
2139.4919,0.015195
2141.3556,0.014039
2143.2193,0.013640
2145.0829,0.013236
2146.9466,0.013220
2148.8103,0.011928
2150.6739,0.010573
2152.5376,0.008821
2154.4013,0.007777
2156.2649,0.007011
2158.1286,0.006671
2159.9923,0.007283
2161.8559,0.008365
2163.7196,0.008883
2165.5833,0.010296
2167.4470,0.010960
2169.3106,0.010459
2171.1743,0.009125
2173.0380,0.009279
2174.9016,0.010783
2176.7653,0.012707
2178.6290,0.011663
2180.4926,0.012141
2182.3563,0.013029
2184.2200,0.013165
2186.0836,0.012247
2187.9473,0.012135
2189.8110,0.012380
2191.6746,0.013576
2193.5383,0.013479
2195.4020,0.013885
2197.2657,0.013495
2199.1293,0.013351
2200.9930,0.014212
2202.8567,0.014798
2204.7203,0.014913
2206.5840,0.015554
2208.4477,0.015259
2210.3113,0.015334
2212.1750,0.016086
2214.0387,0.016174
2215.9023,0.015111
2217.7660,0.015350
2219.6297,0.016149
2221.4934,0.016637
2223.3570,0.016438
2225.2207,0.017073
2227.0844,0.017206
2228.9480,0.017574
2230.8117,0.017507
2232.6754,0.017512
2234.5390,0.018267
2236.4027,0.018252
2238.2664,0.017824
2240.1300,0.017754
2241.9937,0.018291
2243.8574,0.018962
2245.7210,0.018688
2247.5847,0.018958
2249.4484,0.019084
2251.3121,0.018874
2253.1757,0.019169
2255.0394,0.019494
2256.9031,0.019504
2258.7667,0.019762
2260.6304,0.019588
2262.4941,0.019892
2264.3577,0.020220
2266.2214,0.020722
2268.0851,0.021038
2269.9487,0.021275
2271.8124,0.021822
2273.6761,0.022648
2275.5397,0.022730
2277.4034,0.022871
2279.2671,0.023479
2281.1308,0.023960
2282.9944,0.023817
2284.8581,0.023925
2286.7218,0.024164
2288.5854,0.024527
2290.4491,0.024844
2292.3128,0.025002
2294.1764,0.024655
2296.0401,0.024424
2297.9038,0.024437
2299.7674,0.024446
2301.6311,0.024520
2303.4948,0.024604
2305.3585,0.024745
2307.2221,0.024966
2309.0858,0.025060
2310.9495,0.025078
2312.8131,0.024932
2314.6768,0.024853
2316.5405,0.024810
2318.4041,0.025105
2320.2678,0.025281
2322.1315,0.025402
2323.9951,0.025646
2325.8588,0.025148
2327.7225,0.023995
2329.5861,0.023589
2331.4498,0.023718
2333.3135,0.023768
2335.1772,0.023571
2337.0408,0.023643
2338.9045,0.023756
2340.7682,0.023837
2342.6318,0.023964
2344.4955,0.024344
2346.3592,0.024125
2348.2228,0.023636
2350.0865,0.023188
2351.9502,0.023195
2353.8138,0.023278
2355.6775,0.023144
2357.5412,0.022911
2359.4049,0.023288
2361.2685,0.023571
2363.1322,0.023049
2364.9959,0.023397
2366.8595,0.024069
2368.7232,0.023917
2370.5869,0.024299
2372.4505,0.024638
2374.3142,0.025030
2376.1779,0.025588
2378.0415,0.025770
2379.9052,0.025721
2381.7689,0.025760
2383.6325,0.025413
2385.4962,0.025274
2387.3599,0.025532
2389.2236,0.025773
2391.0872,0.025874
2392.9509,0.025675
2394.8146,0.025786
2396.6782,0.026153
2398.5419,0.026210
2400.4056,0.026108
2402.2692,0.026181
2404.1329,0.026161
2405.9966,0.026320
2407.8602,0.026865
2409.7239,0.026938
2411.5876,0.027040
2413.4512,0.027043
2415.3149,0.026870
2417.1786,0.027133
2419.0423,0.027321
2420.9059,0.027277
2422.7696,0.027648
2424.6333,0.027772
2426.4969,0.027915
2428.3606,0.027996
2430.2243,0.027986
2432.0879,0.028072
2433.9516,0.028408
2435.8153,0.028525
2437.6789,0.028405
2439.5426,0.028679
2441.4063,0.028754
2443.2700,0.028584
2445.1336,0.028434
2446.9973,0.028228
2448.8610,0.028313
2450.7246,0.028405
2452.5883,0.028392
2454.4520,0.028569
2456.3156,0.028496
2458.1793,0.028659
2460.0430,0.028710
2461.9066,0.028224
2463.7703,0.028167
2465.6340,0.028604
2467.4976,0.028964
2469.3613,0.028903
2471.2250,0.028570
2473.0887,0.028465
2474.9523,0.028564
2476.8160,0.028492
2478.6797,0.028623
2480.5433,0.028921
2482.4070,0.029050
2484.2707,0.029479
2486.1343,0.029857
2487.9980,0.029828
2489.8617,0.030030
2491.7253,0.030018
2493.5890,0.030093
2495.4527,0.030543
2497.3164,0.030905
2499.1800,0.031204
2501.0437,0.031012
2502.9074,0.030646
2504.7710,0.031035
2506.6347,0.031410
2508.4984,0.031635
2510.3620,0.031619
2512.2257,0.031756
2514.0894,0.031980
2515.9530,0.032104
2517.8167,0.032358
2519.6804,0.032723
2521.5440,0.033000
2523.4077,0.032958
2525.2714,0.032957
2527.1351,0.033264
2528.9987,0.033454
2530.8624,0.033464
2532.7261,0.033783
2534.5897,0.033863
2536.4534,0.033649
2538.3171,0.033726
2540.1807,0.033976
2542.0444,0.034117
2543.9081,0.034053
2545.7717,0.034115
2547.6354,0.034420
2549.4991,0.034668
2551.3627,0.034427
2553.2264,0.034484
2555.0901,0.034539
2556.9538,0.034595
2558.8174,0.034908
2560.6811,0.035505
2562.5448,0.035918
2564.4084,0.035866
2566.2721,0.035863
2568.1358,0.036154
2569.9994,0.036621
2571.8631,0.036746
2573.7268,0.037018
2575.5904,0.037394
2577.4541,0.037470
2579.3178,0.037285
2581.1815,0.037580
2583.0451,0.038014
2584.9088,0.038453
2586.7725,0.038481
2588.6361,0.038629
2590.4998,0.038801
2592.3635,0.038772
2594.2271,0.039169
2596.0908,0.039454
2597.9545,0.039491
2599.8181,0.039542
2601.6818,0.039892
2603.5455,0.040423
2605.4091,0.040409
2607.2728,0.040437
2609.1365,0.040903
2611.0002,0.041185
2612.8638,0.041183
2614.7275,0.041299
2616.5912,0.041484
2618.4548,0.041760
2620.3185,0.041938
2622.1822,0.041960
2624.0458,0.042502
2625.9095,0.042886
2627.7732,0.042788
2629.6368,0.042676
2631.5005,0.042882
2633.3642,0.043319
2635.2279,0.043654
2637.0915,0.043857
2638.9552,0.044054
2640.8189,0.044257
2642.6825,0.044332
2644.5462,0.044246
2646.4099,0.044212
2648.2735,0.044442
2650.1372,0.044605
2652.0009,0.044580
2653.8645,0.044726
2655.7282,0.045033
2657.5919,0.045154
2659.4555,0.045104
2661.3192,0.045400
2663.1829,0.045681
2665.0466,0.045560
2666.9102,0.045668
2668.7739,0.046007
2670.6376,0.046390
2672.5012,0.046528
2674.3649,0.046775
2676.2286,0.047111
2678.0922,0.047459
2679.9559,0.047890
2681.8196,0.048348
2683.6832,0.048687
2685.5469,0.048782
2687.4106,0.049038
2689.2742,0.049367
2691.1379,0.049660
2693.0016,0.049873
2694.8653,0.050020
2696.7289,0.050362
2698.5926,0.050762
2700.4563,0.051253
2702.3199,0.051678
2704.1836,0.052032
2706.0473,0.052413
2707.9109,0.052619
2709.7746,0.052978
2711.6383,0.053503
2713.5019,0.053911
2715.3656,0.054375
2717.2293,0.054926
2719.0930,0.055438
2720.9566,0.055612
2722.8203,0.055825
2724.6840,0.056443
2726.5476,0.057236
2728.4113,0.057986
2730.2750,0.058534
2732.1386,0.058856
2734.0023,0.059344
2735.8660,0.059848
2737.7296,0.060596
2739.5933,0.061224
2741.4570,0.061631
2743.3206,0.062241
2745.1843,0.062951
2747.0480,0.063605
2748.9117,0.064382
2750.7753,0.065186
2752.6390,0.065746
2754.5027,0.066136
2756.3663,0.066889
2758.2300,0.067785
2760.0937,0.068424
2761.9573,0.068958
2763.8210,0.069824
2765.6847,0.070721
2767.5483,0.071430
2769.4120,0.072130
2771.2757,0.072981
2773.1394,0.073724
2775.0030,0.074672
2776.8667,0.075469
2778.7304,0.076210
2780.5940,0.076703
2782.4577,0.076937
2784.3214,0.076872
2786.1850,0.076687
2788.0487,0.076768
2789.9124,0.076721
2791.7760,0.076196
2793.6397,0.075609
2795.5034,0.074778
2797.3670,0.073732
2799.2307,0.073083
2801.0944,0.073009
2802.9581,0.072696
2804.8217,0.072087
2806.6854,0.071493
2808.5491,0.071071
2810.4127,0.070659
2812.2764,0.070674
2814.1401,0.070847
2816.0037,0.070684
2817.8674,0.070678
2819.7311,0.071017
2821.5947,0.071249
2823.4584,0.071567
2825.3221,0.071566
2827.1857,0.071163
2829.0494,0.070760
2830.9131,0.070399
2832.7768,0.070183
2834.6404,0.070253
2836.5041,0.070685
2838.3678,0.071196
2840.2314,0.071519
2842.0951,0.072107
2843.9588,0.072712
2845.8224,0.073494
2847.6861,0.074147
2849.5498,0.074911
2851.4134,0.075990
2853.2771,0.077152
2855.1408,0.078055
2857.0045,0.078686
2858.8681,0.079474
2860.7318,0.080586
2862.5955,0.081770
2864.4591,0.082475
2866.3228,0.082838
2868.1865,0.083606
2870.0501,0.084152
2871.9138,0.084330
2873.7775,0.084634
2875.6411,0.085214
2877.5048,0.085676
2879.3685,0.086015
2881.2321,0.086387
2883.0958,0.087079
2884.9595,0.087687
2886.8232,0.088201
2888.6868,0.088799
2890.5505,0.089704
2892.4142,0.090519
2894.2778,0.091204
2896.1415,0.091722
2898.0052,0.092013
2899.8688,0.092157
2901.7325,0.092515
2903.5962,0.092651
2905.4598,0.092665
2907.3235,0.092919
2909.1872,0.093615
2911.0509,0.094266
2912.9145,0.095111
2914.7782,0.095894
2916.6419,0.096819
2918.5055,0.097724
2920.3692,0.098797
2922.2329,0.099857
2924.0965,0.100464
2925.9602,0.101059
2927.8239,0.101896
2929.6875,0.102577
2931.5512,0.103179
2933.4149,0.103634
2935.2785,0.104233
2937.1422,0.104967
2939.0059,0.105845
2940.8696,0.106042
2942.7332,0.105905
2944.5969,0.106023
2946.4606,0.106533
2948.3242,0.106848
2950.1879,0.107310
2952.0516,0.108078
2953.9152,0.108697
2955.7789,0.108907
2957.6426,0.109452
2959.5062,0.109877
2961.3699,0.110130
2963.2336,0.110503
2965.0972,0.111468
2966.9609,0.112383
2968.8246,0.112944
2970.6883,0.113402
2972.5519,0.113880
2974.4156,0.114080
2976.2793,0.114617
2978.1429,0.115122
2980.0066,0.115408
2981.8703,0.115244
2983.7339,0.115535
2985.5976,0.115902
2987.4613,0.116109
2989.3249,0.116720
2991.1886,0.117622
2993.0523,0.118358
2994.9160,0.118996
2996.7796,0.119530
2998.6433,0.120434
3000.5070,0.121460
3002.3706,0.122287
3004.2343,0.122939
3006.0980,0.123893
3007.9616,0.124610
3009.8253,0.125634
3011.6890,0.126547
3013.5526,0.127423
3015.4163,0.128063
3017.2800,0.128691
3019.1436,0.129270
3021.0073,0.129635
3022.8710,0.130035
3024.7347,0.130629
3026.5983,0.130720
3028.4620,0.130855
3030.3257,0.131342
3032.1893,0.132211
3034.0530,0.132230
3035.9167,0.132373
3037.7803,0.132928
3039.6440,0.133180
3041.5077,0.133382
3043.3713,0.134260
3045.2350,0.134686
3047.0987,0.134716
3048.9624,0.134677
3050.8260,0.135452
3052.6897,0.136059
3054.5534,0.135913
3056.4170,0.135912
3058.2807,0.136401
3060.1444,0.136315
3062.0080,0.136040
3063.8717,0.135980
3065.7354,0.136573
3067.5990,0.136491
3069.4627,0.136201
3071.3264,0.136028
3073.1900,0.135680
3075.0537,0.135247
3076.9174,0.134909
3078.7811,0.134159
3080.6447,0.133938
3082.5084,0.133631
3084.3721,0.133047
3086.2357,0.132484
3088.0994,0.131568
3089.9631,0.130330
3091.8267,0.129729
3093.6904,0.128637
3095.5541,0.127238
3097.4177,0.125881
3099.2814,0.124798
3101.1451,0.124027
3103.0087,0.123145
3104.8724,0.121159
3106.7361,0.119461
3108.5998,0.118405
3110.4634,0.117440
3112.3271,0.116368
3114.1908,0.115122
3116.0544,0.113922
3117.9181,0.113009
3119.7818,0.112033
3121.6454,0.111626
3123.5091,0.110448
3125.3728,0.108624
3127.2364,0.107089
3129.1001,0.105888
3130.9638,0.104873
3132.8275,0.103883
3134.6911,0.103215
3136.5548,0.102766
3138.4185,0.101981
3140.2821,0.101536
3142.1458,0.100921
3144.0095,0.100096
3145.8731,0.099382
3147.7368,0.098555
3149.6005,0.097079
3151.4641,0.096327
3153.3278,0.096406
3155.1915,0.096541
3157.0551,0.095661
3158.9188,0.094104
3160.7825,0.092658
3162.6462,0.091940
3164.5098,0.091065
3166.3735,0.090129
3168.2372,0.089971
3170.1008,0.089764
3171.9645,0.089213
3173.8282,0.088614
3175.6918,0.088015
3177.5555,0.087623
3179.4192,0.087028
3181.2828,0.086664
3183.1465,0.086177
3185.0102,0.086086
3186.8739,0.085965
3188.7375,0.085507
3190.6012,0.085176
3192.4649,0.084741
3194.3285,0.084127
3196.1922,0.084299
3198.0559,0.084805
3199.9195,0.085104
3201.7832,0.084459
3203.6469,0.084202
3205.5105,0.084553
3207.3742,0.084157
3209.2379,0.083656
3211.1015,0.084037
3212.9652,0.084412
3214.8289,0.084160
3216.6926,0.084259
3218.5562,0.084964
3220.4199,0.085507
3222.2836,0.085454
3224.1472,0.085221
3226.0109,0.085532
3227.8746,0.085827
3229.7382,0.086003
3231.6019,0.086198
3233.4656,0.086951
3235.3292,0.087576
3237.1929,0.087686
3239.0566,0.088181
3240.9202,0.088522
3242.7839,0.088205
3244.6476,0.088861
3246.5113,0.089178
3248.3749,0.088918
3250.2386,0.089002
3252.1023,0.089650
3253.9659,0.090741
3255.8296,0.091299
3257.6933,0.090783
3259.5569,0.091053
3261.4206,0.091747
3263.2843,0.091621
3265.1479,0.091792
3267.0116,0.092939
3268.8753,0.093429
3270.7390,0.093293
3272.6026,0.092661
3274.4663,0.092534
3276.3300,0.093050
3278.1936,0.093104
3280.0573,0.092670
3281.9210,0.092167
3283.7846,0.091587
3285.6483,0.090900
3287.5120,0.089823
3289.3756,0.089562
3291.2393,0.089200
3293.1030,0.087944
3294.9666,0.086370
3296.8303,0.085084
3298.6940,0.084641
3300.5577,0.084284
3302.4213,0.082636
3304.2850,0.081197
3306.1487,0.080677
3308.0123,0.080448
3309.8760,0.080399
3311.7397,0.080593
3313.6033,0.080172
3315.4670,0.078857
3317.3307,0.077968
3319.1943,0.078772
3321.0580,0.079173
3322.9217,0.078938
3324.7854,0.079132
3326.6490,0.079283
3328.5127,0.079555
3330.3764,0.079733
3332.2400,0.079385
3334.1037,0.079852
3335.9674,0.079976
3337.8310,0.078923
3339.6947,0.077288
3341.5584,0.075993
3343.4220,0.074663
3345.2857,0.073343
3347.1494,0.072035
3349.0130,0.070121
3350.8767,0.068119
3352.7404,0.067166
3354.6041,0.066799
3356.4677,0.065867
3358.3314,0.064095
3360.1951,0.062809
3362.0587,0.061968
3363.9224,0.060896
3365.7861,0.060023
3367.6497,0.060010
3369.5134,0.059802
3371.3771,0.058961
3373.2407,0.058721
3375.1044,0.059008
3376.9681,0.059174
3378.8317,0.059686
3380.6954,0.059934
3382.5591,0.059774
3384.4228,0.060253
3386.2864,0.061394
3388.1501,0.061552
3390.0138,0.061153
3391.8774,0.062627
3393.7411,0.064593
3395.6048,0.064635
3397.4684,0.063561
3399.3321,0.062437
3401.1958,0.062269
3403.0594,0.062128
3404.9231,0.061790
3406.7868,0.060531
3408.6505,0.058041
3410.5141,0.056620
3412.3778,0.055734
3414.2415,0.053901
3416.1051,0.051776
3417.9688,0.049816
3419.8325,0.048181
3421.6961,0.046777
3423.5598,0.045056
3425.4235,0.042949
3427.2871,0.041406
3429.1508,0.040136
3431.0145,0.038562
3432.8781,0.036774
3434.7418,0.035733
3436.6055,0.035057
3438.4692,0.034176
3440.3328,0.034010
3442.1965,0.033054
3444.0602,0.031007
3445.9238,0.029359
3447.7875,0.029009
3449.6512,0.029465
3451.5148,0.029206
3453.3785,0.028607
3455.2422,0.027875
3457.1058,0.026523
3458.9695,0.025937
3460.8332,0.025801
3462.6969,0.025219
3464.5605,0.025198
3466.4242,0.025637
3468.2879,0.025245
3470.1515,0.024882
3472.0152,0.024636
3473.8789,0.023399
3475.7425,0.022201
3477.6062,0.021531
3479.4699,0.020194
3481.3335,0.019545
3483.1972,0.020031
3485.0609,0.019756
3486.9245,0.019194
3488.7882,0.018938
3490.6519,0.018264
3492.5156,0.017441
3494.3792,0.017133
3496.2429,0.016792
3498.1066,0.016307
3499.9702,0.016500
3501.8339,0.016419
3503.6976,0.014902
3505.5612,0.013555
3507.4249,0.013943
3509.2886,0.013599
3511.1522,0.012499
3513.0159,0.012262
3514.8796,0.012402
3516.7432,0.013169
3518.6069,0.013007
3520.4706,0.011646
3522.3343,0.011417
3524.1979,0.011558
3526.0616,0.010852
3527.9253,0.010943
3529.7889,0.010897
3531.6526,0.010296
3533.5163,0.010424
3535.3799,0.010525
3537.2436,0.010096
3539.1073,0.009341
3540.9709,0.008649
3542.8346,0.008125
3544.6983,0.008544
3546.5620,0.008754
3548.4256,0.007481
3550.2893,0.006648
3552.1530,0.007262
3554.0166,0.007837
3555.8803,0.007678
3557.7440,0.007368
3559.6076,0.007671
3561.4713,0.008099
3563.3350,0.007563
3565.1986,0.006483
3567.0623,0.006174
3568.9260,0.005525
3570.7896,0.005226
3572.6533,0.006079
3574.5170,0.006693
3576.3807,0.007322
3578.2443,0.007643
3580.1080,0.006817
3581.9717,0.006185
3583.8353,0.006415
3585.6990,0.006717
3587.5627,0.006731
3589.4263,0.005455
3591.2900,0.004534
3593.1537,0.005276
3595.0173,0.005630
3596.8810,0.005768
3598.7447,0.006464
3600.6084,0.006794
3602.4720,0.006898
3604.3357,0.006297
3606.1994,0.005568
3608.0630,0.005742
3609.9267,0.005596
3611.7904,0.005384
3613.6540,0.005240
3615.5177,0.004930
3617.3814,0.005107
3619.2450,0.004928
3621.1087,0.004590
3622.9724,0.005265
3624.8360,0.006178
3626.6997,0.006364
3628.5634,0.005998
3630.4271,0.005354
3632.2907,0.005050
3634.1544,0.005789
3636.0181,0.006623
3637.8817,0.006881
3639.7454,0.007172
3641.6091,0.007366
3643.4727,0.007019
3645.3364,0.006369
3647.2001,0.005655
3649.0637,0.004574
3650.9274,0.003822
3652.7911,0.004798
3654.6547,0.005507
3656.5184,0.005905
3658.3821,0.006371
3660.2458,0.006658
3662.1094,0.006821
3663.9731,0.006976
3665.8368,0.007262
3667.7004,0.006878
3669.5641,0.006058
3671.4278,0.005630
3673.2914,0.005562
3675.1551,0.005095
3677.0188,0.004881
3678.8824,0.005834
3680.7461,0.005993
3682.6098,0.006195
3684.4735,0.006722
3686.3371,0.006878
3688.2008,0.006376
3690.0645,0.005557
3691.9281,0.005643
3693.7918,0.006369
3695.6555,0.006803
3697.5191,0.006836
3699.3828,0.006930
3701.2465,0.007007
3703.1101,0.006656
3704.9738,0.006199
3706.8375,0.006331
3708.7011,0.006740
3710.5648,0.006770
3712.4285,0.006360
3714.2922,0.006372
3716.1558,0.006989
3718.0195,0.007150
3719.8832,0.006852
3721.7468,0.006452
3723.6105,0.006269
3725.4742,0.006521
3727.3378,0.006597
3729.2015,0.006570
3731.0652,0.006839
3732.9288,0.006303
3734.7925,0.004728
3736.6562,0.004536
3738.5199,0.005735
3740.3835,0.006397
3742.2472,0.006661
3744.1109,0.006854
3745.9745,0.006085
3747.8382,0.005488
3749.7019,0.006184
3751.5655,0.006384
3753.4292,0.006170
3755.2929,0.006503
3757.1565,0.006863
3759.0202,0.007006
3760.8839,0.007578
3762.7475,0.008333
3764.6112,0.008352
3766.4749,0.008408
3768.3386,0.008871
3770.2022,0.009042
3772.0659,0.008564
3773.9296,0.008190
3775.7932,0.008512
3777.6569,0.008632
3779.5206,0.008488
3781.3842,0.008600
3783.2479,0.008680
3785.1116,0.008634
3786.9752,0.008583
3788.8389,0.008738
3790.7026,0.008909
3792.5662,0.008961
3794.4299,0.008848
3796.2936,0.008402
3798.1573,0.008003
3800.0209,0.007998
3801.8846,0.007783
3803.7483,0.007392
3805.6119,0.007902
3807.4756,0.008460
3809.3393,0.008520
3811.2029,0.008268
3813.0666,0.008232
3814.9303,0.008557
3816.7939,0.008344
3818.6576,0.007793
3820.5213,0.007835
3822.3850,0.007828
3824.2486,0.008441
3826.1123,0.009251
3827.9760,0.008918
3829.8396,0.008085
3831.7033,0.008001
3833.5670,0.008284
3835.4306,0.008090
3837.2943,0.007258
3839.1580,0.006611
3841.0216,0.007043
3842.8853,0.007844
3844.7490,0.008440
3846.6126,0.008965
3848.4763,0.008812
3850.3400,0.008242
3852.2037,0.007699
3854.0673,0.007075
3855.9310,0.007860
3857.7947,0.008612
3859.6583,0.008453
3861.5220,0.008313
3863.3857,0.008143
3865.2493,0.008361
3867.1130,0.008661
3868.9767,0.008286
3870.8403,0.008230
3872.7040,0.008836
3874.5677,0.009206
3876.4314,0.009248
3878.2950,0.009232
3880.1587,0.008704
3882.0224,0.008229
3883.8860,0.008767
3885.7497,0.009045
3887.6134,0.009086
3889.4770,0.009540
3891.3407,0.009570
3893.2044,0.009434
3895.0680,0.009290
3896.9317,0.009100
3898.7954,0.009065
3900.6590,0.008900
3902.5227,0.008824
3904.3864,0.009533
3906.2501,0.009970
3908.1137,0.009456
3909.9774,0.009168
3911.8411,0.009252
3913.7047,0.009578
3915.5684,0.009804
3917.4321,0.010006
3919.2957,0.010286
3921.1594,0.010305
3923.0231,0.010015
3924.8867,0.009839
3926.7504,0.009984
3928.6141,0.010177
3930.4777,0.010035
3932.3414,0.009952
3934.2051,0.010121
3936.0688,0.010496
3937.9324,0.010699
3939.7961,0.010265
3941.6598,0.009658
3943.5234,0.009622
3945.3871,0.009972
3947.2508,0.010233
3949.1144,0.010191
3950.9781,0.010197
3952.8418,0.010237
3954.7054,0.010170
3956.5691,0.010316
3958.4328,0.010648
3960.2965,0.010398
3962.1601,0.009784
3964.0238,0.009994
3965.8875,0.010453
3967.7511,0.010535
3969.6148,0.010571
3971.4785,0.010362
3973.3421,0.010300
3975.2058,0.010383
3977.0695,0.010646
3978.9331,0.011084
3980.7968,0.011243
3982.6605,0.011063
3984.5241,0.010613
3986.3878,0.010220
3988.2515,0.010526
3990.1152,0.010709
3991.9788,0.010135
3993.8425,0.010182
3995.7062,0.010811
3997.5698,0.011010
3999.4335,0.010934
