Wavenumber,Intensity
650.4205,0.122804
652.2841,0.121225
654.1478,0.117755
656.0115,0.114578
657.8751,0.112593
659.7388,0.110376
661.6025,0.107993
663.4661,0.105849
665.3298,0.105210
667.1935,0.107122
669.0571,0.107185
670.9208,0.104313
672.7845,0.103348
674.6481,0.103671
676.5118,0.105068
678.3755,0.104759
680.2392,0.104904
682.1028,0.105633
683.9665,0.105832
685.8302,0.104964
687.6938,0.104292
689.5575,0.104850
691.4212,0.105845
693.2848,0.105360
695.1485,0.105751
697.0122,0.106158
698.8758,0.105856
700.7395,0.105319
702.6032,0.105320
704.4669,0.104690
706.3305,0.102247
708.1942,0.098697
710.0579,0.095199
711.9215,0.090414
713.7852,0.085418
715.6489,0.080769
717.5125,0.076599
719.3762,0.072536
721.2399,0.068949
723.1035,0.066082
724.9672,0.063899
726.8309,0.061437
728.6945,0.058956
730.5582,0.056287
732.4219,0.054054
734.2856,0.052129
736.1492,0.050492
738.0129,0.049605
739.8766,0.049796
741.7402,0.051074
743.6039,0.052410
745.4676,0.052798
747.3312,0.052801
749.1949,0.052777
751.0586,0.052448
752.9222,0.052235
754.7859,0.051859
756.6496,0.051082
758.5132,0.050609
760.3769,0.050226
762.2406,0.049899
764.1043,0.049723
765.9679,0.049745
767.8316,0.049710
769.6953,0.049676
771.5589,0.049891
773.4226,0.050571
775.2863,0.051067
777.1499,0.051351
779.0136,0.051673
780.8773,0.052296
782.7409,0.053008
784.6046,0.053895
786.4683,0.054986
788.3320,0.056168
790.1956,0.057089
792.0593,0.058186
793.9230,0.059749
795.7866,0.061089
797.6503,0.062298
799.5140,0.063521
801.3776,0.064345
803.2413,0.064819
805.1050,0.064871
806.9686,0.064658
808.8323,0.064211
810.6960,0.062843
812.5596,0.060785
814.4233,0.059078
816.2870,0.057360
818.1507,0.055814
820.0143,0.054422
821.8780,0.053170
823.7417,0.052553
825.6053,0.052751
827.4690,0.053797
829.3327,0.054512
831.1963,0.051524
833.0600,0.044669
834.9237,0.038410
836.7873,0.035074
838.6510,0.033453
840.5147,0.032581
842.3784,0.032121
844.2420,0.031965
846.1057,0.031823
847.9694,0.031580
849.8330,0.031174
851.6967,0.030708
853.5604,0.030501
855.4240,0.030318
857.2877,0.030130
859.1514,0.030127
861.0150,0.030005
862.8787,0.029909
864.7424,0.029811
866.6060,0.029828
868.4697,0.030028
870.3334,0.030019
872.1971,0.029932
874.0607,0.030093
875.9244,0.030270
877.7881,0.030209
879.6517,0.030211
881.5154,0.030384
883.3791,0.030620
885.2427,0.030922
887.1064,0.031280
888.9701,0.031657
890.8337,0.031971
892.6974,0.032273
894.5611,0.032599
896.4247,0.032974
898.2884,0.033389
900.1521,0.034118
902.0158,0.035260
903.8794,0.036716
905.7431,0.038553
907.6068,0.040957
909.4704,0.043969
911.3341,0.047790
913.1978,0.052556
915.0614,0.055226
916.9251,0.051114
918.7888,0.042344
920.6524,0.035344
922.5161,0.031981
924.3798,0.030688
926.2435,0.030142
928.1071,0.029993
929.9708,0.030257
931.8345,0.030573
933.6981,0.030892
935.5618,0.031232
937.4255,0.031471
939.2891,0.031776
941.1528,0.032161
943.0165,0.032553
944.8801,0.032937
946.7438,0.033296
948.6075,0.033781
950.4711,0.034270
952.3348,0.034739
954.1985,0.035265
956.0622,0.035810
957.9258,0.036282
959.7895,0.036895
961.6532,0.037620
963.5168,0.038281
965.3805,0.038985
967.2442,0.039988
969.1078,0.041176
970.9715,0.042403
972.8352,0.043859
974.6988,0.046187
976.5625,0.050694
978.4262,0.059184
980.2899,0.071960
982.1535,0.079187
984.0172,0.068099
985.8809,0.049332
987.7445,0.039114
989.6082,0.036596
991.4719,0.036182
993.3355,0.036103
995.1992,0.036119
997.0629,0.036242
998.9265,0.036503
1000.7902,0.036799
1002.6539,0.037022
1004.5175,0.037249
1006.3812,0.037554
1008.2449,0.037918
1010.1086,0.038250
1011.9722,0.038601
1013.8359,0.038980
1015.6996,0.039392
1017.5632,0.039835
1019.4269,0.040293
1021.2906,0.040803
1023.1542,0.041416
1025.0179,0.042090
1026.8816,0.042787
1028.7452,0.043592
1030.6089,0.044444
1032.4726,0.045134
1034.3362,0.045625
1036.1999,0.046329
1038.0636,0.047626
1039.9273,0.049366
1041.7909,0.051472
1043.6546,0.053923
1045.5183,0.056604
1047.3819,0.058886
1049.2456,0.059646
1051.1093,0.057664
1052.9729,0.053065
1054.8366,0.048055
1056.7003,0.044578
1058.5639,0.042765
1060.4276,0.042041
1062.2913,0.041919
1064.1550,0.042210
1066.0186,0.042782
1067.8823,0.043528
1069.7460,0.044354
1071.6096,0.045299
1073.4733,0.046312
1075.3370,0.047260
1077.2006,0.048339
1079.0643,0.049573
1080.9280,0.050848
1082.7916,0.052383
1084.6553,0.054058
1086.5190,0.055722
1088.3826,0.057514
1090.2463,0.059677
1092.1100,0.062233
1093.9737,0.065040
1095.8373,0.068092
1097.7010,0.071569
1099.5647,0.075518
1101.4283,0.079828
1103.2920,0.084085
1105.1557,0.087459
1107.0193,0.088988
1108.8830,0.087839
1110.7467,0.083681
1112.6103,0.077232
1114.4740,0.069904
1116.3377,0.062905
1118.2014,0.056884
1120.0650,0.052233
1121.9287,0.048915
1123.7924,0.046679
1125.6560,0.044997
1127.5197,0.043509
1129.3834,0.042148
1131.2470,0.040900
1133.1107,0.039877
1134.9744,0.039120
1136.8380,0.038552
1138.7017,0.038186
1140.5654,0.037977
1142.4290,0.037911
1144.2927,0.037976
1146.1564,0.038093
1148.0201,0.038260
1149.8837,0.038470
1151.7474,0.038717
1153.6111,0.038996
1155.4747,0.039319
1157.3384,0.039872
1159.2021,0.040570
1161.0657,0.041342
1162.9294,0.042308
1164.7931,0.043630
1166.6567,0.045422
1168.5204,0.047670
1170.3841,0.050083
1172.2477,0.051993
1174.1114,0.052401
1175.9751,0.050794
1177.8388,0.047889
1179.7024,0.045066
1181.5661,0.043116
1183.4298,0.042107
1185.2934,0.041767
1187.1571,0.041687
1189.0208,0.041575
1190.8844,0.041462
1192.7481,0.041401
1194.6118,0.041449
1196.4754,0.041555
1198.3391,0.041636
1200.2028,0.041738
1202.0665,0.041879
1203.9301,0.042049
1205.7938,0.042285
1207.6575,0.042529
1209.5211,0.042714
1211.3848,0.042894
1213.2485,0.043167
1215.1121,0.043390
1216.9758,0.043602
1218.8395,0.043869
1220.7031,0.044137
1222.5668,0.044346
1224.4305,0.044570
1226.2941,0.044891
1228.1578,0.045137
1230.0215,0.045342
1231.8852,0.045638
1233.7488,0.045857
1235.6125,0.046074
1237.4762,0.046405
1239.3398,0.046814
1241.2035,0.047165
1243.0672,0.047469
1244.9308,0.047772
1246.7945,0.048152
1248.6582,0.048606
1250.5218,0.049046
1252.3855,0.049465
1254.2492,0.049883
1256.1129,0.050231
1257.9765,0.050713
1259.8402,0.051417
1261.7039,0.052088
1263.5675,0.052726
1265.4312,0.053376
1267.2949,0.053776
1269.1585,0.053871
1271.0222,0.053918
1272.8859,0.054005
1274.7495,0.054117
1276.6132,0.054378
1278.4769,0.054864
1280.3405,0.055503
1282.2042,0.056223
1284.0679,0.057113
1285.9316,0.058222
1287.7952,0.059456
1289.6589,0.060748
1291.5226,0.062272
1293.3862,0.064189
1295.2499,0.066633
1297.1136,0.069536
1298.9772,0.073079
1300.8409,0.077572
1302.7046,0.082836
1304.5682,0.087654
1306.4319,0.089529
1308.2956,0.085261
1310.1592,0.074173
1312.0229,0.061124
1313.8866,0.051454
1315.7503,0.046741
1317.6139,0.045390
1319.4776,0.045744
1321.3413,0.046633
1323.2049,0.047708
1325.0686,0.049045
1326.9323,0.050518
1328.7959,0.052021
1330.6596,0.053539
1332.5233,0.054833
1334.3869,0.055715
1336.2506,0.056452
1338.1143,0.057784
1339.9780,0.059351
1341.8416,0.059550
1343.7053,0.059320
1345.5690,0.059562
1347.4326,0.060054
1349.2963,0.060662
1351.1600,0.061354
1353.0236,0.062341
1354.8873,0.063749
1356.7510,0.064879
1358.6146,0.065765
1360.4783,0.067342
1362.3420,0.070445
1364.2056,0.073037
1366.0693,0.074082
1367.9330,0.075878
1369.7967,0.077986
1371.6603,0.079689
1373.5240,0.082701
1375.3877,0.085763
1377.2513,0.087273
1379.1150,0.089390
1380.9787,0.092398
1382.8423,0.095479
1384.7060,0.099177
1386.5697,0.104713
1388.4333,0.110351
1390.2970,0.113173
1392.1607,0.115808
1394.0244,0.118991
1395.8880,0.117904
1397.7517,0.113380
1399.6154,0.107674
1401.4790,0.101133
1403.3427,0.096721
1405.2064,0.090368
1407.0700,0.079422
1408.9337,0.068238
1410.7974,0.057766
1412.6610,0.049194
1414.5247,0.044130
1416.3884,0.042748
1418.2520,0.045875
1420.1157,0.051068
1421.9794,0.053714
1423.8431,0.053778
1425.7067,0.049338
1427.5704,0.043826
1429.4341,0.040191
1431.2977,0.038055
1433.1614,0.037085
1435.0251,0.037937
1436.8887,0.040385
1438.7524,0.041283
1440.6161,0.041495
1442.4797,0.042448
1444.3434,0.043521
1446.2071,0.044638
1448.0707,0.045592
1449.9344,0.044632
1451.7981,0.042718
1453.6618,0.040639
1455.5254,0.040597
1457.3891,0.043261
1459.2528,0.043609
1461.1164,0.041941
1462.9801,0.042132
1464.8438,0.043082
1466.7074,0.042458
1468.5711,0.040916
1470.4348,0.040683
1472.2984,0.042031
1474.1621,0.042934
1476.0258,0.042384
1477.8895,0.041637
1479.7531,0.041357
1481.6168,0.041446
1483.4805,0.041376
1485.3441,0.041382
1487.2078,0.041904
1489.0715,0.043809
1490.9351,0.044971
1492.7988,0.043942
1494.6625,0.043646
1496.5261,0.045309
1498.3898,0.046864
1500.2535,0.046580
1502.1171,0.045719
1503.9808,0.045425
1505.8445,0.047843
1507.7082,0.053871
1509.5718,0.052157
1511.4355,0.050982
1513.2992,0.050977
1515.1628,0.051864
1517.0265,0.053062
1518.8902,0.053798
1520.7538,0.055607
1522.6175,0.057574
1524.4812,0.057337
1526.3448,0.057921
1528.2085,0.058436
1530.0722,0.057867
1531.9359,0.058645
1533.7995,0.060648
1535.6632,0.059989
1537.5269,0.059450
1539.3905,0.063032
1541.2542,0.069408
1543.1179,0.068725
1544.9815,0.068779
1546.8452,0.068461
1548.7089,0.069189
1550.5725,0.070791
1552.4362,0.071782
1554.2999,0.072148
1556.1635,0.073591
1558.0272,0.079170
1559.8909,0.089158
1561.7546,0.083555
1563.6182,0.081893
1565.4819,0.083274
1567.3456,0.085010
1569.2092,0.088022
1571.0729,0.090513
1572.9366,0.090106
1574.8002,0.092720
1576.6639,0.098666
1578.5276,0.099332
1580.3912,0.098816
1582.2549,0.100585
1584.1186,0.102598
1585.9822,0.104159
1587.8459,0.105360
1589.7096,0.106175
1591.5733,0.106574
1593.4369,0.106665
1595.3006,0.106457
1597.1643,0.105550
1599.0279,0.104242
1600.8916,0.103165
1602.7553,0.102121
1604.6189,0.100866
1606.4826,0.099860
1608.3463,0.099154
1610.2099,0.097821
1612.0736,0.095681
1613.9373,0.094384
1615.8010,0.094557
1617.6646,0.091251
1619.5283,0.084282
1621.3920,0.081151
1623.2556,0.078783
1625.1193,0.073537
1626.9830,0.068732
1628.8466,0.063412
1630.7103,0.057064
1632.5740,0.052356
1634.4376,0.049557
1636.3013,0.045635
1638.1650,0.040054
1640.0286,0.037299
1641.8923,0.035650
1643.7560,0.035177
1645.6197,0.036107
1647.4833,0.037759
1649.3470,0.038097
1651.2107,0.039972
1653.0743,0.045013
1654.9380,0.046644
1656.8017,0.045432
1658.6653,0.046129
1660.5290,0.047299
1662.3927,0.047913
1664.2563,0.046646
1666.1200,0.045387
1667.9837,0.045292
1669.8474,0.045103
1671.7110,0.043262
1673.5747,0.042915
1675.4384,0.044013
1677.3020,0.044776
1679.1657,0.045602
1681.0294,0.047866
1682.8930,0.052192
1684.7567,0.056544
1686.6204,0.056570
1688.4840,0.056372
1690.3477,0.056670
1692.2114,0.055739
1694.0750,0.055682
1695.9387,0.055838
1697.8024,0.053322
1699.6661,0.052312
1701.5297,0.047168
1703.3934,0.041823
1705.2571,0.037936
1707.1207,0.031947
1708.9844,0.026892
1710.8481,0.023485
1712.7117,0.021107
1714.5754,0.019875
1716.4391,0.019213
1718.3027,0.017835
1720.1664,0.015871
1722.0301,0.015360
1723.8937,0.014481
1725.7574,0.013288
1727.6211,0.012002
1729.4848,0.011182
1731.3484,0.010422
1733.2121,0.010566
1735.0758,0.008747
1736.9394,0.008126
1738.8031,0.008154
1740.6668,0.007937
1742.5304,0.007643
1744.3941,0.007395
1746.2578,0.007326
1748.1214,0.007307
1749.9851,0.007131
1751.8488,0.006668
1753.7125,0.006396
1755.5761,0.006929
1757.4398,0.006671
1759.3035,0.006719
1761.1671,0.006724
1763.0308,0.006438
1764.8945,0.006348
1766.7581,0.006554
1768.6218,0.006336
1770.4855,0.006798
1772.3491,0.006605
1774.2128,0.006175
1776.0765,0.006067
1777.9401,0.006201
1779.8038,0.006571
1781.6675,0.006569
1783.5312,0.006691
1785.3948,0.006768
1787.2585,0.006566
1789.1222,0.006658
1790.9858,0.007060
1792.8495,0.006745
1794.7132,0.006431
1796.5768,0.006674
1798.4405,0.006883
1800.3042,0.006895
1802.1678,0.006709
1804.0315,0.006763
1805.8952,0.006957
1807.7589,0.007319
1809.6225,0.007583
1811.4862,0.007495
1813.3499,0.007139
1815.2135,0.007136
1817.0772,0.007181
1818.9409,0.007200
1820.8045,0.007138
1822.6682,0.007401
1824.5319,0.007648
1826.3955,0.007262
1828.2592,0.007358
1830.1229,0.007243
1831.9865,0.006713
1833.8502,0.006754
1835.7139,0.007081
1837.5776,0.007160
1839.4412,0.006961
1841.3049,0.007249
1843.1686,0.007596
1845.0322,0.007214
1846.8959,0.006872
1848.7596,0.007224
1850.6232,0.007559
1852.4869,0.007678
1854.3506,0.007426
1856.2142,0.007425
1858.0779,0.007275
1859.9416,0.007451
1861.8052,0.007430
1863.6689,0.007488
1865.5326,0.007726
1867.3963,0.007943
1869.2599,0.007553
1871.1236,0.007430
1872.9873,0.007715
1874.8509,0.007908
1876.7146,0.007767
1878.5783,0.007598
1880.4419,0.007512
1882.3056,0.007763
1884.1693,0.007876
1886.0329,0.008089
1887.8966,0.008039
1889.7603,0.007670
1891.6240,0.007521
1893.4876,0.007922
1895.3513,0.008088
1897.2150,0.008151
1899.0786,0.007877
1900.9423,0.007897
1902.8060,0.007954
1904.6696,0.008022
1906.5333,0.008221
1908.3970,0.008487
1910.2606,0.007930
1912.1243,0.007580
1913.9880,0.007655
1915.8516,0.008577
1917.7153,0.009252
1919.5790,0.008966
1921.4427,0.008652
1923.3063,0.008133
1925.1700,0.007751
1927.0337,0.008221
1928.8973,0.008440
1930.7610,0.008368
1932.6247,0.008146
1934.4883,0.007778
1936.3520,0.007667
1938.2157,0.008457
1940.0793,0.008409
1941.9430,0.008190
1943.8067,0.007809
1945.6704,0.007795
1947.5340,0.007934
1949.3977,0.007999
1951.2614,0.008120
1953.1250,0.008446
1954.9887,0.007852
1956.8524,0.007757
1958.7160,0.007855
1960.5797,0.007733
1962.4434,0.006588
1964.3070,0.006363
1966.1707,0.005775
1968.0344,0.005813
1969.8980,0.005760
1971.7617,0.005633
1973.6254,0.005646
1975.4891,0.005438
1977.3527,0.004628
1979.2164,0.005624
1981.0801,0.006102
1982.9437,0.006540
1984.8074,0.007081
1986.6711,0.007076
1988.5347,0.007515
1990.3984,0.008247
1992.2621,0.007707
1994.1257,0.007509
1995.9894,0.007413
1997.8531,0.007920
1999.7167,0.008002
2001.5804,0.008543
2003.4441,0.008621
2005.3078,0.008544
2007.1714,0.007599
2009.0351,0.007230
2010.8988,0.006798
2012.7624,0.006877
2014.6261,0.007072
2016.4898,0.006744
2018.3534,0.005504
2020.2171,0.005959
2022.0808,0.005847
2023.9444,0.006252
2025.8081,0.007386
2027.6718,0.006965
2029.5355,0.005699
2031.3991,0.006302
2033.2628,0.007169
2035.1265,0.008191
2036.9901,0.006921
2038.8538,0.005929
2040.7175,0.005998
2042.5811,0.006818
2044.4448,0.007564
2046.3085,0.007600
2048.1721,0.007814
2050.0358,0.008637
2051.8995,0.008871
2053.7631,0.008907
2055.6268,0.008834
2057.4905,0.008980
2059.3542,0.008895
2061.2178,0.009129
2063.0815,0.009651
2064.9452,0.010279
2066.8088,0.009728
2068.6725,0.009383
2070.5362,0.009983
2072.3998,0.009836
2074.2635,0.009532
2076.1272,0.010043
2077.9908,0.009635
2079.8545,0.009384
2081.7182,0.009550
2083.5819,0.010053
2085.4455,0.010513
2087.3092,0.010500
2089.1729,0.010051
2091.0365,0.010299
2092.9002,0.010830
2094.7639,0.011007
2096.6275,0.010563
2098.4912,0.010430
2100.3549,0.010112
2102.2185,0.010055
2104.0822,0.010288
2105.9459,0.011015
2107.8095,0.010818
2109.6732,0.010356
2111.5369,0.010037
2113.4006,0.009847
2115.2642,0.009756
2117.1279,0.010447
2118.9916,0.011256
2120.8552,0.011033
2122.7189,0.010353
2124.5826,0.010663
2126.4462,0.010154
2128.3099,0.010590
2130.1736,0.011490
2132.0372,0.010995
2133.9009,0.010627
2135.7646,0.011117
2137.6282,0.010570
2139.4919,0.010600
2141.3556,0.010504
2143.2193,0.009821
2145.0829,0.009671
2146.9466,0.010062
2148.8103,0.008901
2150.6739,0.008880
2152.5376,0.008379
2154.4013,0.007811
2156.2649,0.008131
2158.1286,0.007810
2159.9923,0.007723
2161.8559,0.007916
2163.7196,0.008196
2165.5833,0.008275
2167.4470,0.008165
2169.3106,0.008901
2171.1743,0.008154
2173.0380,0.008672
2174.9016,0.009375
2176.7653,0.009682
2178.6290,0.009206
2180.4926,0.008947
2182.3563,0.009135
2184.2200,0.009995
2186.0836,0.010649
2187.9473,0.011101
2189.8110,0.010537
2191.6746,0.010191
2193.5383,0.009910
2195.4020,0.009512
2197.2657,0.010163
2199.1293,0.010758
2200.9930,0.010692
2202.8567,0.010337
2204.7203,0.009983
2206.5840,0.010781
2208.4477,0.011049
2210.3113,0.010822
2212.1750,0.010966
2214.0387,0.010281
2215.9023,0.010557
2217.7660,0.011650
2219.6297,0.012015
2221.4934,0.012259
2223.3570,0.011320
2225.2207,0.010992
2227.0844,0.011199
2228.9480,0.011876
2230.8117,0.011702
2232.6754,0.011735
2234.5390,0.011933
2236.4027,0.012105
2238.2664,0.012220
2240.1300,0.012426
2241.9937,0.012104
2243.8574,0.011956
2245.7210,0.012534
2247.5847,0.012890
2249.4484,0.012356
2251.3121,0.012389
2253.1757,0.012770
2255.0394,0.012981
2256.9031,0.012567
2258.7667,0.012498
2260.6304,0.012741
2262.4941,0.012944
2264.3577,0.013018
2266.2214,0.013629
2268.0851,0.013809
2269.9487,0.013821
2271.8124,0.013632
2273.6761,0.013762
2275.5397,0.014055
2277.4034,0.013968
2279.2671,0.013472
2281.1308,0.013315
2282.9944,0.013724
2284.8581,0.014369
2286.7218,0.014660
2288.5854,0.014452
2290.4491,0.014217
2292.3128,0.014314
2294.1764,0.014621
2296.0401,0.014657
2297.9038,0.014728
2299.7674,0.014968
2301.6311,0.015133
2303.4948,0.014755
2305.3585,0.014413
2307.2221,0.014463
2309.0858,0.014557
2310.9495,0.014573
2312.8131,0.014638
2314.6768,0.014997
2316.5405,0.015051
2318.4041,0.015064
2320.2678,0.015149
2322.1315,0.015158
2323.9951,0.015016
2325.8588,0.014715
2327.7225,0.014284
2329.5861,0.014245
2331.4498,0.014440
2333.3135,0.014414
2335.1772,0.014301
2337.0408,0.014502
2338.9045,0.014357
2340.7682,0.014163
2342.6318,0.014332
2344.4955,0.014386
2346.3592,0.014043
2348.2228,0.013720
2350.0865,0.013752
2351.9502,0.014205
2353.8138,0.014396
2355.6775,0.014258
2357.5412,0.014346
2359.4049,0.014263
2361.2685,0.014271
2363.1322,0.014334
2364.9959,0.014358
2366.8595,0.014083
2368.7232,0.013779
2370.5869,0.014217
2372.4505,0.014766
2374.3142,0.014820
2376.1779,0.014728
2378.0415,0.014520
2379.9052,0.014561
2381.7689,0.014734
2383.6325,0.014819
2385.4962,0.014485
2387.3599,0.014583
2389.2236,0.014979
2391.0872,0.014641
2392.9509,0.014610
2394.8146,0.014885
2396.6782,0.014722
2398.5419,0.014583
2400.4056,0.014625
2402.2692,0.014663
2404.1329,0.015067
2405.9966,0.015403
2407.8602,0.015324
2409.7239,0.015103
2411.5876,0.015015
2413.4512,0.014967
2415.3149,0.015003
2417.1786,0.015218
2419.0423,0.015214
2420.9059,0.015197
2422.7696,0.015171
2424.6333,0.015340
2426.4969,0.015635
2428.3606,0.015802
2430.2243,0.015936
2432.0879,0.015490
2433.9516,0.015138
2435.8153,0.015434
2437.6789,0.015775
2439.5426,0.015716
2441.4063,0.015577
2443.2700,0.015751
2445.1336,0.015828
2446.9973,0.015655
2448.8610,0.015471
2450.7246,0.015579
2452.5883,0.015788
2454.4520,0.015830
2456.3156,0.015812
2458.1793,0.015582
2460.0430,0.015445
2461.9066,0.015662
2463.7703,0.015628
2465.6340,0.015244
2467.4976,0.015251
2469.3613,0.015535
2471.2250,0.015630
2473.0887,0.015380
2474.9523,0.015614
2476.8160,0.015813
2478.6797,0.015565
2480.5433,0.015393
2482.4070,0.015180
2484.2707,0.015032
2486.1343,0.015059
2487.9980,0.015406
2489.8617,0.015643
2491.7253,0.015831
2493.5890,0.015932
2495.4527,0.015841
2497.3164,0.015881
2499.1800,0.016049
2501.0437,0.016209
2502.9074,0.016051
2504.7710,0.016055
2506.6347,0.016123
2508.4984,0.016285
2510.3620,0.016588
2512.2257,0.016558
2514.0894,0.016303
2515.9530,0.016245
2517.8167,0.016321
2519.6804,0.016400
2521.5440,0.016515
2523.4077,0.016553
2525.2714,0.016396
2527.1351,0.016215
2528.9987,0.016220
2530.8624,0.016598
2532.7261,0.016999
2534.5897,0.017056
2536.4534,0.016621
2538.3171,0.016578
2540.1807,0.017069
2542.0444,0.016947
2543.9081,0.016807
2545.7717,0.017262
2547.6354,0.017209
2549.4991,0.016509
2551.3627,0.016338
2553.2264,0.016828
2555.0901,0.017090
2556.9538,0.016752
2558.8174,0.016280
2560.6811,0.016291
2562.5448,0.016461
2564.4084,0.016679
2566.2721,0.016956
2568.1358,0.017085
2569.9994,0.017045
2571.8631,0.017209
2573.7268,0.017393
2575.5904,0.017354
2577.4541,0.017355
2579.3178,0.017261
2581.1815,0.017327
2583.0451,0.017643
2584.9088,0.017781
2586.7725,0.017670
2588.6361,0.017698
2590.4998,0.017920
2592.3635,0.017953
2594.2271,0.017752
2596.0908,0.018107
2597.9545,0.018416
2599.8181,0.018674
2601.6818,0.018586
2603.5455,0.018557
2605.4091,0.018576
2607.2728,0.018501
2609.1365,0.018476
2611.0002,0.018554
2612.8638,0.018931
2614.7275,0.019129
2616.5912,0.018899
2618.4548,0.018730
2620.3185,0.018945
2622.1822,0.018819
2624.0458,0.018933
2625.9095,0.019448
2627.7732,0.019640
2629.6368,0.019352
2631.5005,0.019323
2633.3642,0.019362
2635.2279,0.019497
2637.0915,0.019723
2638.9552,0.019979
2640.8189,0.020107
2642.6825,0.020177
2644.5462,0.020175
2646.4099,0.020251
2648.2735,0.020366
2650.1372,0.020446
2652.0009,0.020418
2653.8645,0.020519
2655.7282,0.020757
2657.5919,0.020724
2659.4555,0.020690
2661.3192,0.020689
2663.1829,0.020697
2665.0466,0.020598
2666.9102,0.020665
2668.7739,0.020888
2670.6376,0.020889
2672.5012,0.020749
2674.3649,0.020830
2676.2286,0.021057
2678.0922,0.021098
2679.9559,0.021152
2681.8196,0.021372
2683.6832,0.021566
2685.5469,0.021613
2687.4106,0.021666
2689.2742,0.021706
2691.1379,0.021667
2693.0016,0.021540
2694.8653,0.021663
2696.7289,0.022054
2698.5926,0.022414
2700.4563,0.022542
2702.3199,0.022498
2704.1836,0.022656
2706.0473,0.022936
2707.9109,0.023271
2709.7746,0.023384
2711.6383,0.023447
2713.5019,0.023471
2715.3656,0.023638
2717.2293,0.023800
2719.0930,0.024024
2720.9566,0.024199
2722.8203,0.024173
2724.6840,0.024412
2726.5476,0.024973
2728.4113,0.025131
2730.2750,0.025132
2732.1386,0.025396
2734.0023,0.025584
2735.8660,0.025809
2737.7296,0.026191
2739.5933,0.026461
2741.4570,0.026682
2743.3206,0.026951
2745.1843,0.027162
2747.0480,0.027312
2748.9117,0.027649
2750.7753,0.028117
2752.6390,0.028466
2754.5027,0.028562
2756.3663,0.028768
2758.2300,0.029004
2760.0937,0.029437
2761.9573,0.029747
2763.8210,0.030116
2765.6847,0.030353
2767.5483,0.030473
2769.4120,0.030868
2771.2757,0.031275
2773.1394,0.031630
2775.0030,0.032025
2776.8667,0.032339
2778.7304,0.032616
2780.5940,0.032869
2782.4577,0.033238
2784.3214,0.033324
2786.1850,0.033139
2788.0487,0.032830
2789.9124,0.032940
2791.7760,0.033106
2793.6397,0.032839
2795.5034,0.032478
2797.3670,0.032076
2799.2307,0.031620
2801.0944,0.031454
2802.9581,0.031217
2804.8217,0.030953
2806.6854,0.030632
2808.5491,0.030252
2810.4127,0.030065
2812.2764,0.030178
2814.1401,0.030062
2816.0037,0.029839
2817.8674,0.029723
2819.7311,0.029799
2821.5947,0.030063
2823.4584,0.030275
2825.3221,0.030191
2827.1857,0.030033
2829.0494,0.029734
2830.9131,0.029561
2832.7768,0.029503
2834.6404,0.029282
2836.5041,0.029227
2838.3678,0.029313
2840.2314,0.029343
2842.0951,0.029612
2843.9588,0.029787
2845.8224,0.029921
2847.6861,0.029934
2849.5498,0.030161
2851.4134,0.030550
2853.2771,0.030898
2855.1408,0.031015
2857.0045,0.031369
2858.8681,0.031752
2860.7318,0.032224
2862.5955,0.032543
2864.4591,0.032544
2866.3228,0.032595
2868.1865,0.033001
2870.0501,0.033228
2871.9138,0.033325
2873.7775,0.033361
2875.6411,0.033502
2877.5048,0.033662
2879.3685,0.033901
2881.2321,0.034132
2883.0958,0.034503
2884.9595,0.034584
2886.8232,0.034771
2888.6868,0.035220
2890.5505,0.035453
2892.4142,0.035575
2894.2778,0.035931
2896.1415,0.036327
2898.0052,0.036840
2899.8688,0.036974
2901.7325,0.036728
2903.5962,0.036497
2905.4598,0.036816
2907.3235,0.036915
2909.1872,0.036756
2911.0509,0.036807
2912.9145,0.037295
2914.7782,0.037671
2916.6419,0.037965
2918.5055,0.038326
2920.3692,0.038534
2922.2329,0.038704
2924.0965,0.039134
2925.9602,0.039471
2927.8239,0.039788
2929.6875,0.040006
2931.5512,0.040195
2933.4149,0.040749
2935.2785,0.041206
2937.1422,0.041197
2939.0059,0.041508
2940.8696,0.041846
2942.7332,0.041879
2944.5969,0.042033
2946.4606,0.042465
2948.3242,0.042540
2950.1879,0.042672
2952.0516,0.042936
2953.9152,0.042974
2955.7789,0.043073
2957.6426,0.043376
2959.5062,0.043518
2961.3699,0.044065
2963.2336,0.044408
2965.0972,0.044690
2966.9609,0.045123
2968.8246,0.045568
2970.6883,0.045978
2972.5519,0.046351
2974.4156,0.046826
2976.2793,0.047142
2978.1429,0.047359
2980.0066,0.047722
2981.8703,0.048031
2983.7339,0.048293
2985.5976,0.048308
2987.4613,0.048409
2989.3249,0.048407
2991.1886,0.048822
2993.0523,0.049539
2994.9160,0.050040
2996.7796,0.050290
2998.6433,0.050729
3000.5070,0.051129
3002.3706,0.051349
3004.2343,0.051592
3006.0980,0.052250
3007.9616,0.052888
3009.8253,0.053369
3011.6890,0.053452
3013.5526,0.053626
3015.4163,0.053677
3017.2800,0.054222
3019.1436,0.055154
3021.0073,0.055577
3022.8710,0.055440
3024.7347,0.055518
3026.5983,0.055780
3028.4620,0.056247
3030.3257,0.056487
3032.1893,0.056852
3034.0530,0.056690
3035.9167,0.056425
3037.7803,0.056491
3039.6440,0.056866
3041.5077,0.057130
3043.3713,0.057612
3045.2350,0.057927
3047.0987,0.057752
3048.9624,0.057596
3050.8260,0.057918
3052.6897,0.058389
3054.5534,0.058785
3056.4170,0.058816
3058.2807,0.059180
3060.1444,0.059203
3062.0080,0.058871
3063.8717,0.058979
3065.7354,0.059263
3067.5990,0.059149
3069.4627,0.059161
3071.3264,0.058975
3073.1900,0.059335
3075.0537,0.059577
3076.9174,0.059198
3078.7811,0.058905
3080.6447,0.059142
3082.5084,0.059129
3084.3721,0.059043
3086.2357,0.058622
3088.0994,0.058149
3089.9631,0.057911
3091.8267,0.057834
3093.6904,0.057508
3095.5541,0.057154
3097.4177,0.056651
3099.2814,0.056279
3101.1451,0.055803
3103.0087,0.055268
3104.8724,0.054596
3106.7361,0.054320
3108.5998,0.053837
3110.4634,0.053208
3112.3271,0.052663
3114.1908,0.052052
3116.0544,0.051585
3117.9181,0.051422
3119.7818,0.050901
3121.6454,0.050294
3123.5091,0.050103
3125.3728,0.050065
3127.2364,0.049256
3129.1001,0.048658
3130.9638,0.048260
3132.8275,0.048075
3134.6911,0.047328
3136.5548,0.046348
3138.4185,0.046181
3140.2821,0.046275
3142.1458,0.046186
3144.0095,0.045972
3145.8731,0.045428
3147.7368,0.045209
3149.6005,0.044879
3151.4641,0.044553
3153.3278,0.044574
3155.1915,0.044743
3157.0551,0.044475
3158.9188,0.044244
3160.7825,0.043883
3162.6462,0.043714
3164.5098,0.043264
3166.3735,0.042854
3168.2372,0.042615
3170.1008,0.042313
3171.9645,0.041839
3173.8282,0.041465
3175.6918,0.041256
3177.5555,0.041049
3179.4192,0.040996
3181.2828,0.041327
3183.1465,0.041215
3185.0102,0.040991
3186.8739,0.040833
3188.7375,0.040390
3190.6012,0.039829
3192.4649,0.040208
3194.3285,0.040693
3196.1922,0.040344
3198.0559,0.040022
3199.9195,0.040524
3201.7832,0.040395
3203.6469,0.040098
3205.5105,0.039997
3207.3742,0.040142
3209.2379,0.040220
3211.1015,0.040561
3212.9652,0.040719
3214.8289,0.040623
3216.6926,0.040326
3218.5562,0.040330
3220.4199,0.040661
3222.2836,0.041181
3224.1472,0.041060
3226.0109,0.040547
3227.8746,0.040461
3229.7382,0.040886
3231.6019,0.040989
3233.4656,0.041386
3235.3292,0.041396
3237.1929,0.041232
3239.0566,0.041473
3240.9202,0.041796
3242.7839,0.041993
3244.6476,0.042457
3246.5113,0.042296
3248.3749,0.042010
3250.2386,0.042658
3252.1023,0.043337
3253.9659,0.043087
3255.8296,0.042861
3257.6933,0.042852
3259.5569,0.043619
3261.4206,0.043908
3263.2843,0.043780
3265.1479,0.043877
3267.0116,0.044197
3268.8753,0.044190
3270.7390,0.044206
3272.6026,0.044278
3274.4663,0.044534
3276.3300,0.044587
3278.1936,0.044520
3280.0573,0.044314
3281.9210,0.044436
3283.7846,0.044254
3285.6483,0.044040
3287.5120,0.043788
3289.3756,0.043625
3291.2393,0.043508
3293.1030,0.043589
3294.9666,0.043534
3296.8303,0.043033
3298.6940,0.041872
3300.5577,0.041024
3302.4213,0.040396
3304.2850,0.040424
3306.1487,0.040499
3308.0123,0.039920
3309.8760,0.039100
3311.7397,0.038926
3313.6033,0.038955
3315.4670,0.038844
3317.3307,0.038210
3319.1943,0.038149
3321.0580,0.038326
3322.9217,0.038605
3324.7854,0.039036
3326.6490,0.039641
3328.5127,0.039725
3330.3764,0.039508
3332.2400,0.039159
3334.1037,0.039064
3335.9674,0.038857
3337.8310,0.038822
3339.6947,0.038697
3341.5584,0.038805
3343.4220,0.038150
3345.2857,0.037200
3347.1494,0.036822
3349.0130,0.036656
3350.8767,0.035997
3352.7404,0.035399
3354.6041,0.034790
3356.4677,0.034179
3358.3314,0.033223
3360.1951,0.032415
3362.0587,0.032364
3363.9224,0.032278
3365.7861,0.030889
3367.6497,0.030252
3369.5134,0.030797
3371.3771,0.031433
3373.2407,0.031430
3375.1044,0.031208
3376.9681,0.030171
3378.8317,0.029662
3380.6954,0.029894
3382.5591,0.030343
3384.4228,0.030345
3386.2864,0.030017
3388.1501,0.030856
3390.0138,0.032427
3391.8774,0.032146
3393.7411,0.032018
3395.6048,0.032394
3397.4684,0.032855
3399.3321,0.033080
3401.1958,0.032862
3403.0594,0.032547
3404.9231,0.032253
3406.7868,0.031830
3408.6505,0.031543
3410.5141,0.031101
3412.3778,0.031363
3414.2415,0.030737
3416.1051,0.029298
3417.9688,0.027731
3419.8325,0.026957
3421.6961,0.026453
3423.5598,0.025236
3425.4235,0.023916
3427.2871,0.023504
3429.1508,0.022840
3431.0145,0.022338
3432.8781,0.022323
3434.7418,0.022050
3436.6055,0.021639
3438.4692,0.020830
3440.3328,0.019570
3442.1965,0.019449
3444.0602,0.019459
3445.9238,0.019593
3447.7875,0.019716
3449.6512,0.019598
3451.5148,0.018982
3453.3785,0.017978
3455.2422,0.016936
3457.1058,0.016518
3458.9695,0.017018
3460.8332,0.017822
3462.6969,0.017242
3464.5605,0.016343
3466.4242,0.015958
3468.2879,0.015848
3470.1515,0.015531
3472.0152,0.016141
3473.8789,0.016194
3475.7425,0.015625
3477.6062,0.014963
3479.4699,0.014721
3481.3335,0.014134
3483.1972,0.013955
3485.0609,0.013922
3486.9245,0.013678
3488.7882,0.013862
3490.6519,0.014198
3492.5156,0.013288
3494.3792,0.013551
3496.2429,0.014005
3498.1066,0.013052
3499.9702,0.012597
3501.8339,0.012395
3503.6976,0.011489
3505.5612,0.011698
3507.4249,0.011817
3509.2886,0.012160
3511.1522,0.012295
3513.0159,0.011688
3514.8796,0.010707
3516.7432,0.011177
3518.6069,0.011656
3520.4706,0.011071
3522.3343,0.011113
3524.1979,0.011737
3526.0616,0.011057
3527.9253,0.010612
3529.7889,0.009571
3531.6526,0.009130
3533.5163,0.009079
3535.3799,0.008866
3537.2436,0.008838
3539.1073,0.008687
3540.9709,0.008809
3542.8346,0.009790
3544.6983,0.010182
3546.5620,0.010419
3548.4256,0.009549
3550.2893,0.008049
3552.1530,0.007796
3554.0166,0.008036
3555.8803,0.008038
3557.7440,0.009033
3559.6076,0.009422
3561.4713,0.009626
3563.3350,0.008900
3565.1986,0.008192
3567.0623,0.008331
3568.9260,0.007825
3570.7896,0.007297
3572.6533,0.008620
3574.5170,0.008630
3576.3807,0.007967
3578.2443,0.007762
3580.1080,0.008769
3581.9717,0.008784
3583.8353,0.008071
3585.6990,0.008183
3587.5627,0.009320
3589.4263,0.007444
3591.2900,0.005469
3593.1537,0.007446
3595.0173,0.008910
3596.8810,0.007967
3598.7447,0.008008
3600.6084,0.008586
3602.4720,0.008240
3604.3357,0.007450
3606.1994,0.007607
3608.0630,0.008465
3609.9267,0.008713
3611.7904,0.007575
3613.6540,0.007751
3615.5177,0.007905
3617.3814,0.007972
3619.2450,0.007824
3621.1087,0.007091
3622.9724,0.006669
3624.8360,0.007647
3626.6997,0.008764
3628.5634,0.010182
3630.4271,0.009258
3632.2907,0.005807
3634.1544,0.006891
3636.0181,0.007986
3637.8817,0.008018
3639.7454,0.007841
3641.6091,0.007744
3643.4727,0.008298
3645.3364,0.008730
3647.2001,0.009683
3649.0637,0.008539
3650.9274,0.006374
3652.7911,0.006174
3654.6547,0.007312
3656.5184,0.008784
3658.3821,0.008203
3660.2458,0.007502
3662.1094,0.007945
3663.9731,0.007967
3665.8368,0.008183
3667.7004,0.008945
3669.5641,0.009978
3671.4278,0.009541
3673.2914,0.007518
3675.1551,0.008563
3677.0188,0.008849
3678.8824,0.006226
3680.7461,0.007428
3682.6098,0.007984
3684.4735,0.008651
3686.3371,0.009063
3688.2008,0.010099
3690.0645,0.010150
3691.9281,0.008527
3693.7918,0.007715
3695.6555,0.008187
3697.5191,0.009010
3699.3828,0.009398
3701.2465,0.009243
3703.1101,0.008599
3704.9738,0.007559
3706.8375,0.007942
3708.7011,0.008982
3710.5648,0.009916
3712.4285,0.008669
3714.2922,0.006668
3716.1558,0.006753
3718.0195,0.007964
3719.8832,0.008561
3721.7468,0.008955
3723.6105,0.008971
3725.4742,0.008493
3727.3378,0.007974
3729.2015,0.007465
3731.0652,0.008386
3732.9288,0.008940
3734.7925,0.008543
3736.6562,0.008699
3738.5199,0.006333
3740.3835,0.006821
3742.2472,0.007825
3744.1109,0.008853
3745.9745,0.009053
3747.8382,0.007493
3749.7019,0.010154
3751.5655,0.009833
3753.4292,0.007616
3755.2929,0.007184
3757.1565,0.008568
3759.0202,0.008991
3760.8839,0.008561
3762.7475,0.008122
3764.6112,0.008634
3766.4749,0.009598
3768.3386,0.009825
3770.2022,0.009786
3772.0659,0.008856
3773.9296,0.009292
3775.7932,0.009471
3777.6569,0.008872
3779.5206,0.009366
3781.3842,0.009181
3783.2479,0.008841
3785.1116,0.009765
3786.9752,0.009683
3788.8389,0.009596
3790.7026,0.009513
3792.5662,0.009473
3794.4299,0.009639
3796.2936,0.010175
3798.1573,0.010464
3800.0209,0.009637
3801.8846,0.009815
3803.7483,0.008782
3805.6119,0.008874
3807.4756,0.010060
3809.3393,0.009068
3811.2029,0.008340
3813.0666,0.008950
3814.9303,0.009729
3816.7939,0.010889
3818.6576,0.010032
3820.5213,0.010202
3822.3850,0.009801
3824.2486,0.007316
3826.1123,0.008351
3827.9760,0.009391
3829.8396,0.009438
3831.7033,0.009944
3833.5670,0.010126
3835.4306,0.009781
3837.2943,0.009332
3839.1580,0.009595
3841.0216,0.009730
3842.8853,0.008645
3844.7490,0.008460
3846.6126,0.008927
3848.4763,0.009714
3850.3400,0.009812
3852.2037,0.010468
3854.0673,0.011501
3855.9310,0.007896
3857.7947,0.007195
3859.6583,0.008918
3861.5220,0.009838
3863.3857,0.010036
3865.2493,0.009745
3867.1130,0.008952
3868.9767,0.009221
3870.8403,0.010826
3872.7040,0.009730
3874.5677,0.009384
3876.4314,0.008654
3878.2950,0.009274
3880.1587,0.010380
3882.0224,0.010293
3883.8860,0.009691
3885.7497,0.010537
3887.6134,0.010237
3889.4770,0.009195
3891.3407,0.009586
3893.2044,0.009648
3895.0680,0.009405
3896.9317,0.009717
3898.7954,0.010643
3900.6590,0.011547
3902.5227,0.011069
3904.3864,0.010478
3906.2501,0.010043
3908.1137,0.009505
3909.9774,0.009499
3911.8411,0.010004
3913.7047,0.010154
3915.5684,0.010572
3917.4321,0.010649
3919.2957,0.010133
3921.1594,0.010219
3923.0231,0.010195
3924.8867,0.010241
3926.7504,0.010113
3928.6141,0.010159
3930.4777,0.010820
3932.3414,0.011005
3934.2051,0.010856
3936.0688,0.010469
3937.9324,0.010395
3939.7961,0.010165
3941.6598,0.010487
3943.5234,0.010828
3945.3871,0.010166
3947.2508,0.009946
3949.1144,0.010415
3950.9781,0.010526
3952.8418,0.011041
3954.7054,0.011337
3956.5691,0.011045
3958.4328,0.010503
3960.2965,0.010597
3962.1601,0.010981
3964.0238,0.010798
3965.8875,0.010457
3967.7511,0.010939
3969.6148,0.010891
3971.4785,0.010673
3973.3421,0.010922
3975.2058,0.011345
3977.0695,0.011332
3978.9331,0.010762
3980.7968,0.010600
3982.6605,0.011651
3984.5241,0.011380
3986.3878,0.010746
3988.2515,0.011037
3990.1152,0.011171
3991.9788,0.010863
3993.8425,0.011009
3995.7062,0.010901
3997.5698,0.011017
3999.4335,0.010927
