Wavenumber,Intensity
650.4205,0.246237
652.2841,0.239635
654.1478,0.233063
656.0115,0.228660
657.8751,0.227468
659.7388,0.223488
661.6025,0.218817
663.4661,0.215983
665.3298,0.213680
667.1935,0.213265
669.0571,0.216322
670.9208,0.212764
672.7845,0.212241
674.6481,0.213386
676.5118,0.213090
678.3755,0.211019
680.2392,0.210360
682.1028,0.209600
683.9665,0.209863
685.8302,0.210601
687.6938,0.211559
689.5575,0.211814
691.4212,0.211331
693.2848,0.210490
695.1485,0.211882
697.0122,0.213888
698.8758,0.215480
700.7395,0.216293
702.6032,0.215579
704.4669,0.212361
706.3305,0.206605
708.1942,0.197584
710.0579,0.187408
711.9215,0.177266
713.7852,0.168222
715.6489,0.159967
717.5125,0.152474
719.3762,0.144929
721.2399,0.138495
723.1035,0.133076
724.9672,0.127881
726.8309,0.122665
728.6945,0.117723
730.5582,0.112728
732.4219,0.107925
734.2856,0.103946
736.1492,0.100898
738.0129,0.098728
739.8766,0.098954
741.7402,0.101400
743.6039,0.104267
745.4676,0.105902
747.3312,0.105964
749.1949,0.105114
751.0586,0.104236
752.9222,0.102983
754.7859,0.101144
756.6496,0.099655
758.5132,0.099024
760.3769,0.098462
762.2406,0.097919
764.1043,0.097265
765.9679,0.096427
767.8316,0.096210
769.6953,0.096295
771.5589,0.096403
773.4226,0.097046
775.2863,0.097536
777.1499,0.098001
779.0136,0.099094
780.8773,0.100436
782.7409,0.101819
784.6046,0.103725
786.4683,0.105538
788.3320,0.107377
790.1956,0.109905
792.0593,0.112495
793.9230,0.114429
795.7866,0.116507
797.6503,0.118751
799.5140,0.120699
801.3776,0.121839
803.2413,0.122513
805.1050,0.122287
806.9686,0.120816
808.8323,0.118410
810.6960,0.115357
812.5596,0.111573
814.4233,0.107793
816.2870,0.104145
818.1507,0.100423
820.0143,0.097253
821.8780,0.095167
823.7417,0.094039
825.6053,0.094162
827.4690,0.096043
829.3327,0.096766
831.1963,0.090004
833.0600,0.076590
834.9237,0.065499
836.7873,0.060453
838.6510,0.058802
840.5147,0.058069
842.3784,0.057553
844.2420,0.057190
846.1057,0.056855
847.9694,0.056500
849.8330,0.056304
851.6967,0.056025
853.5604,0.055746
855.4240,0.055664
857.2877,0.055576
859.1514,0.055378
861.0150,0.055230
862.8787,0.055134
864.7424,0.055143
866.6060,0.055134
868.4697,0.055019
870.3334,0.054874
872.1971,0.054955
874.0607,0.055240
875.9244,0.055511
877.7881,0.055777
879.6517,0.056052
881.5154,0.056252
883.3791,0.056424
885.2427,0.056708
887.1064,0.057260
888.9701,0.057772
890.8337,0.058337
892.6974,0.059143
894.5611,0.060037
896.4247,0.061033
898.2884,0.062422
900.1521,0.064399
902.0158,0.066794
903.8794,0.069831
905.7431,0.074115
907.6068,0.079469
909.4704,0.085740
911.3341,0.093421
913.1978,0.101975
915.0614,0.105498
916.9251,0.095319
918.7888,0.076603
920.6524,0.062737
922.5161,0.056902
924.3798,0.055116
926.2435,0.054839
928.1071,0.055212
929.9708,0.055823
931.8345,0.056567
933.6981,0.057405
935.5618,0.058288
937.4255,0.059016
939.2891,0.059509
941.1528,0.059951
943.0165,0.060577
944.8801,0.061325
946.7438,0.062184
948.6075,0.063101
950.4711,0.063997
952.3348,0.064867
954.1985,0.065868
956.0622,0.066972
957.9258,0.068088
959.7895,0.069257
961.6532,0.070627
963.5168,0.072178
965.3805,0.073974
967.2442,0.076165
969.1078,0.079001
970.9715,0.082084
972.8352,0.085757
974.6988,0.091912
976.5625,0.102674
978.4262,0.121370
980.2899,0.147962
982.1535,0.158654
984.0172,0.128196
985.8809,0.088143
987.7445,0.070041
989.6082,0.067128
991.4719,0.067762
993.3355,0.069042
995.1992,0.070468
997.0629,0.071838
998.9265,0.073122
1000.7902,0.074295
1002.6539,0.075449
1004.5175,0.076589
1006.3812,0.077778
1008.2449,0.079073
1010.1086,0.080427
1011.9722,0.081618
1013.8359,0.082657
1015.6996,0.083615
1017.5632,0.084432
1019.4269,0.085219
1021.2906,0.086124
1023.1542,0.087132
1025.0179,0.088183
1026.8816,0.089328
1028.7452,0.090815
1030.6089,0.092633
1032.4726,0.094466
1034.3362,0.096493
1036.1999,0.099031
1038.0636,0.101966
1039.9273,0.105352
1041.7909,0.109517
1043.6546,0.114354
1045.5183,0.119418
1047.3819,0.123384
1049.2456,0.123597
1051.1093,0.117664
1052.9729,0.106969
1054.8366,0.096497
1056.7003,0.089724
1058.5639,0.086537
1060.4276,0.085752
1062.2913,0.086233
1064.1550,0.087181
1066.0186,0.088514
1067.8823,0.090163
1069.7460,0.091988
1071.6096,0.094032
1073.4733,0.096302
1075.3370,0.098685
1077.2006,0.101063
1079.0643,0.103638
1080.9280,0.106531
1082.7916,0.109521
1084.6553,0.112844
1086.5190,0.116687
1088.3826,0.121048
1090.2463,0.126092
1092.1100,0.131670
1093.9737,0.137791
1095.8373,0.144777
1097.7010,0.152651
1099.5647,0.161115
1101.4283,0.169592
1103.2920,0.177169
1105.1557,0.182371
1107.0193,0.183082
1108.8830,0.177509
1110.7467,0.165490
1112.6103,0.149751
1114.4740,0.133781
1116.3377,0.119418
1118.2014,0.107690
1120.0650,0.099225
1121.9287,0.093658
1123.7924,0.089947
1125.6560,0.087085
1127.5197,0.084423
1129.3834,0.081750
1131.2470,0.079272
1133.1107,0.077114
1134.9744,0.075444
1136.8380,0.074392
1138.7017,0.073768
1140.5654,0.073496
1142.4290,0.073476
1144.2927,0.073500
1146.1564,0.073524
1148.0201,0.073708
1149.8837,0.074103
1151.7474,0.074679
1153.6111,0.075390
1155.4747,0.076308
1157.3384,0.077466
1159.2021,0.078841
1161.0657,0.080661
1162.9294,0.083085
1164.7931,0.086087
1166.6567,0.089739
1168.5204,0.094133
1170.3841,0.098725
1172.2477,0.101825
1174.1114,0.101258
1175.9751,0.096480
1177.8388,0.089856
1179.7024,0.084325
1181.5661,0.081025
1183.4298,0.079534
1185.2934,0.079060
1187.1571,0.079041
1189.0208,0.079135
1190.8844,0.079143
1192.7481,0.079067
1194.6118,0.078992
1196.4754,0.079054
1198.3391,0.079352
1200.2028,0.079697
1202.0665,0.079982
1203.9301,0.080314
1205.7938,0.080659
1207.6575,0.081020
1209.5211,0.081512
1211.3848,0.082107
1213.2485,0.082640
1215.1121,0.083033
1216.9758,0.083472
1218.8395,0.084086
1220.7031,0.084674
1222.5668,0.085223
1224.4305,0.085802
1226.2941,0.086336
1228.1578,0.086822
1230.0215,0.087305
1231.8852,0.087740
1233.7488,0.088199
1235.6125,0.088831
1237.4762,0.089511
1239.3398,0.090113
1241.2035,0.090678
1243.0672,0.091282
1244.9308,0.091929
1246.7945,0.092601
1248.6582,0.093339
1250.5218,0.094128
1252.3855,0.094958
1254.2492,0.095790
1256.1129,0.096617
1257.9765,0.097619
1259.8402,0.098953
1261.7039,0.100327
1263.5675,0.101533
1265.4312,0.102620
1267.2949,0.103251
1269.1585,0.103301
1271.0222,0.103132
1272.8859,0.103087
1274.7495,0.103392
1276.6132,0.104248
1278.4769,0.105567
1280.3405,0.107150
1282.2042,0.109075
1284.0679,0.111365
1285.9316,0.113952
1287.7952,0.117043
1289.6589,0.120591
1291.5226,0.124596
1293.3862,0.129376
1295.2499,0.135110
1297.1136,0.142054
1298.9772,0.150344
1300.8409,0.160153
1302.7046,0.170450
1304.5682,0.177489
1306.4319,0.175962
1308.2956,0.160974
1310.1592,0.134379
1312.0229,0.107773
1313.8866,0.090968
1315.7503,0.084959
1317.6139,0.085091
1319.4776,0.087684
1321.3413,0.090765
1323.2049,0.093862
1325.0686,0.097098
1326.9323,0.100294
1328.7959,0.103502
1330.6596,0.106494
1332.5233,0.108750
1334.3869,0.110135
1336.2506,0.111321
1338.1143,0.113336
1339.9780,0.115779
1341.8416,0.116505
1343.7053,0.116460
1345.5690,0.117332
1347.4326,0.118636
1349.2963,0.120207
1351.1600,0.122113
1353.0236,0.124446
1354.8873,0.127326
1356.7510,0.130226
1358.6146,0.132951
1360.4783,0.136680
1362.3420,0.142859
1364.2056,0.148237
1366.0693,0.150949
1367.9330,0.155329
1369.7967,0.160616
1371.6603,0.164857
1373.5240,0.171223
1375.3877,0.178412
1377.2513,0.182971
1379.1150,0.188912
1380.9787,0.196774
1382.8423,0.204820
1384.7060,0.213516
1386.5697,0.224980
1388.4333,0.237590
1390.2970,0.243695
1392.1607,0.246045
1394.0244,0.246126
1395.8880,0.239225
1397.7517,0.227174
1399.6154,0.213475
1401.4790,0.200454
1403.3427,0.188680
1405.2064,0.171404
1407.0700,0.148497
1408.9337,0.126263
1410.7974,0.106522
1412.6610,0.092974
1414.5247,0.087000
1416.3884,0.087166
1418.2520,0.093837
1420.1157,0.105171
1421.9794,0.110278
1423.8431,0.107704
1425.7067,0.096962
1427.5704,0.085068
1429.4341,0.077919
1431.2977,0.075372
1433.1614,0.075444
1435.0251,0.077567
1436.8887,0.082332
1438.7524,0.085037
1440.6161,0.085819
1442.4797,0.087753
1444.3434,0.089535
1446.2071,0.090876
1448.0707,0.091558
1449.9344,0.089551
1451.7981,0.085654
1453.6618,0.081901
1455.5254,0.081314
1457.3891,0.086446
1459.2528,0.088510
1461.1164,0.086729
1462.9801,0.086690
1464.8438,0.087919
1466.7074,0.087058
1468.5711,0.084427
1470.4348,0.083115
1472.2984,0.084455
1474.1621,0.086106
1476.0258,0.085570
1477.8895,0.085070
1479.7531,0.084846
1481.6168,0.085591
1483.4805,0.085942
1485.3441,0.085999
1487.2078,0.087427
1489.0715,0.090762
1490.9351,0.093428
1492.7988,0.092718
1494.6625,0.092645
1496.5261,0.096081
1498.3898,0.099521
1500.2535,0.099930
1502.1171,0.098890
1503.9808,0.098370
1505.8445,0.102421
1507.7082,0.112619
1509.5718,0.111931
1511.4355,0.110479
1513.2992,0.110935
1515.1628,0.112219
1517.0265,0.114863
1518.8902,0.116496
1520.7538,0.118893
1522.6175,0.123160
1524.4812,0.123150
1526.3448,0.124491
1528.2085,0.126033
1530.0722,0.125789
1531.9359,0.127048
1533.7995,0.130790
1535.6632,0.130983
1537.5269,0.130195
1539.3905,0.135866
1541.2542,0.145521
1543.1179,0.146361
1544.9815,0.147763
1546.8452,0.148765
1548.7089,0.150106
1550.5725,0.153348
1552.4362,0.155473
1554.2999,0.157192
1556.1635,0.160044
1558.0272,0.167711
1559.8909,0.184384
1561.7546,0.180112
1563.6182,0.177841
1565.4819,0.180548
1567.3456,0.184029
1569.2092,0.189643
1571.0729,0.195304
1572.9366,0.195975
1574.8002,0.200094
1576.6639,0.209966
1578.5276,0.214036
1580.3912,0.214539
1582.2549,0.217611
1584.1186,0.220538
1585.9822,0.222774
1587.8459,0.224095
1589.7096,0.224500
1591.5733,0.223802
1593.4369,0.222489
1595.3006,0.220437
1597.1643,0.217541
1599.0279,0.214235
1600.8916,0.210986
1602.7553,0.207656
1604.6189,0.204504
1606.4826,0.201928
1608.3463,0.199771
1610.2099,0.197174
1612.0736,0.193268
1613.9373,0.188543
1615.8010,0.183261
1617.6646,0.174539
1619.5283,0.165249
1621.3920,0.158073
1623.2556,0.149527
1625.1193,0.139591
1626.9830,0.129967
1628.8466,0.118674
1630.7103,0.107424
1632.5740,0.098372
1634.4376,0.089757
1636.3013,0.080198
1638.1650,0.074178
1640.0286,0.072643
1641.8923,0.071873
1643.7560,0.072371
1645.6197,0.074692
1647.4833,0.078549
1649.3470,0.080196
1651.2107,0.082411
1653.0743,0.089147
1654.9380,0.094924
1656.8017,0.093858
1658.6653,0.094127
1660.5290,0.094339
1662.3927,0.094209
1664.2563,0.092679
1666.1200,0.090185
1667.9837,0.088193
1669.8474,0.086824
1671.7110,0.085595
1673.5747,0.085886
1675.4384,0.088450
1677.3020,0.091839
1679.1657,0.094488
1681.0294,0.098949
1682.8930,0.104295
1684.7567,0.112083
1686.6204,0.114283
1688.4840,0.112511
1690.3477,0.110395
1692.2114,0.106840
1694.0750,0.102782
1695.9387,0.098221
1697.8024,0.093097
1699.6661,0.089259
1701.5297,0.080494
1703.3934,0.072598
1705.2571,0.063837
1707.1207,0.052734
1708.9844,0.045200
1710.8481,0.039857
1712.7117,0.035476
1714.5754,0.032531
1716.4391,0.030296
1718.3027,0.028963
1720.1664,0.027664
1722.0301,0.026542
1723.8937,0.024577
1725.7574,0.022220
1727.6211,0.019884
1729.4848,0.017949
1731.3484,0.016349
1733.2121,0.015392
1735.0758,0.013997
1736.9394,0.013318
1738.8031,0.013035
1740.6668,0.012794
1742.5304,0.012436
1744.3941,0.012244
1746.2578,0.011803
1748.1214,0.011358
1749.9851,0.010911
1751.8488,0.010833
1753.7125,0.010655
1755.5761,0.010599
1757.4398,0.010535
1759.3035,0.010563
1761.1671,0.010438
1763.0308,0.010468
1764.8945,0.010308
1766.7581,0.010210
1768.6218,0.010102
1770.4855,0.010232
1772.3491,0.010221
1774.2128,0.010198
1776.0765,0.010073
1777.9401,0.010218
1779.8038,0.010132
1781.6675,0.010171
1783.5312,0.010270
1785.3948,0.010437
1787.2585,0.010349
1789.1222,0.010363
1790.9858,0.010512
1792.8495,0.010875
1794.7132,0.010565
1796.5768,0.010384
1798.4405,0.010449
1800.3042,0.010695
1802.1678,0.010793
1804.0315,0.010915
1805.8952,0.010940
1807.7589,0.010965
1809.6225,0.010918
1811.4862,0.011103
1813.3499,0.010950
1815.2135,0.010838
1817.0772,0.010651
1818.9409,0.010741
1820.8045,0.010924
1822.6682,0.011004
1824.5319,0.010905
1826.3955,0.010884
1828.2592,0.010638
1830.1229,0.010517
1831.9865,0.010410
1833.8502,0.010581
1835.7139,0.010701
1837.5776,0.010871
1839.4412,0.010756
1841.3049,0.010618
1843.1686,0.010535
1845.0322,0.010908
1846.8959,0.010810
1848.7596,0.010688
1850.6232,0.010798
1852.4869,0.011149
1854.3506,0.011182
1856.2142,0.011171
1858.0779,0.011155
1859.9416,0.011214
1861.8052,0.011110
1863.6689,0.011211
1865.5326,0.011181
1867.3963,0.011218
1869.2599,0.010980
1871.1236,0.011054
1872.9873,0.011183
1874.8509,0.011258
1876.7146,0.011137
1878.5783,0.011132
1880.4419,0.011052
1882.3056,0.011125
1884.1693,0.011130
1886.0329,0.011414
1887.8966,0.011306
1889.7603,0.010979
1891.6240,0.010850
1893.4876,0.011010
1895.3513,0.010940
1897.2150,0.011137
1899.0786,0.011260
1900.9423,0.011312
1902.8060,0.011077
1904.6696,0.011252
1906.5333,0.011192
1908.3970,0.011277
1910.2606,0.011433
1912.1243,0.011757
1913.9880,0.011377
1915.8516,0.011112
1917.7153,0.011081
1919.5790,0.011038
1921.4427,0.010934
1923.3063,0.010832
1925.1700,0.010498
1927.0337,0.010626
1928.8973,0.010741
1930.7610,0.011080
1932.6247,0.011025
1934.4883,0.011286
1936.3520,0.011178
1938.2157,0.010987
1940.0793,0.010520
1941.9430,0.010678
1943.8067,0.010822
1945.6704,0.010653
1947.5340,0.009568
1949.3977,0.009188
1951.2614,0.008740
1953.1250,0.008709
1954.9887,0.008466
1956.8524,0.008452
1958.7160,0.008326
1960.5797,0.008273
1962.4434,0.008138
1964.3070,0.007520
1966.1707,0.005088
1968.0344,0.003663
1969.8980,0.003482
1971.7617,0.003475
1973.6254,0.004040
1975.4891,0.005661
1977.3527,0.005048
1979.2164,0.004486
1981.0801,0.005737
1982.9437,0.006860
1984.8074,0.007221
1986.6711,0.007272
1988.5347,0.006879
1990.3984,0.007069
1992.2621,0.007683
1994.1257,0.008130
1995.9894,0.007962
1997.8531,0.008297
1999.7167,0.007943
2001.5804,0.007925
2003.4441,0.007762
2005.3078,0.008094
2007.1714,0.006735
2009.0351,0.006362
2010.8988,0.006873
2012.7624,0.007399
2014.6261,0.005860
2016.4898,0.005322
2018.3534,0.005271
2020.2171,0.005912
2022.0808,0.006013
2023.9444,0.007368
2025.8081,0.007591
2027.6718,0.006316
2029.5355,0.004518
2031.3991,0.005454
2033.2628,0.006321
2035.1265,0.006871
2036.9901,0.006282
2038.8538,0.006478
2040.7175,0.007464
2042.5811,0.009578
2044.4448,0.009403
2046.3085,0.008351
2048.1721,0.008967
2050.0358,0.010563
2051.8995,0.010943
2053.7631,0.010956
2055.6268,0.011006
2057.4905,0.011580
2059.3542,0.011447
2061.2178,0.012192
2063.0815,0.012564
2064.9452,0.012139
2066.8088,0.011974
2068.6725,0.012682
2070.5362,0.013057
2072.3998,0.013413
2074.2635,0.013794
2076.1272,0.013950
2077.9908,0.013891
2079.8545,0.014311
2081.7182,0.014519
2083.5819,0.015092
2085.4455,0.015093
2087.3092,0.015331
2089.1729,0.015110
2091.0365,0.014470
2092.9002,0.014723
2094.7639,0.014955
2096.6275,0.014400
2098.4912,0.014799
2100.3549,0.014889
2102.2185,0.014881
2104.0822,0.015346
2105.9459,0.016030
2107.8095,0.015787
2109.6732,0.015561
2111.5369,0.015349
2113.4006,0.015607
2115.2642,0.015651
2117.1279,0.015535
2118.9916,0.015469
2120.8552,0.015384
2122.7189,0.015747
2124.5826,0.016104
2126.4462,0.015771
2128.3099,0.015359
2130.1736,0.014651
2132.0372,0.014480
2133.9009,0.014095
2135.7646,0.013918
2137.6282,0.013192
2139.4919,0.013296
2141.3556,0.013554
2143.2193,0.013050
2145.0829,0.012041
2146.9466,0.011104
2148.8103,0.011129
2150.6739,0.011020
2152.5376,0.009781
2154.4013,0.008887
2156.2649,0.007144
2158.1286,0.004867
2159.9923,0.004651
2161.8559,0.007965
2163.7196,0.009002
2165.5833,0.008451
2167.4470,0.008620
2169.3106,0.010552
2171.1743,0.011010
2173.0380,0.010610
2174.9016,0.009266
2176.7653,0.008892
2178.6290,0.008941
2180.4926,0.010083
2182.3563,0.011237
2184.2200,0.012667
2186.0836,0.013018
2187.9473,0.012977
2189.8110,0.012136
2191.6746,0.011767
2193.5383,0.011903
2195.4020,0.012523
2197.2657,0.012760
2199.1293,0.012911
2200.9930,0.014163
2202.8567,0.014882
2204.7203,0.014016
2206.5840,0.014111
2208.4477,0.014781
2210.3113,0.015103
2212.1750,0.014554
2214.0387,0.014421
2215.9023,0.014843
2217.7660,0.016099
2219.6297,0.016027
2221.4934,0.015359
2223.3570,0.015924
2225.2207,0.016535
2227.0844,0.016075
2228.9480,0.016336
2230.8117,0.016451
2232.6754,0.016217
2234.5390,0.016681
2236.4027,0.018122
2238.2664,0.018524
2240.1300,0.018244
2241.9937,0.018058
2243.8574,0.018024
2245.7210,0.017570
2247.5847,0.018046
2249.4484,0.018709
2251.3121,0.019092
2253.1757,0.019261
2255.0394,0.019810
2256.9031,0.019997
2258.7667,0.019841
2260.6304,0.019461
2262.4941,0.018851
2264.3577,0.019263
2266.2214,0.020420
2268.0851,0.021252
2269.9487,0.020964
2271.8124,0.021033
2273.6761,0.022032
2275.5397,0.022442
2277.4034,0.022281
2279.2671,0.022576
2281.1308,0.023367
2282.9944,0.023716
2284.8581,0.023452
2286.7218,0.023417
2288.5854,0.023685
2290.4491,0.023935
2292.3128,0.023819
2294.1764,0.023575
2296.0401,0.023608
2297.9038,0.023615
2299.7674,0.023757
2301.6311,0.024051
2303.4948,0.024368
2305.3585,0.024358
2307.2221,0.024567
2309.0858,0.024423
2310.9495,0.024249
2312.8131,0.024285
2314.6768,0.024216
2316.5405,0.024035
2318.4041,0.024448
2320.2678,0.024504
2322.1315,0.024205
2323.9951,0.024505
2325.8588,0.024331
2327.7225,0.023311
2329.5861,0.023076
2331.4498,0.023337
2333.3135,0.023193
2335.1772,0.022997
2337.0408,0.022951
2338.9045,0.023030
2340.7682,0.023467
2342.6318,0.023555
2344.4955,0.023732
2346.3592,0.023803
2348.2228,0.023198
2350.0865,0.022480
2351.9502,0.022203
2353.8138,0.022212
2355.6775,0.021794
2357.5412,0.022088
2359.4049,0.022712
2361.2685,0.022445
2363.1322,0.022433
2364.9959,0.022789
2366.8595,0.022911
2368.7232,0.023234
2370.5869,0.023672
2372.4505,0.024191
2374.3142,0.024595
2376.1779,0.024421
2378.0415,0.024210
2379.9052,0.024439
2381.7689,0.024490
2383.6325,0.024437
2385.4962,0.024431
2387.3599,0.024268
2389.2236,0.024176
2391.0872,0.024260
2392.9509,0.024422
2394.8146,0.024521
2396.6782,0.024797
2398.5419,0.024806
2400.4056,0.024910
2402.2692,0.025093
2404.1329,0.025325
2405.9966,0.025315
2407.8602,0.025178
2409.7239,0.024940
2411.5876,0.024942
2413.4512,0.025280
2415.3149,0.025446
2417.1786,0.025469
2419.0423,0.025672
2420.9059,0.025563
2422.7696,0.025269
2424.6333,0.025607
2426.4969,0.025925
2428.3606,0.025739
2430.2243,0.025871
2432.0879,0.025925
2433.9516,0.025992
2435.8153,0.026082
2437.6789,0.026163
2439.5426,0.026255
2441.4063,0.026406
2443.2700,0.026406
2445.1336,0.026063
2446.9973,0.025597
2448.8610,0.025363
2450.7246,0.025779
2452.5883,0.026205
2454.4520,0.026189
2456.3156,0.026037
2458.1793,0.025654
2460.0430,0.025382
2461.9066,0.025513
2463.7703,0.025561
2465.6340,0.025475
2467.4976,0.025577
2469.3613,0.025646
2471.2250,0.025803
2473.0887,0.025683
2474.9523,0.025629
2476.8160,0.025863
2478.6797,0.025941
2480.5433,0.025942
2482.4070,0.026016
2484.2707,0.026002
2486.1343,0.026197
2487.9980,0.026399
2489.8617,0.026404
2491.7253,0.026700
2493.5890,0.026990
2495.4527,0.027032
2497.3164,0.027217
2499.1800,0.027257
2501.0437,0.026915
2502.9074,0.026918
2504.7710,0.027161
2506.6347,0.026987
2508.4984,0.026957
2510.3620,0.027247
2512.2257,0.027591
2514.0894,0.027860
2515.9530,0.027970
2517.8167,0.028021
2519.6804,0.027940
2521.5440,0.027915
2523.4077,0.028064
2525.2714,0.028117
2527.1351,0.028323
2528.9987,0.028381
2530.8624,0.028462
2532.7261,0.028142
2534.5897,0.028143
2536.4534,0.028213
2538.3171,0.028097
2540.1807,0.028124
2542.0444,0.028251
2543.9081,0.028305
2545.7717,0.028246
2547.6354,0.028269
2549.4991,0.028386
2551.3627,0.028445
2553.2264,0.028558
2555.0901,0.028556
2556.9538,0.028798
2558.8174,0.029007
2560.6811,0.029078
2562.5448,0.028991
2564.4084,0.029177
2566.2721,0.029376
2568.1358,0.029458
2569.9994,0.029614
2571.8631,0.030037
2573.7268,0.030098
2575.5904,0.029962
2577.4541,0.030120
2579.3178,0.030383
2581.1815,0.030459
2583.0451,0.030665
2584.9088,0.030779
2586.7725,0.030667
2588.6361,0.030786
2590.4998,0.031190
2592.3635,0.031193
2594.2271,0.031450
2596.0908,0.031821
2597.9545,0.031697
2599.8181,0.031873
2601.6818,0.032196
2603.5455,0.032319
2605.4091,0.032392
2607.2728,0.032675
2609.1365,0.033065
2611.0002,0.032942
2612.8638,0.032712
2614.7275,0.032839
2616.5912,0.032970
2618.4548,0.033146
2620.3185,0.033668
2622.1822,0.034048
2624.0458,0.034272
2625.9095,0.034629
2627.7732,0.035077
2629.6368,0.035191
2631.5005,0.035403
2633.3642,0.035794
2635.2279,0.036255
2637.0915,0.036550
2638.9552,0.036654
2640.8189,0.036825
2642.6825,0.036939
2644.5462,0.037185
2646.4099,0.037304
2648.2735,0.037496
2650.1372,0.037782
2652.0009,0.037854
2653.8645,0.037754
2655.7282,0.037928
2657.5919,0.038114
2659.4555,0.038141
2661.3192,0.038235
2663.1829,0.038370
2665.0466,0.038479
2666.9102,0.038598
2668.7739,0.038750
2670.6376,0.038821
2672.5012,0.038987
2674.3649,0.039279
2676.2286,0.039471
2678.0922,0.039593
2679.9559,0.039925
2681.8196,0.040452
2683.6832,0.040788
2685.5469,0.040883
2687.4106,0.040893
2689.2742,0.041016
2691.1379,0.041343
2693.0016,0.041633
2694.8653,0.041890
2696.7289,0.042058
2698.5926,0.042322
2700.4563,0.042840
2702.3199,0.043293
2704.1836,0.043487
2706.0473,0.043740
2707.9109,0.044262
2709.7746,0.044735
2711.6383,0.045139
2713.5019,0.045266
2715.3656,0.045538
2717.2293,0.046015
2719.0930,0.046356
2720.9566,0.046786
2722.8203,0.047201
2724.6840,0.047842
2726.5476,0.048476
2728.4113,0.048884
2730.2750,0.049321
2732.1386,0.049627
2734.0023,0.050091
2735.8660,0.050579
2737.7296,0.051217
2739.5933,0.051837
2741.4570,0.052364
2743.3206,0.052846
2745.1843,0.053374
2747.0480,0.054076
2748.9117,0.054857
2750.7753,0.055507
2752.6390,0.056122
2754.5027,0.056806
2756.3663,0.057249
2758.2300,0.057723
2760.0937,0.058419
2761.9573,0.059095
2763.8210,0.059841
2765.6847,0.060444
2767.5483,0.061191
2769.4120,0.061848
2771.2757,0.062540
2773.1394,0.063262
2775.0030,0.064233
2776.8667,0.065077
2778.7304,0.065464
2780.5940,0.065683
2782.4577,0.066120
2784.3214,0.066220
2786.1850,0.066006
2788.0487,0.065656
2789.9124,0.065352
2791.7760,0.064648
2793.6397,0.063895
2795.5034,0.062886
2797.3670,0.062193
2799.2307,0.062043
2801.0944,0.061597
2802.9581,0.060806
2804.8217,0.060431
2806.6854,0.059933
2808.5491,0.059598
2810.4127,0.059246
2812.2764,0.058940
2814.1401,0.058973
2816.0037,0.058839
2817.8674,0.058647
2819.7311,0.059160
2821.5947,0.059573
2823.4584,0.059600
2825.3221,0.059511
2827.1857,0.059351
2829.0494,0.058735
2830.9131,0.058170
2832.7768,0.057800
2834.6404,0.057789
2836.5041,0.058013
2838.3678,0.058601
2840.2314,0.059090
2842.0951,0.059246
2843.9588,0.059451
2845.8224,0.059940
2847.6861,0.060503
2849.5498,0.061209
2851.4134,0.061898
2853.2771,0.062723
2855.1408,0.063535
2857.0045,0.064171
2858.8681,0.064869
2860.7318,0.065623
2862.5955,0.066292
2864.4591,0.066429
2866.3228,0.066453
2868.1865,0.066831
2870.0501,0.067098
2871.9138,0.067360
2873.7775,0.067866
2875.6411,0.068592
2877.5048,0.069074
2879.3685,0.069519
2881.2321,0.070118
2883.0958,0.070396
2884.9595,0.071029
2886.8232,0.071734
2888.6868,0.071922
2890.5505,0.072539
2892.4142,0.073348
2894.2778,0.073837
2896.1415,0.074201
2898.0052,0.074677
2899.8688,0.074778
2901.7325,0.074746
2903.5962,0.074707
2905.4598,0.075004
2907.3235,0.075411
2909.1872,0.075812
2911.0509,0.076232
2912.9145,0.076930
2914.7782,0.077896
2916.6419,0.078712
2918.5055,0.079345
2920.3692,0.080209
2922.2329,0.080878
2924.0965,0.081834
2925.9602,0.082755
2927.8239,0.083187
2929.6875,0.083556
2931.5512,0.084357
2933.4149,0.085067
2935.2785,0.085970
2937.1422,0.086722
2939.0059,0.087124
2940.8696,0.087304
2942.7332,0.087745
2944.5969,0.088041
2946.4606,0.088315
2948.3242,0.088576
2950.1879,0.088987
2952.0516,0.089482
2953.9152,0.090019
2955.7789,0.090519
2957.6426,0.091187
2959.5062,0.091740
2961.3699,0.092467
2963.2336,0.093448
2965.0972,0.094361
2966.9609,0.095286
2968.8246,0.096544
2970.6883,0.097639
2972.5519,0.098450
2974.4156,0.098929
2976.2793,0.099677
2978.1429,0.100541
2980.0066,0.101070
2981.8703,0.101149
2983.7339,0.101397
2985.5976,0.101783
2987.4613,0.102471
2989.3249,0.103295
2991.1886,0.104275
2993.0523,0.104984
2994.9160,0.105559
2996.7796,0.106615
2998.6433,0.107721
3000.5070,0.108273
3002.3706,0.109369
3004.2343,0.110542
3006.0980,0.111363
3007.9616,0.112121
3009.8253,0.113200
3011.6890,0.114152
3013.5526,0.115146
3015.4163,0.116046
3017.2800,0.116612
3019.1436,0.116543
3021.0073,0.117075
3022.8710,0.117734
3024.7347,0.118326
3026.5983,0.118908
3028.4620,0.119445
3030.3257,0.119728
3032.1893,0.120315
3034.0530,0.120885
3035.9167,0.121290
3037.7803,0.121401
3039.6440,0.121626
3041.5077,0.121924
3043.3713,0.122644
3045.2350,0.123097
3047.0987,0.123405
3048.9624,0.123859
3050.8260,0.124353
3052.6897,0.124313
3054.5534,0.124285
3056.4170,0.124875
3058.2807,0.125637
3060.1444,0.125464
3062.0080,0.125145
3063.8717,0.125483
3065.7354,0.126060
3067.5990,0.126142
3069.4627,0.126008
3071.3264,0.125389
3073.1900,0.125087
3075.0537,0.124824
3076.9174,0.124583
3078.7811,0.124235
3080.6447,0.124198
3082.5084,0.123950
3084.3721,0.123565
3086.2357,0.122808
3088.0994,0.121774
3089.9631,0.120766
3091.8267,0.120446
3093.6904,0.119785
3095.5541,0.118622
3097.4177,0.117061
3099.2814,0.116013
3101.1451,0.115416
3103.0087,0.114808
3104.8724,0.113299
3106.7361,0.111631
3108.5998,0.110531
3110.4634,0.109868
3112.3271,0.108846
3114.1908,0.107674
3116.0544,0.106317
3117.9181,0.105580
3119.7818,0.104847
3121.6454,0.104047
3123.5091,0.102939
3125.3728,0.101358
3127.2364,0.099848
3129.1001,0.098986
3130.9638,0.098657
3132.8275,0.097993
3134.6911,0.096802
3136.5548,0.096074
3138.4185,0.095565
3140.2821,0.095083
3142.1458,0.094280
3144.0095,0.093518
3145.8731,0.093116
3147.7368,0.092797
3149.6005,0.091882
3151.4641,0.091191
3153.3278,0.091138
3155.1915,0.091351
3157.0551,0.090598
3158.9188,0.089563
3160.7825,0.088597
3162.6462,0.087826
3164.5098,0.087367
3166.3735,0.087079
3168.2372,0.086571
3170.1008,0.085700
3171.9645,0.084867
3173.8282,0.084658
3175.6918,0.084414
3177.5555,0.083928
3179.4192,0.083310
3181.2828,0.083310
3183.1465,0.083303
3185.0102,0.083605
3186.8739,0.083214
3188.7375,0.082598
3190.6012,0.082466
3192.4649,0.082568
3194.3285,0.082640
3196.1922,0.082556
3198.0559,0.082138
3199.9195,0.082090
3201.7832,0.082334
3203.6469,0.082644
3205.5105,0.082831
3207.3742,0.083464
3209.2379,0.084240
3211.1015,0.083995
3212.9652,0.082954
3214.8289,0.082246
3216.6926,0.082560
3218.5562,0.083553
3220.4199,0.083452
3222.2836,0.083487
3224.1472,0.083984
3226.0109,0.084417
3227.8746,0.084657
3229.7382,0.084605
3231.6019,0.084532
3233.4656,0.085378
3235.3292,0.086401
3237.1929,0.086039
3239.0566,0.085819
3240.9202,0.086593
3242.7839,0.086879
3244.6476,0.087494
3246.5113,0.087742
3248.3749,0.088035
3250.2386,0.088678
3252.1023,0.088863
3253.9659,0.089014
3255.8296,0.089686
3257.6933,0.090048
3259.5569,0.090325
3261.4206,0.090529
3263.2843,0.090795
3265.1479,0.091155
3267.0116,0.091476
3268.8753,0.091341
3270.7390,0.091518
3272.6026,0.092049
3274.4663,0.092078
3276.3300,0.091550
3278.1936,0.091325
3280.0573,0.090743
3281.9210,0.090393
3283.7846,0.089925
3285.6483,0.089330
3287.5120,0.088339
3289.3756,0.087271
3291.2393,0.086393
3293.1030,0.086370
3294.9666,0.086227
3296.8303,0.085385
3298.6940,0.083902
3300.5577,0.082437
3302.4213,0.080916
3304.2850,0.080415
3306.1487,0.080253
3308.0123,0.079642
3309.8760,0.078868
3311.7397,0.078647
3313.6033,0.078335
3315.4670,0.077760
3317.3307,0.077829
3319.1943,0.077956
3321.0580,0.078119
3322.9217,0.078647
3324.7854,0.079244
3326.6490,0.079731
3328.5127,0.079915
3330.3764,0.079445
3332.2400,0.079141
3334.1037,0.079533
3335.9674,0.078791
3337.8310,0.077744
3339.6947,0.077141
3341.5584,0.076208
3343.4220,0.074542
3345.2857,0.073019
3347.1494,0.071135
3349.0130,0.069348
3350.8767,0.067806
3352.7404,0.067326
3354.6041,0.067197
3356.4677,0.065619
3358.3314,0.063026
3360.1951,0.061662
3362.0587,0.061735
3363.9224,0.061251
3365.7861,0.059955
3367.6497,0.060061
3369.5134,0.060773
3371.3771,0.060617
3373.2407,0.059834
3375.1044,0.058812
3376.9681,0.058632
3378.8317,0.059340
3380.6954,0.059963
3382.5591,0.061063
3384.4228,0.061851
3386.2864,0.060959
3388.1501,0.060729
3390.0138,0.062136
3391.8774,0.063433
3393.7411,0.064191
3395.6048,0.064271
3397.4684,0.063706
3399.3321,0.063262
3401.1958,0.064046
3403.0594,0.064696
3404.9231,0.063119
3406.7868,0.059500
3408.6505,0.057297
3410.5141,0.056866
3412.3778,0.055303
3414.2415,0.052854
3416.1051,0.051447
3417.9688,0.049993
3419.8325,0.048060
3421.6961,0.046272
3423.5598,0.044269
3425.4235,0.042584
3427.2871,0.041960
3429.1508,0.040636
3431.0145,0.038517
3432.8781,0.037357
3434.7418,0.036831
3436.6055,0.035745
3438.4692,0.034495
3440.3328,0.033932
3442.1965,0.033266
3444.0602,0.032070
3445.9238,0.030725
3447.7875,0.029441
3449.6512,0.029190
3451.5148,0.029335
3453.3785,0.029128
3455.2422,0.028023
3457.1058,0.026760
3458.9695,0.026861
3460.8332,0.027224
3462.6969,0.026769
3464.5605,0.026161
3466.4242,0.025392
3468.2879,0.025283
3470.1515,0.025194
3472.0152,0.024319
3473.8789,0.023459
3475.7425,0.022649
3477.6062,0.021431
3479.4699,0.020674
3481.3335,0.020268
3483.1972,0.020352
3485.0609,0.021089
3486.9245,0.021221
3488.7882,0.020755
3490.6519,0.020536
3492.5156,0.019997
3494.3792,0.019192
3496.2429,0.018701
3498.1066,0.017650
3499.9702,0.016841
3501.8339,0.017295
3503.6976,0.017388
3505.5612,0.016310
3507.4249,0.015310
3509.2886,0.015395
3511.1522,0.016051
3513.0159,0.015964
3514.8796,0.015263
3516.7432,0.014796
3518.6069,0.014678
3520.4706,0.014390
3522.3343,0.013583
3524.1979,0.011481
3526.0616,0.011247
3527.9253,0.012605
3529.7889,0.012545
3531.6526,0.012079
3533.5163,0.011727
3535.3799,0.011364
3537.2436,0.011046
3539.1073,0.011114
3540.9709,0.011199
3542.8346,0.010705
3544.6983,0.010311
3546.5620,0.010158
3548.4256,0.010146
3550.2893,0.009994
3552.1530,0.009483
3554.0166,0.009602
3555.8803,0.010053
3557.7440,0.009992
3559.6076,0.009518
3561.4713,0.009076
3563.3350,0.008513
3565.1986,0.008747
3567.0623,0.009608
3568.9260,0.008819
3570.7896,0.008118
3572.6533,0.008601
3574.5170,0.009469
3576.3807,0.010179
3578.2443,0.009032
3580.1080,0.007363
3581.9717,0.007360
3583.8353,0.008153
3585.6990,0.009137
3587.5627,0.008605
3589.4263,0.007139
3591.2900,0.007864
3593.1537,0.008835
3595.0173,0.008357
3596.8810,0.007331
3598.7447,0.007534
3600.6084,0.008432
3602.4720,0.008836
3604.3357,0.008851
3606.1994,0.008961
3608.0630,0.008696
3609.9267,0.007690
3611.7904,0.007017
3613.6540,0.007332
3615.5177,0.007851
3617.3814,0.008026
3619.2450,0.007466
3621.1087,0.006804
3622.9724,0.007490
3624.8360,0.008553
3626.6997,0.008829
3628.5634,0.008405
3630.4271,0.007662
3632.2907,0.006634
3634.1544,0.006989
3636.0181,0.008353
3637.8817,0.009104
3639.7454,0.008859
3641.6091,0.008561
3643.4727,0.008409
3645.3364,0.008082
3647.2001,0.007672
3649.0637,0.007389
3650.9274,0.007332
3652.7911,0.007401
3654.6547,0.007989
3656.5184,0.009261
3658.3821,0.009904
3660.2458,0.009284
3662.1094,0.008832
3663.9731,0.008657
3665.8368,0.008854
3667.7004,0.008775
3669.5641,0.008765
3671.4278,0.009640
3673.2914,0.008978
3675.1551,0.008027
3677.0188,0.007647
3678.8824,0.007656
3680.7461,0.008295
3682.6098,0.008476
3684.4735,0.008724
3686.3371,0.008877
3688.2008,0.008580
3690.0645,0.008921
3691.9281,0.009396
3693.7918,0.009332
3695.6555,0.009452
3697.5191,0.009422
3699.3828,0.009230
3701.2465,0.009011
3703.1101,0.008544
3704.9738,0.008873
3706.8375,0.009103
3708.7011,0.008576
3710.5648,0.008541
3712.4285,0.009022
3714.2922,0.009206
3716.1558,0.009554
3718.0195,0.010115
3719.8832,0.010023
3721.7468,0.009060
3723.6105,0.008465
3725.4742,0.009095
3727.3378,0.009420
3729.2015,0.009329
3731.0652,0.009781
3732.9288,0.009430
3734.7925,0.008001
3736.6562,0.007391
3738.5199,0.007741
3740.3835,0.008210
3742.2472,0.008339
3744.1109,0.008100
3745.9745,0.007631
3747.8382,0.008136
3749.7019,0.008933
3751.5655,0.008559
3753.4292,0.008662
3755.2929,0.009515
3757.1565,0.009278
3759.0202,0.009237
3760.8839,0.010138
3762.7475,0.010431
3764.6112,0.010041
3766.4749,0.010168
3768.3386,0.010582
3770.2022,0.010758
3772.0659,0.010656
3773.9296,0.010528
3775.7932,0.010609
3777.6569,0.010384
3779.5206,0.010507
3781.3842,0.011235
3783.2479,0.011246
3785.1116,0.011037
3786.9752,0.011075
3788.8389,0.011005
3790.7026,0.010928
3792.5662,0.010527
3794.4299,0.010302
3796.2936,0.010769
3798.1573,0.010978
3800.0209,0.010511
3801.8846,0.010311
3803.7483,0.010550
3805.6119,0.010562
3807.4756,0.010529
3809.3393,0.010716
3811.2029,0.011034
3813.0666,0.011072
3814.9303,0.010728
3816.7939,0.010401
3818.6576,0.010784
3820.5213,0.011135
3822.3850,0.011086
3824.2486,0.011114
3826.1123,0.011084
3827.9760,0.011341
3829.8396,0.011569
3831.7033,0.010960
3833.5670,0.010130
3835.4306,0.009759
3837.2943,0.009672
3839.1580,0.009720
3841.0216,0.010012
3842.8853,0.010940
3844.7490,0.011371
3846.6126,0.011054
3848.4763,0.011083
3850.3400,0.011310
3852.2037,0.010819
3854.0673,0.009444
3855.9310,0.009543
3857.7947,0.011249
3859.6583,0.012055
3861.5220,0.012030
3863.3857,0.011577
3865.2493,0.011323
3867.1130,0.011492
3868.9767,0.011245
3870.8403,0.010325
3872.7040,0.010103
3874.5677,0.010987
3876.4314,0.011834
3878.2950,0.011819
3880.1587,0.011309
3882.0224,0.011173
3883.8860,0.011698
3885.7497,0.012021
3887.6134,0.011924
3889.4770,0.011978
3891.3407,0.011930
3893.2044,0.012010
3895.0680,0.012202
3896.9317,0.011964
3898.7954,0.011539
3900.6590,0.011351
3902.5227,0.011841
3904.3864,0.012117
3906.2501,0.011909
3908.1137,0.012357
3909.9774,0.012678
3911.8411,0.012451
3913.7047,0.012293
3915.5684,0.012288
3917.4321,0.012308
3919.2957,0.012360
3921.1594,0.012266
3923.0231,0.012385
3924.8867,0.012667
3926.7504,0.012655
3928.6141,0.012718
3930.4777,0.012982
3932.3414,0.013001
3934.2051,0.012782
3936.0688,0.012497
3937.9324,0.012635
3939.7961,0.013018
3941.6598,0.012868
3943.5234,0.012611
3945.3871,0.012776
3947.2508,0.013034
3949.1144,0.012862
3950.9781,0.012934
3952.8418,0.012754
3954.7054,0.012308
3956.5691,0.012623
3958.4328,0.013075
3960.2965,0.013237
3962.1601,0.013388
3964.0238,0.013383
3965.8875,0.013270
3967.7511,0.013083
3969.6148,0.013097
3971.4785,0.013296
3973.3421,0.013373
3975.2058,0.013286
3977.0695,0.013345
3978.9331,0.013571
3980.7968,0.013787
3982.6605,0.013378
3984.5241,0.012775
3986.3878,0.013268
3988.2515,0.013650
3990.1152,0.012885
3991.9788,0.012605
3993.8425,0.013358
3995.7062,0.013963
3997.5698,0.013890
3999.4335,0.013432
