Wavenumber,Intensity
650.4205,0.256226
652.2841,0.252938
654.1478,0.246583
656.0115,0.239262
657.8751,0.236497
659.7388,0.232029
661.6025,0.228643
663.4661,0.226959
665.3298,0.224766
667.1935,0.224959
669.0571,0.225672
670.9208,0.222392
672.7845,0.221702
674.6481,0.220552
676.5118,0.220000
678.3755,0.220362
680.2392,0.221872
682.1028,0.222231
683.9665,0.222500
685.8302,0.221058
687.6938,0.220918
689.5575,0.222267
691.4212,0.222505
693.2848,0.221404
695.1485,0.222514
697.0122,0.224432
698.8758,0.226103
700.7395,0.226015
702.6032,0.225480
704.4669,0.221887
706.3305,0.215614
708.1942,0.206830
710.0579,0.196410
711.9215,0.186009
713.7852,0.176355
715.6489,0.167132
717.5125,0.159559
719.3762,0.152352
721.2399,0.145870
723.1035,0.139648
724.9672,0.133736
726.8309,0.128127
728.6945,0.123176
730.5582,0.118879
732.4219,0.114328
734.2856,0.109485
736.1492,0.105847
738.0129,0.104233
739.8766,0.104805
741.7402,0.107505
743.6039,0.110543
745.4676,0.111431
747.3312,0.110860
749.1949,0.110027
751.0586,0.108843
752.9222,0.107581
754.7859,0.106465
756.6496,0.105348
758.5132,0.104264
760.3769,0.103098
762.2406,0.102361
764.1043,0.101933
765.9679,0.101899
767.8316,0.101560
769.6953,0.101362
771.5589,0.101707
773.4226,0.102295
775.2863,0.102940
777.1499,0.103651
779.0136,0.104376
780.8773,0.105700
782.7409,0.107417
784.6046,0.109036
786.4683,0.111029
788.3320,0.113533
790.1956,0.115772
792.0593,0.118168
793.9230,0.120806
795.7866,0.123263
797.6503,0.125415
799.5140,0.127317
801.3776,0.128522
803.2413,0.129241
805.1050,0.128973
806.9686,0.127384
808.8323,0.124863
810.6960,0.121582
812.5596,0.117721
814.4233,0.113746
816.2870,0.109733
818.1507,0.105812
820.0143,0.102627
821.8780,0.100504
823.7417,0.099343
825.6053,0.099466
827.4690,0.101472
829.3327,0.102306
831.1963,0.094842
833.0600,0.080494
834.9237,0.068882
836.7873,0.063501
838.6510,0.061641
840.5147,0.060841
842.3784,0.060321
844.2420,0.060080
846.1057,0.059982
847.9694,0.059755
849.8330,0.059350
851.6967,0.059100
853.5604,0.059021
855.4240,0.059008
857.2877,0.058936
859.1514,0.058731
861.0150,0.058609
862.8787,0.058376
864.7424,0.058233
866.6060,0.058151
868.4697,0.058151
870.3334,0.058136
872.1971,0.058127
874.0607,0.058488
875.9244,0.058721
877.7881,0.058594
879.6517,0.058791
881.5154,0.059380
883.3791,0.059963
885.2427,0.060324
887.1064,0.060494
888.9701,0.060776
890.8337,0.061503
892.6974,0.062628
894.5611,0.063796
896.4247,0.064842
898.2884,0.066281
900.1521,0.068224
902.0158,0.070844
903.8794,0.074207
905.7431,0.078746
907.6068,0.084437
909.4704,0.090928
911.3341,0.098685
913.1978,0.107403
915.0614,0.110666
916.9251,0.099650
918.7888,0.079991
920.6524,0.065461
922.5161,0.059403
924.3798,0.057657
926.2435,0.057433
928.1071,0.057879
929.9708,0.058519
931.8345,0.059303
933.6981,0.060282
935.5618,0.061259
937.4255,0.062058
939.2891,0.062678
941.1528,0.063290
943.0165,0.064052
944.8801,0.064803
946.7438,0.065604
948.6075,0.066492
950.4711,0.067475
952.3348,0.068535
954.1985,0.069661
956.0622,0.070918
957.9258,0.072210
959.7895,0.073405
961.6532,0.074695
963.5168,0.076316
965.3805,0.078327
967.2442,0.080768
969.1078,0.083850
970.9715,0.087204
972.8352,0.091175
974.6988,0.097797
976.5625,0.109372
978.4262,0.129090
980.2899,0.156358
982.1535,0.165984
984.0172,0.133092
985.8809,0.091515
987.7445,0.073144
989.6082,0.070478
991.4719,0.071401
993.3355,0.072884
995.1992,0.074519
997.0629,0.076049
998.9265,0.077498
1000.7902,0.078890
1002.6539,0.080246
1004.5175,0.081627
1006.3812,0.083040
1008.2449,0.084379
1010.1086,0.085538
1011.9722,0.086712
1013.8359,0.088006
1015.6996,0.089093
1017.5632,0.089945
1019.4269,0.090791
1021.2906,0.091766
1023.1542,0.092924
1025.0179,0.094256
1026.8816,0.095706
1028.7452,0.097348
1030.6089,0.099125
1032.4726,0.101095
1034.3362,0.103437
1036.1999,0.106290
1038.0636,0.109664
1039.9273,0.113472
1041.7909,0.117757
1043.6546,0.122601
1045.5183,0.127652
1047.3819,0.131412
1049.2456,0.130992
1051.1093,0.124136
1052.9729,0.112715
1054.8366,0.101821
1056.7003,0.094876
1058.5639,0.091965
1060.4276,0.091548
1062.2913,0.092097
1064.1550,0.092965
1066.0186,0.094330
1067.8823,0.096221
1069.7460,0.098414
1071.6096,0.100718
1073.4733,0.103131
1075.3370,0.105640
1077.2006,0.108280
1079.0643,0.111097
1080.9280,0.114156
1082.7916,0.117535
1084.6553,0.121175
1086.5190,0.125161
1088.3826,0.129756
1090.2463,0.135025
1092.1100,0.140960
1093.9737,0.147564
1095.8373,0.154800
1097.7010,0.162771
1099.5647,0.171368
1101.4283,0.180049
1103.2920,0.187723
1105.1557,0.192718
1107.0193,0.193044
1108.8830,0.186738
1110.7467,0.173867
1112.6103,0.157393
1114.4740,0.140610
1116.3377,0.125634
1118.2014,0.113564
1120.0650,0.104735
1121.9287,0.098858
1123.7924,0.095031
1125.6560,0.092210
1127.5197,0.089605
1129.3834,0.086843
1131.2470,0.084172
1133.1107,0.081882
1134.9744,0.080106
1136.8380,0.078909
1138.7017,0.078280
1140.5654,0.078176
1142.4290,0.078279
1144.2927,0.078335
1146.1564,0.078416
1148.0201,0.078723
1149.8837,0.079193
1151.7474,0.079791
1153.6111,0.080624
1155.4747,0.081765
1157.3384,0.083167
1159.2021,0.084753
1161.0657,0.086587
1162.9294,0.088901
1164.7931,0.091975
1166.6567,0.096018
1168.5204,0.100827
1170.3841,0.105633
1172.2477,0.108835
1174.1114,0.108195
1175.9751,0.103156
1177.8388,0.096227
1179.7024,0.090464
1181.5661,0.087111
1183.4298,0.085726
1185.2934,0.085406
1187.1571,0.085473
1189.0208,0.085517
1190.8844,0.085475
1192.7481,0.085358
1194.6118,0.085174
1196.4754,0.085145
1198.3391,0.085368
1200.2028,0.085701
1202.0665,0.086053
1203.9301,0.086424
1205.7938,0.086830
1207.6575,0.087247
1209.5211,0.087747
1211.3848,0.088372
1213.2485,0.088883
1215.1121,0.089320
1216.9758,0.089901
1218.8395,0.090592
1220.7031,0.091222
1222.5668,0.091767
1224.4305,0.092286
1226.2941,0.092798
1228.1578,0.093335
1230.0215,0.093856
1231.8852,0.094374
1233.7488,0.094999
1235.6125,0.095741
1237.4762,0.096530
1239.3398,0.097266
1241.2035,0.097931
1243.0672,0.098628
1244.9308,0.099324
1246.7945,0.100085
1248.6582,0.100962
1250.5218,0.101856
1252.3855,0.102800
1254.2492,0.103739
1256.1129,0.104644
1257.9765,0.105687
1259.8402,0.107067
1261.7039,0.108587
1263.5675,0.109903
1265.4312,0.110997
1267.2949,0.111657
1269.1585,0.111712
1271.0222,0.111496
1272.8859,0.111503
1274.7495,0.111975
1276.6132,0.112969
1278.4769,0.114378
1280.3405,0.116136
1282.2042,0.118241
1284.0679,0.120669
1285.9316,0.123530
1287.7952,0.126888
1289.6589,0.130625
1291.5226,0.134825
1293.3862,0.139858
1295.2499,0.145917
1297.1136,0.153099
1298.9772,0.161599
1300.8409,0.171670
1302.7046,0.182028
1304.5682,0.188648
1306.4319,0.185943
1308.2956,0.169225
1310.1592,0.141107
1312.0229,0.113465
1313.8866,0.096214
1315.7503,0.090330
1317.6139,0.090868
1319.4776,0.093982
1321.3413,0.097534
1323.2049,0.101052
1325.0686,0.104750
1326.9323,0.108280
1328.7959,0.111694
1330.6596,0.114938
1332.5233,0.117423
1334.3869,0.118903
1336.2506,0.119990
1338.1143,0.121841
1339.9780,0.124411
1341.8416,0.125465
1343.7053,0.125516
1345.5690,0.126378
1347.4326,0.127818
1349.2963,0.129548
1351.1600,0.131588
1353.0236,0.134136
1354.8873,0.137378
1356.7510,0.140558
1358.6146,0.143315
1360.4783,0.147110
1362.3420,0.153351
1364.2056,0.158904
1366.0693,0.161961
1367.9330,0.166491
1369.7967,0.171854
1371.6603,0.176188
1373.5240,0.182557
1375.3877,0.189970
1377.2513,0.195026
1379.1150,0.201480
1380.9787,0.209721
1382.8423,0.217943
1384.7060,0.226649
1386.5697,0.238187
1388.4333,0.251132
1390.2970,0.257224
1392.1607,0.258992
1394.0244,0.258130
1395.8880,0.250103
1397.7517,0.237257
1399.6154,0.223129
1401.4790,0.209655
1403.3427,0.197021
1405.2064,0.178456
1407.0700,0.154662
1408.9337,0.131901
1410.7974,0.111565
1412.6610,0.097821
1414.5247,0.092182
1416.3884,0.092783
1418.2520,0.099786
1420.1157,0.111388
1421.9794,0.116600
1423.8431,0.113668
1425.7067,0.102218
1427.5704,0.090004
1429.4341,0.082562
1431.2977,0.079819
1433.1614,0.080089
1435.0251,0.082499
1436.8887,0.087428
1438.7524,0.090222
1440.6161,0.091260
1442.4797,0.093339
1444.3434,0.095036
1446.2071,0.096258
1448.0707,0.096759
1449.9344,0.094712
1451.7981,0.091006
1453.6618,0.087234
1455.5254,0.086430
1457.3891,0.091297
1459.2528,0.093650
1461.1164,0.092642
1462.9801,0.093094
1464.8438,0.094243
1466.7074,0.093060
1468.5711,0.090384
1470.4348,0.089071
1472.2984,0.090161
1474.1621,0.091525
1476.0258,0.091358
1477.8895,0.091336
1479.7531,0.091565
1481.6168,0.092467
1483.4805,0.092830
1485.3441,0.093004
1487.2078,0.094317
1489.0715,0.097393
1490.9351,0.100176
1492.7988,0.099720
1494.6625,0.099838
1496.5261,0.103340
1498.3898,0.106663
1500.2535,0.107168
1502.1171,0.106295
1503.9808,0.105844
1505.8445,0.109665
1507.7082,0.118783
1509.5718,0.118170
1511.4355,0.117557
1513.2992,0.118464
1515.1628,0.119751
1517.0265,0.122238
1518.8902,0.123688
1520.7538,0.125833
1522.6175,0.129717
1524.4812,0.130147
1526.3448,0.131943
1528.2085,0.133397
1530.0722,0.133394
1531.9359,0.135067
1533.7995,0.138633
1535.6632,0.138574
1537.5269,0.137941
1539.3905,0.143108
1541.2542,0.152370
1543.1179,0.154002
1544.9815,0.155802
1546.8452,0.157011
1548.7089,0.158542
1550.5725,0.161912
1552.4362,0.164272
1554.2999,0.165897
1556.1635,0.168055
1558.0272,0.175311
1559.8909,0.191852
1561.7546,0.188085
1563.6182,0.186344
1565.4819,0.189376
1567.3456,0.192789
1569.2092,0.198262
1571.0729,0.203969
1572.9366,0.204820
1574.8002,0.209032
1576.6639,0.218817
1578.5276,0.223074
1580.3912,0.224001
1582.2549,0.227199
1584.1186,0.230183
1585.9822,0.232441
1587.8459,0.233588
1589.7096,0.234044
1591.5733,0.233590
1593.4369,0.232394
1595.3006,0.230438
1597.1643,0.227619
1599.0279,0.224237
1600.8916,0.221025
1602.7553,0.217772
1604.6189,0.214488
1606.4826,0.211677
1608.3463,0.209285
1610.2099,0.206355
1612.0736,0.202232
1613.9373,0.197100
1615.8010,0.190815
1617.6646,0.180768
1619.5283,0.171399
1621.3920,0.164402
1623.2556,0.155025
1625.1193,0.144344
1626.9830,0.134945
1628.8466,0.123226
1630.7103,0.111416
1632.5740,0.102121
1634.4376,0.092891
1636.3013,0.081802
1638.1650,0.075859
1640.0286,0.075208
1641.8923,0.074600
1643.7560,0.075229
1645.6197,0.077534
1647.4833,0.081174
1649.3470,0.083115
1651.2107,0.085742
1653.0743,0.091911
1654.9380,0.096705
1656.8017,0.096331
1658.6653,0.097130
1660.5290,0.097440
1662.3927,0.096792
1664.2563,0.094758
1666.1200,0.092628
1667.9837,0.090740
1669.8474,0.088711
1671.7110,0.087268
1673.5747,0.088252
1675.4384,0.091468
1677.3020,0.095141
1679.1657,0.098202
1681.0294,0.102715
1682.8930,0.107901
1684.7567,0.115493
1686.6204,0.117576
1688.4840,0.116072
1690.3477,0.113853
1692.2114,0.110204
1694.0750,0.106264
1695.9387,0.101441
1697.8024,0.095564
1699.6661,0.091436
1701.5297,0.082135
1703.3934,0.074391
1705.2571,0.065544
1707.1207,0.053877
1708.9844,0.046264
1710.8481,0.040886
1712.7117,0.036410
1714.5754,0.033200
1716.4391,0.030295
1718.3027,0.028459
1720.1664,0.027319
1722.0301,0.026713
1723.8937,0.024849
1725.7574,0.022287
1727.6211,0.020036
1729.4848,0.018036
1731.3484,0.016022
1733.2121,0.014751
1735.0758,0.012748
1736.9394,0.012382
1738.8031,0.012726
1740.6668,0.012216
1742.5304,0.011824
1744.3941,0.011732
1746.2578,0.011137
1748.1214,0.010798
1749.9851,0.010363
1751.8488,0.010027
1753.7125,0.010000
1755.5761,0.010486
1757.4398,0.010396
1759.3035,0.010312
1761.1671,0.010383
1763.0308,0.010226
1764.8945,0.010236
1766.7581,0.010551
1768.6218,0.010372
1770.4855,0.010258
1772.3491,0.009965
1774.2128,0.009539
1776.0765,0.009852
1777.9401,0.010413
1779.8038,0.010568
1781.6675,0.010573
1783.5312,0.010569
1785.3948,0.010652
1787.2585,0.010652
1789.1222,0.010995
1790.9858,0.010886
1792.8495,0.010439
1794.7132,0.010426
1796.5768,0.010776
1798.4405,0.010909
1800.3042,0.011059
1802.1678,0.010892
1804.0315,0.011107
1805.8952,0.011390
1807.7589,0.011452
1809.6225,0.011422
1811.4862,0.011660
1813.3499,0.011601
1815.2135,0.011549
1817.0772,0.011527
1818.9409,0.011676
1820.8045,0.011689
1822.6682,0.011742
1824.5319,0.011557
1826.3955,0.011245
1828.2592,0.011092
1830.1229,0.011217
1831.9865,0.010850
1833.8502,0.011029
1835.7139,0.011230
1837.5776,0.011408
1839.4412,0.011278
1841.3049,0.011459
1843.1686,0.011427
1845.0322,0.011135
1846.8959,0.011016
1848.7596,0.011246
1850.6232,0.011427
1852.4869,0.011912
1854.3506,0.011957
1856.2142,0.011984
1858.0779,0.012017
1859.9416,0.012111
1861.8052,0.012128
1863.6689,0.012068
1865.5326,0.011626
1867.3963,0.011719
1869.2599,0.011618
1871.1236,0.011628
1872.9873,0.012009
1874.8509,0.012310
1876.7146,0.012098
1878.5783,0.012067
1880.4419,0.012173
1882.3056,0.012402
1884.1693,0.012132
1886.0329,0.012088
1887.8966,0.012000
1889.7603,0.011935
1891.6240,0.011514
1893.4876,0.011614
1895.3513,0.012038
1897.2150,0.012398
1899.0786,0.012347
1900.9423,0.012411
1902.8060,0.012480
1904.6696,0.012573
1906.5333,0.012354
1908.3970,0.012462
1910.2606,0.012049
1912.1243,0.011549
1913.9880,0.011797
1915.8516,0.012406
1917.7153,0.012410
1919.5790,0.012061
1921.4427,0.011445
1923.3063,0.011573
1925.1700,0.011466
1927.0337,0.011804
1928.8973,0.011887
1930.7610,0.012552
1932.6247,0.012682
1934.4883,0.012055
1936.3520,0.011251
1938.2157,0.011896
1940.0793,0.012158
1941.9430,0.011674
1943.8067,0.011186
1945.6704,0.010743
1947.5340,0.010362
1949.3977,0.011071
1951.2614,0.011063
1953.1250,0.010607
1954.9887,0.009995
1956.8524,0.010213
1958.7160,0.010318
1960.5797,0.009653
1962.4434,0.007646
1964.3070,0.005649
1966.1707,0.004320
1968.0344,0.003819
1969.8980,0.003223
1971.7617,0.004086
1973.6254,0.005109
1975.4891,0.005964
1977.3527,0.005483
1979.2164,0.006807
1981.0801,0.008133
1982.9437,0.008443
1984.8074,0.007665
1986.6711,0.007941
1988.5347,0.008384
1990.3984,0.009863
1992.2621,0.010352
1994.1257,0.009686
1995.9894,0.009136
1997.8531,0.008789
1999.7167,0.008031
2001.5804,0.008428
2003.4441,0.008848
2005.3078,0.009003
2007.1714,0.007651
2009.0351,0.007308
2010.8988,0.007231
2012.7624,0.007430
2014.6261,0.007214
2016.4898,0.007464
2018.3534,0.006477
2020.2171,0.005328
2022.0808,0.004850
2023.9444,0.005365
2025.8081,0.005855
2027.6718,0.008018
2029.5355,0.008187
2031.3991,0.007348
2033.2628,0.007494
2035.1265,0.008542
2036.9901,0.007661
2038.8538,0.007843
2040.7175,0.008155
2042.5811,0.008241
2044.4448,0.009229
2046.3085,0.011087
2048.1721,0.011538
2050.0358,0.011787
2051.8995,0.011784
2053.7631,0.012198
2055.6268,0.012398
2057.4905,0.012679
2059.3542,0.012219
2061.2178,0.013064
2063.0815,0.013959
2064.9452,0.013770
2066.8088,0.012913
2068.6725,0.013501
2070.5362,0.014416
2072.3998,0.014553
2074.2635,0.014634
2076.1272,0.015121
2077.9908,0.015542
2079.8545,0.016004
2081.7182,0.016136
2083.5819,0.016651
2085.4455,0.016449
2087.3092,0.016520
2089.1729,0.016778
2091.0365,0.016801
2092.9002,0.016395
2094.7639,0.015999
2096.6275,0.015904
2098.4912,0.015875
2100.3549,0.016029
2102.2185,0.016108
2104.0822,0.016161
2105.9459,0.016830
2107.8095,0.017138
2109.6732,0.017243
2111.5369,0.017229
2113.4006,0.017366
2115.2642,0.017365
2117.1279,0.017846
2118.9916,0.017202
2120.8552,0.016864
2122.7189,0.017434
2124.5826,0.017539
2126.4462,0.016998
2128.3099,0.016778
2130.1736,0.016521
2132.0372,0.016064
2133.9009,0.015135
2135.7646,0.015899
2137.6282,0.015784
2139.4919,0.015276
2141.3556,0.015135
2143.2193,0.014501
2145.0829,0.013068
2146.9466,0.013150
2148.8103,0.012387
2150.6739,0.012068
2152.5376,0.011534
2154.4013,0.010557
2156.2649,0.008481
2158.1286,0.006686
2159.9923,0.006978
2161.8559,0.007565
2163.7196,0.006446
2165.5833,0.007977
2167.4470,0.009483
2169.3106,0.010552
2171.1743,0.011299
2173.0380,0.011565
2174.9016,0.011367
2176.7653,0.011851
2178.6290,0.012117
2180.4926,0.012566
2182.3563,0.012205
2184.2200,0.012569
2186.0836,0.012621
2187.9473,0.013175
2189.8110,0.013692
2191.6746,0.013874
2193.5383,0.014651
2195.4020,0.015337
2197.2657,0.016189
2199.1293,0.016039
2200.9930,0.015395
2202.8567,0.015526
2204.7203,0.015741
2206.5840,0.015968
2208.4477,0.016110
2210.3113,0.017244
2212.1750,0.017496
2214.0387,0.017020
2215.9023,0.016318
2217.7660,0.016366
2219.6297,0.016311
2221.4934,0.016780
2223.3570,0.018084
2225.2207,0.018233
2227.0844,0.017957
2228.9480,0.018529
2230.8117,0.018379
2232.6754,0.017946
2234.5390,0.018354
2236.4027,0.018671
2238.2664,0.019119
2240.1300,0.019364
2241.9937,0.018888
2243.8574,0.019343
2245.7210,0.019802
2247.5847,0.020142
2249.4484,0.020694
2251.3121,0.021408
2253.1757,0.021629
2255.0394,0.021415
2256.9031,0.021256
2258.7667,0.021777
2260.6304,0.022270
2262.4941,0.022534
2264.3577,0.022234
2266.2214,0.022018
2268.0851,0.022131
2269.9487,0.022664
2271.8124,0.022980
2273.6761,0.023404
2275.5397,0.023717
2277.4034,0.024091
2279.2671,0.024526
2281.1308,0.024800
2282.9944,0.025450
2284.8581,0.026045
2286.7218,0.026303
2288.5854,0.026331
2290.4491,0.025959
2292.3128,0.026013
2294.1764,0.026263
2296.0401,0.026301
2297.9038,0.026252
2299.7674,0.026204
2301.6311,0.026031
2303.4948,0.026520
2305.3585,0.026796
2307.2221,0.026814
2309.0858,0.026722
2310.9495,0.026815
2312.8131,0.027078
2314.6768,0.026996
2316.5405,0.026736
2318.4041,0.027097
2320.2678,0.027575
2322.1315,0.027814
2323.9951,0.027488
2325.8588,0.027136
2327.7225,0.026932
2329.5861,0.026638
2331.4498,0.026551
2333.3135,0.026738
2335.1772,0.026697
2337.0408,0.026821
2338.9045,0.026805
2340.7682,0.026979
2342.6318,0.027234
2344.4955,0.027064
2346.3592,0.027119
2348.2228,0.026590
2350.0865,0.025660
2351.9502,0.025830
2353.8138,0.026729
2355.6775,0.026918
2357.5412,0.026731
2359.4049,0.027075
2361.2685,0.027181
2363.1322,0.027021
2364.9959,0.027154
2366.8595,0.027291
2368.7232,0.027017
2370.5869,0.027129
2372.4505,0.027540
2374.3142,0.027750
2376.1779,0.027497
2378.0415,0.027319
2379.9052,0.027116
2381.7689,0.026917
2383.6325,0.026672
2385.4962,0.026618
2387.3599,0.026784
2389.2236,0.026593
2391.0872,0.026525
2392.9509,0.026871
2394.8146,0.027032
2396.6782,0.026644
2398.5419,0.026381
2400.4056,0.026659
2402.2692,0.027135
2404.1329,0.027268
2405.9966,0.027036
2407.8602,0.027226
2409.7239,0.027234
2411.5876,0.027376
2413.4512,0.027595
2415.3149,0.027672
2417.1786,0.027879
2419.0423,0.027977
2420.9059,0.028015
2422.7696,0.028060
2424.6333,0.028457
2426.4969,0.028591
2428.3606,0.028146
2430.2243,0.027911
2432.0879,0.027851
2433.9516,0.028203
2435.8153,0.028078
2437.6789,0.028030
2439.5426,0.028432
2441.4063,0.028671
2443.2700,0.028730
2445.1336,0.028754
2446.9973,0.028590
2448.8610,0.028512
2450.7246,0.028238
2452.5883,0.028133
2454.4520,0.028255
2456.3156,0.028093
2458.1793,0.028189
2460.0430,0.028326
2461.9066,0.027952
2463.7703,0.027896
2465.6340,0.028168
2467.4976,0.028007
2469.3613,0.028028
2471.2250,0.027958
2473.0887,0.027824
2474.9523,0.028400
2476.8160,0.028509
2478.6797,0.028291
2480.5433,0.028179
2482.4070,0.028340
2484.2707,0.028659
2486.1343,0.028930
2487.9980,0.028958
2489.8617,0.028927
2491.7253,0.028931
2493.5890,0.029135
2495.4527,0.029188
2497.3164,0.029173
2499.1800,0.029337
2501.0437,0.029599
2502.9074,0.029731
2504.7710,0.030086
2506.6347,0.030037
2508.4984,0.029836
2510.3620,0.030010
2512.2257,0.030105
2514.0894,0.030148
2515.9530,0.030299
2517.8167,0.030198
2519.6804,0.030114
2521.5440,0.030549
2523.4077,0.030686
2525.2714,0.030812
2527.1351,0.031289
2528.9987,0.031348
2530.8624,0.031034
2532.7261,0.030686
2534.5897,0.030651
2536.4534,0.030889
2538.3171,0.031068
2540.1807,0.031017
2542.0444,0.031068
2543.9081,0.031498
2545.7717,0.031657
2547.6354,0.031075
2549.4991,0.030807
2551.3627,0.031139
2553.2264,0.031419
2555.0901,0.031062
2556.9538,0.030776
2558.8174,0.030936
2560.6811,0.031210
2562.5448,0.031752
2564.4084,0.032184
2566.2721,0.032539
2568.1358,0.032696
2569.9994,0.032549
2571.8631,0.032849
2573.7268,0.032903
2575.5904,0.032985
2577.4541,0.032993
2579.3178,0.032970
2581.1815,0.032990
2583.0451,0.033394
2584.9088,0.034042
2586.7725,0.034188
2588.6361,0.034370
2590.4998,0.034185
2592.3635,0.034113
2594.2271,0.034692
2596.0908,0.035117
2597.9545,0.035112
2599.8181,0.035007
2601.6818,0.035226
2603.5455,0.035602
2605.4091,0.035885
2607.2728,0.035961
2609.1365,0.035870
2611.0002,0.035900
2612.8638,0.036238
2614.7275,0.036337
2616.5912,0.036105
2618.4548,0.036144
2620.3185,0.036487
2622.1822,0.037179
2624.0458,0.037859
2625.9095,0.038207
2627.7732,0.038055
2629.6368,0.038065
2631.5005,0.038552
2633.3642,0.039281
2635.2279,0.039801
2637.0915,0.040000
2638.9552,0.040170
2640.8189,0.040333
2642.6825,0.040604
2644.5462,0.040738
2646.4099,0.040956
2648.2735,0.041111
2650.1372,0.041230
2652.0009,0.041365
2653.8645,0.041554
2655.7282,0.041698
2657.5919,0.041800
2659.4555,0.041981
2661.3192,0.042117
2663.1829,0.042055
2665.0466,0.042023
2666.9102,0.042244
2668.7739,0.042444
2670.6376,0.042655
2672.5012,0.042918
2674.3649,0.043283
2676.2286,0.043498
2678.0922,0.043646
2679.9559,0.043958
2681.8196,0.044254
2683.6832,0.044586
2685.5469,0.044675
2687.4106,0.044765
2689.2742,0.044960
2691.1379,0.045160
2693.0016,0.045486
2694.8653,0.045951
2696.7289,0.046227
2698.5926,0.046504
2700.4563,0.046840
2702.3199,0.047183
2704.1836,0.047757
2706.0473,0.048204
2707.9109,0.048497
2709.7746,0.048843
2711.6383,0.049440
2713.5019,0.049915
2715.3656,0.050270
2717.2293,0.050529
2719.0930,0.050914
2720.9566,0.051330
2722.8203,0.051670
2724.6840,0.051934
2726.5476,0.052603
2728.4113,0.053547
2730.2750,0.054083
2732.1386,0.054290
2734.0023,0.054642
2735.8660,0.055252
2737.7296,0.056128
2739.5933,0.056695
2741.4570,0.057293
2743.3206,0.057823
2745.1843,0.058279
2747.0480,0.059053
2748.9117,0.059937
2750.7753,0.060635
2752.6390,0.061158
2754.5027,0.061399
2756.3663,0.062130
2758.2300,0.062864
2760.0937,0.063370
2761.9573,0.064161
2763.8210,0.064925
2765.6847,0.065531
2767.5483,0.066329
2769.4120,0.067053
2771.2757,0.067874
2773.1394,0.068390
2775.0030,0.069429
2776.8667,0.070740
2778.7304,0.071245
2780.5940,0.071125
2782.4577,0.071147
2784.3214,0.071295
2786.1850,0.071145
2788.0487,0.070566
2789.9124,0.070099
2791.7760,0.069467
2793.6397,0.068688
2795.5034,0.067745
2797.3670,0.067040
2799.2307,0.066821
2801.0944,0.066478
2802.9581,0.065769
2804.8217,0.065269
2806.6854,0.064761
2808.5491,0.064251
2810.4127,0.063961
2812.2764,0.064004
2814.1401,0.063787
2816.0037,0.063838
2817.8674,0.063949
2819.7311,0.064020
2821.5947,0.064122
2823.4584,0.064302
2825.3221,0.064345
2827.1857,0.064022
2829.0494,0.063276
2830.9131,0.062822
2832.7768,0.062768
2834.6404,0.062888
2836.5041,0.063037
2838.3678,0.063410
2840.2314,0.063738
2842.0951,0.064213
2843.9588,0.064762
2845.8224,0.065210
2847.6861,0.065665
2849.5498,0.066744
2851.4134,0.067477
2853.2771,0.067968
2855.1408,0.068729
2857.0045,0.069583
2858.8681,0.070289
2860.7318,0.071113
2862.5955,0.071645
2864.4591,0.071939
2866.3228,0.072200
2868.1865,0.072413
2870.0501,0.072642
2871.9138,0.073277
2873.7775,0.073736
2875.6411,0.074223
2877.5048,0.074602
2879.3685,0.074944
2881.2321,0.075573
2883.0958,0.076227
2884.9595,0.076668
2886.8232,0.077232
2888.6868,0.077885
2890.5505,0.078603
2892.4142,0.079169
2894.2778,0.079829
2896.1415,0.080488
2898.0052,0.080732
2899.8688,0.080834
2901.7325,0.081046
2903.5962,0.080776
2905.4598,0.080708
2907.3235,0.081157
2909.1872,0.081795
2911.0509,0.082409
2912.9145,0.083096
2914.7782,0.083581
2916.6419,0.084509
2918.5055,0.085596
2920.3692,0.086578
2922.2329,0.087169
2924.0965,0.087912
2925.9602,0.088626
2927.8239,0.089346
2929.6875,0.089943
2931.5512,0.090629
2933.4149,0.091354
2935.2785,0.091879
2937.1422,0.092662
2939.0059,0.093485
2940.8696,0.093434
2942.7332,0.093758
2944.5969,0.094564
2946.4606,0.094959
2948.3242,0.095060
2950.1879,0.095393
2952.0516,0.095926
2953.9152,0.096504
2955.7789,0.096877
2957.6426,0.097399
2959.5062,0.098074
2961.3699,0.098704
2963.2336,0.099671
2965.0972,0.101176
2966.9609,0.102078
2968.8246,0.103023
2970.6883,0.103996
2972.5519,0.104553
2974.4156,0.105411
2976.2793,0.106448
2978.1429,0.107111
2980.0066,0.107556
2981.8703,0.107675
2983.7339,0.107896
2985.5976,0.108231
2987.4613,0.109159
2989.3249,0.109929
2991.1886,0.110446
2993.0523,0.111370
2994.9160,0.112542
2996.7796,0.113377
2998.6433,0.114153
3000.5070,0.115124
3002.3706,0.115922
3004.2343,0.116679
3006.0980,0.117903
3007.9616,0.118980
3009.8253,0.120069
3011.6890,0.120543
3013.5526,0.121187
3015.4163,0.122084
3017.2800,0.123265
3019.1436,0.124082
3021.0073,0.124139
3022.8710,0.124185
3024.7347,0.124910
3026.5983,0.125295
3028.4620,0.125790
3030.3257,0.125968
3032.1893,0.126188
3034.0530,0.126714
3035.9167,0.127261
3037.7803,0.127277
3039.6440,0.127576
3041.5077,0.128056
3043.3713,0.128362
3045.2350,0.128843
3047.0987,0.129335
3048.9624,0.129454
3050.8260,0.129452
3052.6897,0.129664
3054.5534,0.130047
3056.4170,0.130253
3058.2807,0.130822
3060.1444,0.130785
3062.0080,0.130437
3063.8717,0.130140
3065.7354,0.130518
3067.5990,0.131167
3069.4627,0.131321
3071.3264,0.130717
3073.1900,0.130351
3075.0537,0.129974
3076.9174,0.129632
3078.7811,0.129230
3080.6447,0.128986
3082.5084,0.128628
3084.3721,0.128000
3086.2357,0.127041
3088.0994,0.126216
3089.9631,0.125355
3091.8267,0.124587
3093.6904,0.123345
3095.5541,0.122258
3097.4177,0.121535
3099.2814,0.120935
3101.1451,0.119959
3103.0087,0.118544
3104.8724,0.116770
3106.7361,0.115576
3108.5998,0.114584
3110.4634,0.113628
3112.3271,0.112165
3114.1908,0.110869
3116.0544,0.110140
3117.9181,0.109377
3119.7818,0.108383
3121.6454,0.107352
3123.5091,0.106516
3125.3728,0.105523
3127.2364,0.103957
3129.1001,0.102957
3130.9638,0.102360
3132.8275,0.101359
3134.6911,0.100354
3136.5548,0.099542
3138.4185,0.098495
3140.2821,0.098256
3142.1458,0.098227
3144.0095,0.097566
3145.8731,0.096457
3147.7368,0.095597
3149.6005,0.094894
3151.4641,0.094496
3153.3278,0.094599
3155.1915,0.094592
3157.0551,0.093861
3158.9188,0.092641
3160.7825,0.091620
3162.6462,0.090959
3164.5098,0.090317
3166.3735,0.089873
3168.2372,0.089408
3170.1008,0.089031
3171.9645,0.088174
3173.8282,0.087730
3175.6918,0.087674
3177.5555,0.086891
3179.4192,0.086521
3181.2828,0.086861
3183.1465,0.086511
3185.0102,0.085516
3186.8739,0.084808
3188.7375,0.085131
3190.6012,0.085317
3192.4649,0.085157
3194.3285,0.085261
3196.1922,0.085299
3198.0559,0.085326
3199.9195,0.085553
3201.7832,0.085460
3203.6469,0.085176
3205.5105,0.085524
3207.3742,0.085840
3209.2379,0.085407
3211.1015,0.085353
3212.9652,0.085411
3214.8289,0.085121
3216.6926,0.085311
3218.5562,0.086072
3220.4199,0.086343
3222.2836,0.086640
3224.1472,0.086979
3226.0109,0.086552
3227.8746,0.086195
3229.7382,0.087021
3231.6019,0.087678
3233.4656,0.087976
3235.3292,0.088363
3237.1929,0.089279
3239.0566,0.089320
3240.9202,0.089130
3242.7839,0.088729
3244.6476,0.088664
3246.5113,0.089799
3248.3749,0.090839
3250.2386,0.091036
3252.1023,0.091393
3253.9659,0.091347
3255.8296,0.091662
3257.6933,0.092134
3259.5569,0.092251
3261.4206,0.092966
3263.2843,0.093683
3265.1479,0.093838
3267.0116,0.094058
3268.8753,0.094261
3270.7390,0.094364
3272.6026,0.094363
3274.4663,0.094350
3276.3300,0.094042
3278.1936,0.093488
3280.0573,0.092713
3281.9210,0.092018
3283.7846,0.091461
3285.6483,0.091284
3287.5120,0.090932
3289.3756,0.090480
3291.2393,0.089458
3293.1030,0.088246
3294.9666,0.087384
3296.8303,0.086770
3298.6940,0.086143
3300.5577,0.085312
3302.4213,0.083714
3304.2850,0.082814
3306.1487,0.082395
3308.0123,0.081720
3309.8760,0.080782
3311.7397,0.080306
3313.6033,0.079419
3315.4670,0.079426
3317.3307,0.079794
3319.1943,0.079731
3321.0580,0.080486
3322.9217,0.080858
3324.7854,0.080977
3326.6490,0.081678
3328.5127,0.081591
3330.3764,0.081737
3332.2400,0.081755
3334.1037,0.081401
3335.9674,0.080709
3337.8310,0.079641
3339.6947,0.078229
3341.5584,0.076901
3343.4220,0.074831
3345.2857,0.073090
3347.1494,0.072660
3349.0130,0.072051
3350.8767,0.070308
3352.7404,0.068543
3354.6041,0.067047
3356.4677,0.065721
3358.3314,0.064291
3360.1951,0.063143
3362.0587,0.062546
3363.9224,0.061916
3365.7861,0.060938
3367.6497,0.060555
3369.5134,0.060517
3371.3771,0.060828
3373.2407,0.060809
3375.1044,0.060110
3376.9681,0.060469
3378.8317,0.061521
3380.6954,0.061864
3382.5591,0.061607
3384.4228,0.061163
3386.2864,0.062095
3388.1501,0.062853
3390.0138,0.062649
3391.8774,0.063110
3393.7411,0.064087
3395.6048,0.064877
3397.4684,0.065150
3399.3321,0.064192
3401.1958,0.063673
3403.0594,0.063738
3404.9231,0.062716
3406.7868,0.060428
3408.6505,0.058199
3410.5141,0.056447
3412.3778,0.055583
3414.2415,0.054509
3416.1051,0.052119
3417.9688,0.049470
3419.8325,0.047583
3421.6961,0.045565
3423.5598,0.043780
3425.4235,0.042355
3427.2871,0.041372
3429.1508,0.040409
3431.0145,0.038996
3432.8781,0.037145
3434.7418,0.035259
3436.6055,0.034188
3438.4692,0.034421
3440.3328,0.034015
3442.1965,0.033467
3444.0602,0.032841
3445.9238,0.031637
3447.7875,0.030233
3449.6512,0.029668
3451.5148,0.029449
3453.3785,0.028741
3455.2422,0.028730
3457.1058,0.028596
3458.9695,0.027291
3460.8332,0.026991
3462.6969,0.026834
3464.5605,0.024899
3466.4242,0.024018
3468.2879,0.024491
3470.1515,0.023957
3472.0152,0.023550
3473.8789,0.023266
3475.7425,0.023573
3477.6062,0.023182
3479.4699,0.021903
3481.3335,0.021900
3483.1972,0.021371
3485.0609,0.019967
3486.9245,0.019559
3488.7882,0.019865
3490.6519,0.020280
3492.5156,0.019867
3494.3792,0.018753
3496.2429,0.017968
3498.1066,0.017117
3499.9702,0.016992
3501.8339,0.016874
3503.6976,0.015833
3505.5612,0.015514
3507.4249,0.015705
3509.2886,0.015370
3511.1522,0.014856
3513.0159,0.014799
3514.8796,0.014587
3516.7432,0.014188
3518.6069,0.013694
3520.4706,0.012875
3522.3343,0.012381
3524.1979,0.012607
3526.0616,0.012423
3527.9253,0.011225
3529.7889,0.010352
3531.6526,0.010668
3533.5163,0.011351
3535.3799,0.011311
3537.2436,0.011609
3539.1073,0.012136
3540.9709,0.012097
3542.8346,0.011775
3544.6983,0.010693
3546.5620,0.009785
3548.4256,0.009707
3550.2893,0.009373
3552.1530,0.009437
3554.0166,0.009641
3555.8803,0.009233
3557.7440,0.008553
3559.6076,0.007993
3561.4713,0.008260
3563.3350,0.008336
3565.1986,0.008058
3567.0623,0.007513
3568.9260,0.006277
3570.7896,0.006969
3572.6533,0.008157
3574.5170,0.008617
3576.3807,0.008625
3578.2443,0.008226
3580.1080,0.008483
3581.9717,0.008692
3583.8353,0.008037
3585.6990,0.007585
3587.5627,0.007482
3589.4263,0.006784
3591.2900,0.007013
3593.1537,0.008320
3595.0173,0.008961
3596.8810,0.007618
3598.7447,0.006874
3600.6084,0.007641
3602.4720,0.007412
3604.3357,0.007130
3606.1994,0.008089
3608.0630,0.008291
3609.9267,0.006853
3611.7904,0.006128
3613.6540,0.006662
3615.5177,0.007547
3617.3814,0.007567
3619.2450,0.006363
3621.1087,0.005735
3622.9724,0.006695
3624.8360,0.008028
3626.6997,0.008536
3628.5634,0.007940
3630.4271,0.006705
3632.2907,0.006749
3634.1544,0.007464
3636.0181,0.007535
3637.8817,0.008304
3639.7454,0.009193
3641.6091,0.009063
3643.4727,0.008484
3645.3364,0.008275
3647.2001,0.007383
3649.0637,0.005381
3650.9274,0.004725
3652.7911,0.005469
3654.6547,0.007232
3656.5184,0.008854
3658.3821,0.008612
3660.2458,0.008138
3662.1094,0.008667
3663.9731,0.008862
3665.8368,0.008752
3667.7004,0.008381
3669.5641,0.008005
3671.4278,0.007511
3673.2914,0.007011
3675.1551,0.008284
3677.0188,0.008678
3678.8824,0.007604
3680.7461,0.008091
3682.6098,0.008738
3684.4735,0.009625
3686.3371,0.009940
3688.2008,0.009329
3690.0645,0.008749
3691.9281,0.008031
3693.7918,0.008185
3695.6555,0.008926
3697.5191,0.009302
3699.3828,0.009456
3701.2465,0.009726
3703.1101,0.009640
3704.9738,0.009126
3706.8375,0.009383
3708.7011,0.009777
3710.5648,0.008644
3712.4285,0.007385
3714.2922,0.007882
3716.1558,0.008438
3718.0195,0.009189
3719.8832,0.010060
3721.7468,0.009937
3723.6105,0.009086
3725.4742,0.008680
3727.3378,0.008930
3729.2015,0.008608
3731.0652,0.008959
3732.9288,0.009956
3734.7925,0.009061
3736.6562,0.007277
3738.5199,0.006703
3740.3835,0.007350
3742.2472,0.008085
3744.1109,0.007796
3745.9745,0.006022
3747.8382,0.005975
3749.7019,0.008347
3751.5655,0.008498
3753.4292,0.007382
3755.2929,0.008173
3757.1565,0.009132
3759.0202,0.009699
3760.8839,0.009931
3762.7475,0.009796
3764.6112,0.010181
3766.4749,0.010313
3768.3386,0.009774
3770.2022,0.009766
3772.0659,0.009805
3773.9296,0.010209
3775.7932,0.010724
3777.6569,0.011005
3779.5206,0.011120
3781.3842,0.010677
3783.2479,0.010529
3785.1116,0.010852
3786.9752,0.011022
3788.8389,0.010946
3790.7026,0.010955
3792.5662,0.010955
3794.4299,0.010658
3796.2936,0.010574
3798.1573,0.010600
3800.0209,0.010726
3801.8846,0.010621
3803.7483,0.009716
3805.6119,0.009935
3807.4756,0.010893
3809.3393,0.010547
3811.2029,0.010454
3813.0666,0.011113
3814.9303,0.011107
3816.7939,0.010438
3818.6576,0.009459
3820.5213,0.009665
3822.3850,0.010217
3824.2486,0.010188
3826.1123,0.010490
3827.9760,0.010925
3829.8396,0.010934
3831.7033,0.010976
3833.5670,0.011090
3835.4306,0.010962
3837.2943,0.010942
3839.1580,0.010543
3841.0216,0.009969
3842.8853,0.010187
3844.7490,0.010517
3846.6126,0.010549
3848.4763,0.010756
3850.3400,0.011271
3852.2037,0.011512
3854.0673,0.010437
3855.9310,0.008524
3857.7947,0.009227
3859.6583,0.010743
3861.5220,0.011491
3863.3857,0.011548
3865.2493,0.011194
3867.1130,0.010857
3868.9767,0.011271
3870.8403,0.011643
3872.7040,0.010865
3874.5677,0.010763
3876.4314,0.011302
3878.2950,0.011680
3880.1587,0.011929
3882.0224,0.011257
3883.8860,0.010924
3885.7497,0.011719
3887.6134,0.012078
3889.4770,0.011747
3891.3407,0.011765
3893.2044,0.011741
3895.0680,0.011555
3896.9317,0.011858
3898.7954,0.012166
3900.6590,0.011741
3902.5227,0.010825
3904.3864,0.010910
3906.2501,0.011061
3908.1137,0.011095
3909.9774,0.012501
3911.8411,0.013697
3913.7047,0.013416
3915.5684,0.013010
3917.4321,0.013003
3919.2957,0.012592
3921.1594,0.012177
3923.0231,0.012376
3924.8867,0.012502
3926.7504,0.012271
3928.6141,0.012521
3930.4777,0.012856
3932.3414,0.012539
3934.2051,0.012238
3936.0688,0.012754
3937.9324,0.013150
3939.7961,0.013127
3941.6598,0.013131
3943.5234,0.012737
3945.3871,0.012515
3947.2508,0.013153
3949.1144,0.013480
3950.9781,0.013116
3952.8418,0.013136
3954.7054,0.013429
3956.5691,0.013175
3958.4328,0.013038
3960.2965,0.013514
3962.1601,0.013672
3964.0238,0.013222
3965.8875,0.013162
3967.7511,0.013779
3969.6148,0.014046
3971.4785,0.013492
3973.3421,0.013139
3975.2058,0.013366
3977.0695,0.013759
3978.9331,0.013624
3980.7968,0.013171
3982.6605,0.012845
3984.5241,0.013048
3986.3878,0.013891
3988.2515,0.014012
3990.1152,0.013806
3991.9788,0.013942
3993.8425,0.013640
3995.7062,0.013441
3997.5698,0.013402
3999.4335,0.013829
