Wavenumber,Intensity
650.4205,0.208092
652.2841,0.202800
654.1478,0.200033
656.0115,0.195874
657.8751,0.190987
659.7388,0.186196
661.6025,0.184732
663.4661,0.183970
665.3298,0.182297
667.1935,0.181718
669.0571,0.185011
670.9208,0.183549
672.7845,0.182152
674.6481,0.181661
676.5118,0.182270
678.3755,0.181237
680.2392,0.180033
682.1028,0.179411
683.9665,0.179789
685.8302,0.178673
687.6938,0.176635
689.5575,0.175477
691.4212,0.175902
693.2848,0.175990
695.1485,0.176860
697.0122,0.177328
698.8758,0.178414
700.7395,0.178346
702.6032,0.177381
704.4669,0.174553
706.3305,0.170375
708.1942,0.164014
710.0579,0.156585
711.9215,0.149159
713.7852,0.141750
715.6489,0.134129
717.5125,0.128512
719.3762,0.124274
721.2399,0.119223
723.1035,0.113239
724.9672,0.108106
726.8309,0.104732
728.6945,0.101636
730.5582,0.097400
732.4219,0.093242
734.2856,0.089788
736.1492,0.087039
738.0129,0.085277
739.8766,0.085678
741.7402,0.088249
743.6039,0.090559
745.4676,0.091508
747.3312,0.091609
749.1949,0.091213
751.0586,0.090357
752.9222,0.089218
754.7859,0.087960
756.6496,0.086860
758.5132,0.086657
760.3769,0.086578
762.2406,0.086451
764.1043,0.086270
765.9679,0.086040
767.8316,0.086447
769.6953,0.087475
771.5589,0.088756
773.4226,0.090520
775.2863,0.092114
777.1499,0.092576
779.0136,0.091223
780.8773,0.089704
782.7409,0.089595
784.6046,0.090220
786.4683,0.091138
788.3320,0.092854
790.1956,0.095125
792.0593,0.097322
793.9230,0.099636
795.7866,0.101969
797.6503,0.103962
799.5140,0.105882
801.3776,0.107968
803.2413,0.109675
805.1050,0.110803
806.9686,0.112168
808.8323,0.112042
810.6960,0.107749
812.5596,0.100628
814.4233,0.093889
816.2870,0.089057
818.1507,0.085854
820.0143,0.083295
821.8780,0.081640
823.7417,0.080876
825.6053,0.081022
827.4690,0.082673
829.3327,0.083666
831.1963,0.078633
833.0600,0.067769
834.9237,0.058610
836.7873,0.054704
838.6510,0.053744
840.5147,0.053755
842.3784,0.054409
844.2420,0.055030
846.1057,0.055307
847.9694,0.055154
849.8330,0.054099
851.6967,0.052572
853.5604,0.051206
855.4240,0.050060
857.2877,0.049018
859.1514,0.048037
861.0150,0.047424
862.8787,0.047290
864.7424,0.047386
866.6060,0.047308
868.4697,0.047249
870.3334,0.047387
872.1971,0.047555
874.0607,0.047720
875.9244,0.047987
877.7881,0.048270
879.6517,0.048494
881.5154,0.048999
883.3791,0.049681
885.2427,0.050131
887.1064,0.050615
888.9701,0.051310
890.8337,0.052163
892.6974,0.053184
894.5611,0.054369
896.4247,0.055407
898.2884,0.056104
900.1521,0.056884
902.0158,0.058196
903.8794,0.060396
905.7431,0.063851
907.6068,0.068435
909.4704,0.073610
911.3341,0.079811
913.1978,0.086993
915.0614,0.089990
916.9251,0.081742
918.7888,0.066307
920.6524,0.054606
922.5161,0.049885
924.3798,0.048985
926.2435,0.048717
928.1071,0.047955
929.9708,0.047146
931.8345,0.046947
933.6981,0.047321
935.5618,0.047951
937.4255,0.048756
939.2891,0.049545
941.1528,0.050019
943.0165,0.050380
944.8801,0.051016
946.7438,0.051862
948.6075,0.052711
950.4711,0.053491
952.3348,0.054239
954.1985,0.055001
956.0622,0.055850
957.9258,0.056847
959.7895,0.057832
961.6532,0.058973
963.5168,0.060272
965.3805,0.061775
967.2442,0.063777
969.1078,0.066230
970.9715,0.068823
972.8352,0.072001
974.6988,0.077179
976.5625,0.086229
978.4262,0.101736
980.2899,0.123417
982.1535,0.131809
984.0172,0.106702
985.8809,0.073617
987.7445,0.058591
989.6082,0.056368
991.4719,0.057158
993.3355,0.058416
995.1992,0.059874
997.0629,0.061472
998.9265,0.062501
1000.7902,0.062320
1002.6539,0.061547
1004.5175,0.061309
1006.3812,0.061784
1008.2449,0.062552
1010.1086,0.063440
1011.9722,0.064250
1013.8359,0.065005
1015.6996,0.065983
1017.5632,0.067080
1019.4269,0.068156
1021.2906,0.069382
1023.1542,0.070632
1025.0179,0.071944
1026.8816,0.073453
1028.7452,0.075131
1030.6089,0.076964
1032.4726,0.078956
1034.3362,0.081274
1036.1999,0.084003
1038.0636,0.087270
1039.9273,0.091086
1041.7909,0.095328
1043.6546,0.100195
1045.5183,0.105465
1047.3819,0.110019
1049.2456,0.111476
1051.1093,0.106876
1052.9729,0.096383
1054.8366,0.084746
1056.7003,0.076491
1058.5639,0.072535
1060.4276,0.071570
1062.2913,0.072001
1064.1550,0.072984
1066.0186,0.074436
1067.8823,0.076214
1069.7460,0.078293
1071.6096,0.080651
1073.4733,0.083037
1075.3370,0.085485
1077.2006,0.088243
1079.0643,0.091414
1080.9280,0.094925
1082.7916,0.098426
1084.6553,0.101515
1086.5190,0.104113
1088.3826,0.106336
1090.2463,0.109058
1092.1100,0.113214
1093.9737,0.118804
1095.8373,0.125450
1097.7010,0.132885
1099.5647,0.140843
1101.4283,0.148615
1103.2920,0.154884
1105.1557,0.158133
1107.0193,0.156935
1108.8830,0.150518
1110.7467,0.139691
1112.6103,0.126745
1114.4740,0.113875
1116.3377,0.102415
1118.2014,0.093228
1120.0650,0.086758
1121.9287,0.082756
1123.7924,0.080419
1125.6560,0.078927
1127.5197,0.077506
1129.3834,0.075652
1131.2470,0.073234
1133.1107,0.070545
1134.9744,0.068175
1136.8380,0.066586
1138.7017,0.065888
1140.5654,0.065844
1142.4290,0.066085
1144.2927,0.066472
1146.1564,0.067090
1148.0201,0.067903
1149.8837,0.068861
1151.7474,0.070019
1153.6111,0.071444
1155.4747,0.073211
1157.3384,0.075336
1159.2021,0.077620
1161.0657,0.079615
1162.9294,0.081176
1164.7931,0.082581
1166.6567,0.084066
1168.5204,0.085800
1170.3841,0.087733
1172.2477,0.088926
1174.1114,0.087739
1175.9751,0.083631
1177.8388,0.078295
1179.7024,0.074006
1181.5661,0.071645
1183.4298,0.070707
1185.2934,0.070642
1187.1571,0.071034
1189.0208,0.071424
1190.8844,0.071785
1192.7481,0.072260
1194.6118,0.072854
1196.4754,0.073652
1198.3391,0.074807
1200.2028,0.075941
1202.0665,0.076349
1203.9301,0.075600
1205.7938,0.074131
1207.6575,0.073050
1209.5211,0.072908
1211.3848,0.073369
1213.2485,0.073964
1215.1121,0.074628
1216.9758,0.075362
1218.8395,0.076108
1220.7031,0.076767
1222.5668,0.077381
1224.4305,0.078028
1226.2941,0.078588
1228.1578,0.079246
1230.0215,0.079995
1231.8852,0.080646
1233.7488,0.081326
1235.6125,0.082038
1237.4762,0.082818
1239.3398,0.083701
1241.2035,0.084606
1243.0672,0.085620
1244.9308,0.086718
1246.7945,0.087791
1248.6582,0.088957
1250.5218,0.090203
1252.3855,0.091402
1254.2492,0.092539
1256.1129,0.093336
1257.9765,0.093626
1259.8402,0.093978
1261.7039,0.094795
1263.5675,0.095924
1265.4312,0.097127
1267.2949,0.098089
1269.1585,0.098652
1271.0222,0.099047
1272.8859,0.099613
1274.7495,0.100568
1276.6132,0.101908
1278.4769,0.103446
1280.3405,0.104883
1282.2042,0.105904
1284.0679,0.106619
1285.9316,0.107688
1287.7952,0.109771
1289.6589,0.112773
1291.5226,0.116475
1293.3862,0.120952
1295.2499,0.126335
1297.1136,0.132759
1298.9772,0.140249
1300.8409,0.148882
1302.7046,0.157558
1304.5682,0.162805
1306.4319,0.160154
1308.2956,0.146440
1310.1592,0.124211
1312.0229,0.102806
1313.8866,0.089481
1315.7503,0.084536
1317.6139,0.084194
1319.4776,0.085871
1321.3413,0.088374
1323.2049,0.091486
1325.0686,0.095257
1326.9323,0.099224
1328.7959,0.102857
1330.6596,0.105795
1332.5233,0.107543
1334.3869,0.107534
1336.2506,0.106332
1338.1143,0.105375
1339.9780,0.104944
1341.8416,0.103961
1343.7053,0.103155
1345.5690,0.103462
1347.4326,0.104632
1349.2963,0.106631
1351.1600,0.109181
1353.0236,0.112217
1354.8873,0.115943
1356.7510,0.119489
1358.6146,0.121832
1360.4783,0.123576
1362.3420,0.126399
1364.2056,0.129243
1366.0693,0.131078
1367.9330,0.134672
1369.7967,0.139258
1371.6603,0.143050
1373.5240,0.148497
1375.3877,0.154952
1377.2513,0.159458
1379.1150,0.164893
1380.9787,0.171698
1382.8423,0.178588
1384.7060,0.185829
1386.5697,0.195240
1388.4333,0.205971
1390.2970,0.211003
1392.1607,0.211704
1394.0244,0.210031
1395.8880,0.203703
1397.7517,0.194206
1399.6154,0.183923
1401.4790,0.174489
1403.3427,0.165394
1405.2064,0.152107
1407.0700,0.134849
1408.9337,0.117479
1410.7974,0.101492
1412.6610,0.090506
1414.5247,0.085912
1416.3884,0.086073
1418.2520,0.090579
1420.1157,0.098270
1421.9794,0.101303
1423.8431,0.097825
1425.7067,0.087762
1427.5704,0.077504
1429.4341,0.071221
1431.2977,0.068873
1433.1614,0.068969
1435.0251,0.070726
1436.8887,0.074989
1438.7524,0.078002
1440.6161,0.079001
1442.4797,0.080938
1444.3434,0.083000
1446.2071,0.084798
1448.0707,0.086186
1449.9344,0.084777
1451.7981,0.080403
1453.6618,0.075631
1455.5254,0.074024
1457.3891,0.078546
1459.2528,0.082086
1461.1164,0.081471
1462.9801,0.081702
1464.8438,0.083117
1466.7074,0.083073
1468.5711,0.081095
1470.4348,0.079925
1472.2984,0.081102
1474.1621,0.083117
1476.0258,0.083554
1477.8895,0.083845
1479.7531,0.083974
1481.6168,0.084733
1483.4805,0.084988
1485.3441,0.084498
1487.2078,0.084645
1489.0715,0.086210
1490.9351,0.087430
1492.7988,0.086046
1494.6625,0.084883
1496.5261,0.086127
1498.3898,0.087813
1500.2535,0.087660
1502.1171,0.086292
1503.9808,0.085056
1505.8445,0.086526
1507.7082,0.093337
1509.5718,0.094049
1511.4355,0.093253
1513.2992,0.093327
1515.1628,0.094005
1517.0265,0.095960
1518.8902,0.097063
1520.7538,0.098664
1522.6175,0.102390
1524.4812,0.102919
1526.3448,0.104129
1528.2085,0.105513
1530.0722,0.105764
1531.9359,0.107026
1533.7995,0.110555
1535.6632,0.111306
1537.5269,0.110309
1539.3905,0.114201
1541.2542,0.123007
1543.1179,0.125064
1544.9815,0.127017
1546.8452,0.128394
1548.7089,0.129781
1550.5725,0.133022
1552.4362,0.135337
1554.2999,0.136875
1556.1635,0.138830
1558.0272,0.143856
1559.8909,0.159391
1561.7546,0.158667
1563.6182,0.156934
1565.4819,0.159148
1567.3456,0.162016
1569.2092,0.166830
1571.0729,0.172871
1572.9366,0.173854
1574.8002,0.176372
1576.6639,0.184292
1578.5276,0.189177
1580.3912,0.189785
1582.2549,0.191562
1584.1186,0.192921
1585.9822,0.193432
1587.8459,0.193085
1589.7096,0.192212
1591.5733,0.190465
1593.4369,0.188364
1595.3006,0.186355
1597.1643,0.184446
1599.0279,0.182114
1600.8916,0.180069
1602.7553,0.178404
1604.6189,0.176559
1606.4826,0.174762
1608.3463,0.173424
1610.2099,0.171527
1612.0736,0.168094
1613.9373,0.163396
1615.8010,0.157867
1617.6646,0.150934
1619.5283,0.144422
1621.3920,0.138159
1623.2556,0.130145
1625.1193,0.121918
1626.9830,0.114280
1628.8466,0.104976
1630.7103,0.095964
1632.5740,0.088184
1634.4376,0.079964
1636.3013,0.071271
1638.1650,0.067260
1640.0286,0.066247
1641.8923,0.065099
1643.7560,0.064948
1645.6197,0.066118
1647.4833,0.068609
1649.3470,0.069490
1651.2107,0.070282
1653.0743,0.073968
1654.9380,0.078750
1656.8017,0.078211
1658.6653,0.078048
1660.5290,0.077738
1662.3927,0.077178
1664.2563,0.076026
1666.1200,0.074613
1667.9837,0.073399
1669.8474,0.072945
1671.7110,0.073082
1673.5747,0.074314
1675.4384,0.077839
1677.3020,0.082211
1679.1657,0.085046
1681.0294,0.088995
1682.8930,0.092677
1684.7567,0.097729
1686.6204,0.099090
1688.4840,0.096132
1690.3477,0.092173
1692.2114,0.087535
1694.0750,0.082415
1695.9387,0.076982
1697.8024,0.072260
1699.6661,0.068817
1701.5297,0.062086
1703.3934,0.057121
1705.2571,0.050214
1707.1207,0.041671
1708.9844,0.036229
1710.8481,0.032245
1712.7117,0.028800
1714.5754,0.026386
1716.4391,0.024365
1718.3027,0.023312
1720.1664,0.022484
1722.0301,0.021803
1723.8937,0.020292
1725.7574,0.018444
1727.6211,0.016584
1729.4848,0.015065
1731.3484,0.013594
1733.2121,0.012583
1735.0758,0.011544
1736.9394,0.011164
1738.8031,0.010963
1740.6668,0.010843
1742.5304,0.010582
1744.3941,0.010408
1746.2578,0.009924
1748.1214,0.009622
1749.9851,0.009398
1751.8488,0.009159
1753.7125,0.008799
1755.5761,0.008796
1757.4398,0.008817
1759.3035,0.008897
1761.1671,0.008806
1763.0308,0.008819
1764.8945,0.008731
1766.7581,0.008720
1768.6218,0.008588
1770.4855,0.008400
1772.3491,0.008129
1774.2128,0.008381
1776.0765,0.008534
1777.9401,0.008606
1779.8038,0.008556
1781.6675,0.008741
1783.5312,0.008704
1785.3948,0.008790
1787.2585,0.008798
1789.1222,0.008735
1790.9858,0.008453
1792.8495,0.008606
1794.7132,0.008734
1796.5768,0.008774
1798.4405,0.008599
1800.3042,0.008670
1802.1678,0.008786
1804.0315,0.008940
1805.8952,0.008963
1807.7589,0.009005
1809.6225,0.008891
1811.4862,0.008937
1813.3499,0.008946
1815.2135,0.009053
1817.0772,0.008980
1818.9409,0.009075
1820.8045,0.009064
1822.6682,0.009017
1824.5319,0.008935
1826.3955,0.008926
1828.2592,0.008766
1830.1229,0.008879
1831.9865,0.008694
1833.8502,0.008643
1835.7139,0.008741
1837.5776,0.008820
1839.4412,0.008660
1841.3049,0.008782
1843.1686,0.008950
1845.0322,0.008988
1846.8959,0.008796
1848.7596,0.008976
1850.6232,0.009065
1852.4869,0.009106
1854.3506,0.009040
1856.2142,0.009209
1858.0779,0.009254
1859.9416,0.009433
1861.8052,0.009442
1863.6689,0.009634
1865.5326,0.009506
1867.3963,0.009216
1869.2599,0.009025
1871.1236,0.009107
1872.9873,0.009016
1874.8509,0.009029
1876.7146,0.009180
1878.5783,0.009503
1880.4419,0.009613
1882.3056,0.009555
1884.1693,0.009151
1886.0329,0.009168
1887.8966,0.009236
1889.7603,0.009281
1891.6240,0.009114
1893.4876,0.009247
1895.3513,0.009575
1897.2150,0.009645
1899.0786,0.009274
1900.9423,0.009601
1902.8060,0.009809
1904.6696,0.009597
1906.5333,0.009240
1908.3970,0.009315
1910.2606,0.009375
1912.1243,0.009516
1913.9880,0.009529
1915.8516,0.009577
1917.7153,0.009220
1919.5790,0.009466
1921.4427,0.009416
1923.3063,0.009650
1925.1700,0.009303
1927.0337,0.009431
1928.8973,0.009739
1930.7610,0.009671
1932.6247,0.009379
1934.4883,0.009157
1936.3520,0.008776
1938.2157,0.008897
1940.0793,0.008617
1941.9430,0.009007
1943.8067,0.008606
1945.6704,0.007752
1947.5340,0.007320
1949.3977,0.007971
1951.2614,0.007981
1953.1250,0.007924
1954.9887,0.007908
1956.8524,0.007162
1958.7160,0.006684
1960.5797,0.007989
1962.4434,0.007179
1964.3070,0.005243
1966.1707,0.003732
1968.0344,0.003487
1969.8980,0.003128
1971.7617,0.003272
1973.6254,0.003379
1975.4891,0.004475
1977.3527,0.005141
1979.2164,0.006612
1981.0801,0.007061
1982.9437,0.007226
1984.8074,0.007006
1986.6711,0.006478
1988.5347,0.006214
1990.3984,0.007856
1992.2621,0.008519
1994.1257,0.007717
1995.9894,0.006664
1997.8531,0.006828
1999.7167,0.007313
2001.5804,0.007987
2003.4441,0.008244
2005.3078,0.007934
2007.1714,0.006032
2009.0351,0.005443
2010.8988,0.005434
2012.7624,0.006341
2014.6261,0.005765
2016.4898,0.005672
2018.3534,0.005707
2020.2171,0.006049
2022.0808,0.005823
2023.9444,0.005877
2025.8081,0.005971
2027.6718,0.005845
2029.5355,0.005781
2031.3991,0.006762
2033.2628,0.005543
2035.1265,0.006479
2036.9901,0.007812
2038.8538,0.007019
2040.7175,0.006503
2042.5811,0.007952
2044.4448,0.008431
2046.3085,0.008944
2048.1721,0.009737
2050.0358,0.010983
2051.8995,0.010650
2053.7631,0.009904
2055.6268,0.009343
2057.4905,0.010147
2059.3542,0.011015
2061.2178,0.011273
2063.0815,0.011071
2064.9452,0.011347
2066.8088,0.011400
2068.6725,0.011137
2070.5362,0.010838
2072.3998,0.011470
2074.2635,0.011550
2076.1272,0.011713
2077.9908,0.011923
2079.8545,0.012080
2081.7182,0.012238
2083.5819,0.012396
2085.4455,0.012509
2087.3092,0.013120
2089.1729,0.013189
2091.0365,0.012274
2092.9002,0.011664
2094.7639,0.012502
2096.6275,0.013340
2098.4912,0.013633
2100.3549,0.012793
2102.2185,0.012810
2104.0822,0.012942
2105.9459,0.012938
2107.8095,0.013100
2109.6732,0.013238
2111.5369,0.012846
2113.4006,0.012871
2115.2642,0.013371
2117.1279,0.013335
2118.9916,0.012954
2120.8552,0.013337
2122.7189,0.013354
2124.5826,0.013279
2126.4462,0.013032
2128.3099,0.012784
2130.1736,0.012393
2132.0372,0.012428
2133.9009,0.012206
2135.7646,0.011501
2137.6282,0.011552
2139.4919,0.012142
2141.3556,0.011187
2143.2193,0.010965
2145.0829,0.010761
2146.9466,0.010540
2148.8103,0.009359
2150.6739,0.008371
2152.5376,0.008315
2154.4013,0.007160
2156.2649,0.004062
2158.1286,0.004336
2159.9923,0.005154
2161.8559,0.005494
2163.7196,0.006719
2165.5833,0.008796
2167.4470,0.009744
2169.3106,0.008797
2171.1743,0.007840
2173.0380,0.009175
2174.9016,0.009802
2176.7653,0.009882
2178.6290,0.009391
2180.4926,0.009155
2182.3563,0.009333
2184.2200,0.010173
2186.0836,0.010395
2187.9473,0.010809
2189.8110,0.011338
2191.6746,0.011920
2193.5383,0.011910
2195.4020,0.012001
2197.2657,0.011614
2199.1293,0.011120
2200.9930,0.011340
2202.8567,0.012577
2204.7203,0.013176
2206.5840,0.013036
2208.4477,0.012148
2210.3113,0.012818
2212.1750,0.012545
2214.0387,0.012794
2215.9023,0.013380
2217.7660,0.013567
2219.6297,0.013597
2221.4934,0.013311
2223.3570,0.013618
2225.2207,0.015156
2227.0844,0.014627
2228.9480,0.013802
2230.8117,0.014150
2232.6754,0.014812
2234.5390,0.015100
2236.4027,0.015466
2238.2664,0.015726
2240.1300,0.015908
2241.9937,0.015362
2243.8574,0.015737
2245.7210,0.016155
2247.5847,0.016298
2249.4484,0.016272
2251.3121,0.016435
2253.1757,0.016892
2255.0394,0.016761
2256.9031,0.016337
2258.7667,0.017011
2260.6304,0.017702
2262.4941,0.017527
2264.3577,0.017060
2266.2214,0.017627
2268.0851,0.018889
2269.9487,0.019094
2271.8124,0.019231
2273.6761,0.019512
2275.5397,0.019545
2277.4034,0.020079
2279.2671,0.020345
2281.1308,0.020375
2282.9944,0.021087
2284.8581,0.021521
2286.7218,0.021182
2288.5854,0.021048
2290.4491,0.020940
2292.3128,0.020922
2294.1764,0.020901
2296.0401,0.021102
2297.9038,0.021308
2299.7674,0.021283
2301.6311,0.021333
2303.4948,0.021498
2305.3585,0.021723
2307.2221,0.021678
2309.0858,0.021746
2310.9495,0.021727
2312.8131,0.021214
2314.6768,0.020916
2316.5405,0.021084
2318.4041,0.021496
2320.2678,0.021630
2322.1315,0.021580
2323.9951,0.021840
2325.8588,0.021780
2327.7225,0.021082
2329.5861,0.020823
2331.4498,0.020661
2333.3135,0.020397
2335.1772,0.020121
2337.0408,0.020267
2338.9045,0.020669
2340.7682,0.020786
2342.6318,0.021179
2344.4955,0.021318
2346.3592,0.021133
2348.2228,0.020737
2350.0865,0.020196
2351.9502,0.020303
2353.8138,0.020466
2355.6775,0.020746
2357.5412,0.020829
2359.4049,0.020622
2361.2685,0.020140
2363.1322,0.020051
2364.9959,0.020371
2366.8595,0.020810
2368.7232,0.021381
2370.5869,0.021621
2372.4505,0.021337
2374.3142,0.021252
2376.1779,0.021468
2378.0415,0.021550
2379.9052,0.021510
2381.7689,0.021558
2383.6325,0.021627
2385.4962,0.021700
2387.3599,0.021709
2389.2236,0.021836
2391.0872,0.021850
2392.9509,0.021825
2394.8146,0.022260
2396.6782,0.022373
2398.5419,0.022206
2400.4056,0.022131
2402.2692,0.022174
2404.1329,0.022225
2405.9966,0.022257
2407.8602,0.022409
2409.7239,0.022595
2411.5876,0.022454
2413.4512,0.022408
2415.3149,0.022581
2417.1786,0.022572
2419.0423,0.022882
2420.9059,0.023085
2422.7696,0.023010
2424.6333,0.023065
2426.4969,0.023143
2428.3606,0.022980
2430.2243,0.022922
2432.0879,0.023136
2433.9516,0.023268
2435.8153,0.022814
2437.6789,0.022668
2439.5426,0.023298
2441.4063,0.023642
2443.2700,0.023358
2445.1336,0.023236
2446.9973,0.023223
2448.8610,0.023487
2450.7246,0.023815
2452.5883,0.023911
2454.4520,0.023568
2456.3156,0.023360
2458.1793,0.023614
2460.0430,0.023512
2461.9066,0.022866
2463.7703,0.023072
2465.6340,0.023381
2467.4976,0.023304
2469.3613,0.023183
2471.2250,0.023405
2473.0887,0.023458
2474.9523,0.023633
2476.8160,0.023637
2478.6797,0.023860
2480.5433,0.024205
2482.4070,0.024200
2484.2707,0.024277
2486.1343,0.024278
2487.9980,0.024131
2489.8617,0.024330
2491.7253,0.024575
2493.5890,0.024826
2495.4527,0.024787
2497.3164,0.025124
2499.1800,0.025663
2501.0437,0.025190
2502.9074,0.025013
2504.7710,0.025115
2506.6347,0.024814
2508.4984,0.025217
2510.3620,0.025334
2512.2257,0.024834
2514.0894,0.025134
2515.9530,0.025621
2517.8167,0.025877
2519.6804,0.026021
2521.5440,0.025801
2523.4077,0.025976
2525.2714,0.026343
2527.1351,0.026519
2528.9987,0.026596
2530.8624,0.026484
2532.7261,0.026371
2534.5897,0.026582
2536.4534,0.026497
2538.3171,0.026134
2540.1807,0.026116
2542.0444,0.026653
2543.9081,0.026787
2545.7717,0.027002
2547.6354,0.026949
2549.4991,0.026391
2551.3627,0.026139
2553.2264,0.026573
2555.0901,0.026729
2556.9538,0.026592
2558.8174,0.026473
2560.6811,0.026687
2562.5448,0.027238
2564.4084,0.027309
2566.2721,0.027223
2568.1358,0.027215
2569.9994,0.027195
2571.8631,0.027737
2573.7268,0.027986
2575.5904,0.027979
2577.4541,0.028154
2579.3178,0.028201
2581.1815,0.028399
2583.0451,0.028776
2584.9088,0.028915
2586.7725,0.028880
2588.6361,0.028904
2590.4998,0.029319
2592.3635,0.029739
2594.2271,0.029699
2596.0908,0.029728
2597.9545,0.030031
2599.8181,0.030232
2601.6818,0.030364
2603.5455,0.030545
2605.4091,0.030729
2607.2728,0.031013
2609.1365,0.030815
2611.0002,0.030662
2612.8638,0.030868
2614.7275,0.030833
2616.5912,0.031001
2618.4548,0.031429
2620.3185,0.031601
2622.1822,0.031508
2624.0458,0.031694
2625.9095,0.032065
2627.7732,0.032358
2629.6368,0.032517
2631.5005,0.032594
2633.3642,0.032922
2635.2279,0.033251
2637.0915,0.033367
2638.9552,0.033699
2640.8189,0.033793
2642.6825,0.033826
2644.5462,0.034211
2646.4099,0.034421
2648.2735,0.034357
2650.1372,0.034250
2652.0009,0.034349
2653.8645,0.034540
2655.7282,0.034702
2657.5919,0.034905
2659.4555,0.034917
2661.3192,0.034852
2663.1829,0.034763
2665.0466,0.034719
2666.9102,0.034831
2668.7739,0.034961
2670.6376,0.035061
2672.5012,0.035083
2674.3649,0.035159
2676.2286,0.035484
2678.0922,0.035866
2679.9559,0.036027
2681.8196,0.036134
2683.6832,0.036488
2685.5469,0.036675
2687.4106,0.036831
2689.2742,0.037098
2691.1379,0.037252
2693.0016,0.037406
2694.8653,0.037659
2696.7289,0.037999
2698.5926,0.038258
2700.4563,0.038652
2702.3199,0.039013
2704.1836,0.039329
2706.0473,0.039653
2707.9109,0.039877
2709.7746,0.040150
2711.6383,0.040437
2713.5019,0.040820
2715.3656,0.040993
2717.2293,0.041029
2719.0930,0.041326
2720.9566,0.041764
2722.8203,0.042027
2724.6840,0.042364
2726.5476,0.042930
2728.4113,0.043388
2730.2750,0.043765
2732.1386,0.043996
2734.0023,0.044170
2735.8660,0.044697
2737.7296,0.045287
2739.5933,0.045700
2741.4570,0.046018
2743.3206,0.046324
2745.1843,0.046599
2747.0480,0.047060
2748.9117,0.047777
2750.7753,0.048265
2752.6390,0.048718
2754.5027,0.049012
2756.3663,0.049431
2758.2300,0.050172
2760.0937,0.050903
2761.9573,0.051313
2763.8210,0.051876
2765.6847,0.052607
2767.5483,0.053270
2769.4120,0.053718
2771.2757,0.054204
2773.1394,0.054676
2775.0030,0.055405
2776.8667,0.056075
2778.7304,0.056492
2780.5940,0.056769
2782.4577,0.056858
2784.3214,0.056599
2786.1850,0.056193
2788.0487,0.055844
2789.9124,0.055659
2791.7760,0.055495
2793.6397,0.054791
2795.5034,0.053921
2797.3670,0.053458
2799.2307,0.053123
2801.0944,0.052645
2802.9581,0.052046
2804.8217,0.051565
2806.6854,0.050965
2808.5491,0.050582
2810.4127,0.050848
2812.2764,0.051114
2814.1401,0.050837
2816.0037,0.050996
2817.8674,0.051275
2819.7311,0.051413
2821.5947,0.051468
2823.4584,0.051376
2825.3221,0.051131
2827.1857,0.050597
2829.0494,0.050145
2830.9131,0.049987
2832.7768,0.049944
2834.6404,0.050136
2836.5041,0.050237
2838.3678,0.050449
2840.2314,0.050891
2842.0951,0.051229
2843.9588,0.051280
2845.8224,0.051609
2847.6861,0.052258
2849.5498,0.053092
2851.4134,0.053524
2853.2771,0.054020
2855.1408,0.054902
2857.0045,0.055441
2858.8681,0.055638
2860.7318,0.056023
2862.5955,0.056424
2864.4591,0.056620
2866.3228,0.056833
2868.1865,0.057119
2870.0501,0.057342
2871.9138,0.057602
2873.7775,0.057935
2875.6411,0.058466
2877.5048,0.058973
2879.3685,0.059198
2881.2321,0.059553
2883.0958,0.060147
2884.9595,0.060467
2886.8232,0.060853
2888.6868,0.061286
2890.5505,0.061588
2892.4142,0.061947
2894.2778,0.062339
2896.1415,0.062846
2898.0052,0.063218
2899.8688,0.063344
2901.7325,0.063133
2903.5962,0.062844
2905.4598,0.062864
2907.3235,0.063262
2909.1872,0.063829
2911.0509,0.064193
2912.9145,0.064792
2914.7782,0.065448
2916.6419,0.066014
2918.5055,0.066804
2920.3692,0.067648
2922.2329,0.068321
2924.0965,0.068969
2925.9602,0.069464
2927.8239,0.069907
2929.6875,0.070289
2931.5512,0.070642
2933.4149,0.071289
2935.2785,0.071871
2937.1422,0.072066
2939.0059,0.072306
2940.8696,0.072516
2942.7332,0.072644
2944.5969,0.073095
2946.4606,0.073632
2948.3242,0.073823
2950.1879,0.074085
2952.0516,0.074286
2953.9152,0.074649
2955.7789,0.074902
2957.6426,0.075075
2959.5062,0.075820
2961.3699,0.076608
2963.2336,0.076872
2965.0972,0.077525
2966.9609,0.078438
2968.8246,0.079269
2970.6883,0.079812
2972.5519,0.080508
2974.4156,0.081420
2976.2793,0.081961
2978.1429,0.082349
2980.0066,0.082936
2981.8703,0.083113
2983.7339,0.082766
2985.5976,0.083235
2987.4613,0.084143
2989.3249,0.084583
2991.1886,0.084825
2993.0523,0.085090
2994.9160,0.085796
2996.7796,0.086746
2998.6433,0.087824
3000.5070,0.088574
3002.3706,0.088872
3004.2343,0.089431
3006.0980,0.090180
3007.9616,0.090672
3009.8253,0.091186
3011.6890,0.092022
3013.5526,0.092836
3015.4163,0.093247
3017.2800,0.093672
3019.1436,0.093916
3021.0073,0.094003
3022.8710,0.094444
3024.7347,0.094838
3026.5983,0.094770
3028.4620,0.094808
3030.3257,0.094917
3032.1893,0.095356
3034.0530,0.095359
3035.9167,0.095295
3037.7803,0.095536
3039.6440,0.095993
3041.5077,0.096197
3043.3713,0.096467
3045.2350,0.096789
3047.0987,0.097018
3048.9624,0.097226
3050.8260,0.097343
3052.6897,0.097505
3054.5534,0.097936
3056.4170,0.097844
3058.2807,0.097885
3060.1444,0.098083
3062.0080,0.098150
3063.8717,0.097675
3065.7354,0.097495
3067.5990,0.097609
3069.4627,0.097236
3071.3264,0.097050
3073.1900,0.097280
3075.0537,0.096846
3076.9174,0.096412
3078.7811,0.096546
3080.6447,0.096701
3082.5084,0.096273
3084.3721,0.095520
3086.2357,0.095381
3088.0994,0.094923
3089.9631,0.093753
3091.8267,0.093294
3093.6904,0.092544
3095.5541,0.091338
3097.4177,0.090360
3099.2814,0.089638
3101.1451,0.088974
3103.0087,0.088553
3104.8724,0.087986
3106.7361,0.087137
3108.5998,0.086413
3110.4634,0.085812
3112.3271,0.084848
3114.1908,0.083714
3116.0544,0.082811
3117.9181,0.082520
3119.7818,0.082102
3121.6454,0.081362
3123.5091,0.080435
3125.3728,0.079181
3127.2364,0.078290
3129.1001,0.078139
3130.9638,0.077854
3132.8275,0.077154
3134.6911,0.076153
3136.5548,0.075464
3138.4185,0.075416
3140.2821,0.075623
3142.1458,0.075354
3144.0095,0.074480
3145.8731,0.074109
3147.7368,0.073937
3149.6005,0.073484
3151.4641,0.073231
3153.3278,0.073377
3155.1915,0.073371
3157.0551,0.072466
3158.9188,0.071679
3160.7825,0.071113
3162.6462,0.070692
3164.5098,0.070483
3166.3735,0.070289
3168.2372,0.069925
3170.1008,0.069421
3171.9645,0.068246
3173.8282,0.067516
3175.6918,0.067225
3177.5555,0.067052
3179.4192,0.066817
3181.2828,0.066123
3183.1465,0.065430
3185.0102,0.065689
3186.8739,0.066084
3188.7375,0.065819
3190.6012,0.065249
3192.4649,0.065166
3194.3285,0.065105
3196.1922,0.065151
3198.0559,0.065428
3199.9195,0.065843
3201.7832,0.066003
3203.6469,0.066145
3205.5105,0.065871
3207.3742,0.065557
3209.2379,0.065584
3211.1015,0.065994
3212.9652,0.066212
3214.8289,0.066167
3216.6926,0.065893
3218.5562,0.065526
3220.4199,0.065554
3222.2836,0.065595
3224.1472,0.065005
3226.0109,0.064549
3227.8746,0.064149
3229.7382,0.064040
3231.6019,0.064397
3233.4656,0.064965
3235.3292,0.065242
3237.1929,0.065615
3239.0566,0.065700
3240.9202,0.065401
3242.7839,0.065562
3244.6476,0.065746
3246.5113,0.065845
3248.3749,0.066592
3250.2386,0.067655
3252.1023,0.067668
3253.9659,0.067208
3255.8296,0.067387
3257.6933,0.067682
3259.5569,0.067888
3261.4206,0.068016
3263.2843,0.068946
3265.1479,0.069518
3267.0116,0.069120
3268.8753,0.069275
3270.7390,0.069909
3272.6026,0.069658
3274.4663,0.069170
3276.3300,0.069081
3278.1936,0.068612
3280.0573,0.067765
3281.9210,0.067707
3283.7846,0.067403
3285.6483,0.066248
3287.5120,0.065821
3289.3756,0.065780
3291.2393,0.064786
3293.1030,0.064183
3294.9666,0.063908
3296.8303,0.063286
3298.6940,0.062365
3300.5577,0.061430
3302.4213,0.061119
3304.2850,0.060460
3306.1487,0.059640
3308.0123,0.059827
3309.8760,0.059404
3311.7397,0.059040
3313.6033,0.058963
3315.4670,0.059154
3317.3307,0.059335
3319.1943,0.058792
3321.0580,0.058592
3322.9217,0.058859
3324.7854,0.059387
3326.6490,0.060068
3328.5127,0.060007
3330.3764,0.059806
3332.2400,0.059706
3334.1037,0.059308
3335.9674,0.058527
3337.8310,0.057000
3339.6947,0.055523
3341.5584,0.054931
3343.4220,0.054616
3345.2857,0.053762
3347.1494,0.052049
3349.0130,0.050326
3350.8767,0.049852
3352.7404,0.049438
3354.6041,0.047701
3356.4677,0.046349
3358.3314,0.045977
3360.1951,0.045342
3362.0587,0.044671
3363.9224,0.044731
3365.7861,0.044585
3367.6497,0.043821
3369.5134,0.043229
3371.3771,0.043956
3373.2407,0.044597
3375.1044,0.044160
3376.9681,0.044013
3378.8317,0.044529
3380.6954,0.045015
3382.5591,0.045505
3384.4228,0.045516
3386.2864,0.045593
3388.1501,0.046615
3390.0138,0.047420
3391.8774,0.048769
3393.7411,0.050128
3395.6048,0.050118
3397.4684,0.049813
3399.3321,0.049306
3401.1958,0.048662
3403.0594,0.048181
3404.9231,0.047080
3406.7868,0.046027
3408.6505,0.044398
3410.5141,0.042152
3412.3778,0.040344
3414.2415,0.038331
3416.1051,0.036459
3417.9688,0.035025
3419.8325,0.032791
3421.6961,0.030771
3423.5598,0.029943
3425.4235,0.028990
3427.2871,0.028412
3429.1508,0.027774
3431.0145,0.026549
3432.8781,0.025751
3434.7418,0.025230
3436.6055,0.023828
3438.4692,0.022608
3440.3328,0.022169
3442.1965,0.021820
3444.0602,0.021258
3445.9238,0.020408
3447.7875,0.019334
3449.6512,0.018571
3451.5148,0.019228
3453.3785,0.019812
3455.2422,0.019625
3457.1058,0.018772
3458.9695,0.017296
3460.8332,0.017561
3462.6969,0.017783
3464.5605,0.016604
3466.4242,0.016313
3468.2879,0.016089
3470.1515,0.015184
3472.0152,0.014752
3473.8789,0.015144
3475.7425,0.015573
3477.6062,0.015273
3479.4699,0.014519
3481.3335,0.014086
3483.1972,0.014270
3485.0609,0.014137
3486.9245,0.013541
3488.7882,0.013551
3490.6519,0.013238
3492.5156,0.011652
3494.3792,0.010877
3496.2429,0.011788
3498.1066,0.012451
3499.9702,0.011929
3501.8339,0.011670
3503.6976,0.011347
3505.5612,0.009598
3507.4249,0.008612
3509.2886,0.008925
3511.1522,0.008678
3513.0159,0.008077
3514.8796,0.008238
3516.7432,0.009250
3518.6069,0.009613
3520.4706,0.009114
3522.3343,0.008497
3524.1979,0.007718
3526.0616,0.006978
3527.9253,0.006572
3529.7889,0.007422
3531.6526,0.008068
3533.5163,0.007349
3535.3799,0.006508
3537.2436,0.006082
3539.1073,0.006312
3540.9709,0.007072
3542.8346,0.006543
3544.6983,0.005188
3546.5620,0.005005
3548.4256,0.005700
3550.2893,0.005874
3552.1530,0.004993
3554.0166,0.004887
3555.8803,0.005671
3557.7440,0.006234
3559.6076,0.006334
3561.4713,0.005552
3563.3350,0.004391
3565.1986,0.003321
3567.0623,0.002164
3568.9260,0.002216
3570.7896,0.004071
3572.6533,0.005477
3574.5170,0.005419
3576.3807,0.004595
3578.2443,0.004215
3580.1080,0.003948
3581.9717,0.004414
3583.8353,0.004954
3585.6990,0.004497
3587.5627,0.004251
3589.4263,0.004262
3591.2900,0.003943
3593.1537,0.003729
3595.0173,0.004255
3596.8810,0.005312
3598.7447,0.005395
3600.6084,0.004537
3602.4720,0.004045
3604.3357,0.004793
3606.1994,0.005861
3608.0630,0.005306
3609.9267,0.003854
3611.7904,0.003964
3613.6540,0.004571
3615.5177,0.004087
3617.3814,0.003616
3619.2450,0.004357
3621.1087,0.005311
3622.9724,0.005768
3624.8360,0.006134
3626.6997,0.005913
3628.5634,0.004920
3630.4271,0.004074
3632.2907,0.004505
3634.1544,0.005396
3636.0181,0.006057
3637.8817,0.006169
3639.7454,0.005998
3641.6091,0.006008
3643.4727,0.006065
3645.3364,0.005488
3647.2001,0.004179
3649.0637,0.003256
3650.9274,0.003163
3652.7911,0.003981
3654.6547,0.005023
3656.5184,0.004972
3658.3821,0.004884
3660.2458,0.006118
3662.1094,0.006938
3663.9731,0.006604
3665.8368,0.005996
3667.7004,0.005773
3669.5641,0.005480
3671.4278,0.005037
3673.2914,0.004889
3675.1551,0.004142
3677.0188,0.003508
3678.8824,0.004895
3680.7461,0.006482
3682.6098,0.007130
3684.4735,0.006768
3686.3371,0.006103
3688.2008,0.005611
3690.0645,0.005457
3691.9281,0.005648
3693.7918,0.006236
3695.6555,0.006580
3697.5191,0.006250
3699.3828,0.005875
3701.2465,0.005438
3703.1101,0.005964
3704.9738,0.007142
3706.8375,0.006842
3708.7011,0.005960
3710.5648,0.005200
3712.4285,0.004839
3714.2922,0.005791
3716.1558,0.006677
3718.0195,0.007007
3719.8832,0.007354
3721.7468,0.007367
3723.6105,0.006858
3725.4742,0.006200
3727.3378,0.006437
3729.2015,0.007115
3731.0652,0.006549
3732.9288,0.005666
3734.7925,0.005972
3736.6562,0.005816
3738.5199,0.005328
3740.3835,0.006070
3742.2472,0.006272
3744.1109,0.004978
3745.9745,0.003041
3747.8382,0.003439
3749.7019,0.004776
3751.5655,0.005004
3753.4292,0.005662
3755.2929,0.006954
3757.1565,0.007436
3759.0202,0.006902
3760.8839,0.006541
3762.7475,0.007079
3764.6112,0.007312
3766.4749,0.007019
3768.3386,0.007205
3770.2022,0.007855
3772.0659,0.007741
3773.9296,0.007398
3775.7932,0.007386
3777.6569,0.007287
3779.5206,0.007228
3781.3842,0.007257
3783.2479,0.007149
3785.1116,0.007365
3786.9752,0.007938
3788.8389,0.008162
3790.7026,0.008215
3792.5662,0.008047
3794.4299,0.007809
3796.2936,0.007501
3798.1573,0.007056
3800.0209,0.006852
3801.8846,0.006603
3803.7483,0.006845
3805.6119,0.007361
3807.4756,0.007963
3809.3393,0.008328
3811.2029,0.008048
3813.0666,0.007917
3814.9303,0.007442
3816.7939,0.006614
3818.6576,0.006772
3820.5213,0.007209
3822.3850,0.007156
3824.2486,0.007535
3826.1123,0.007907
3827.9760,0.008056
3829.8396,0.007821
3831.7033,0.007288
3833.5670,0.007378
3835.4306,0.007603
3837.2943,0.007138
3839.1580,0.006335
3841.0216,0.006563
3842.8853,0.007621
3844.7490,0.008010
3846.6126,0.007739
3848.4763,0.007713
3850.3400,0.007354
3852.2037,0.006317
3854.0673,0.005843
3855.9310,0.006862
3857.7947,0.007702
3859.6583,0.007755
3861.5220,0.008052
3863.3857,0.008392
3865.2493,0.007862
3867.1130,0.007279
3868.9767,0.006978
3870.8403,0.007084
3872.7040,0.007903
3874.5677,0.008669
3876.4314,0.008696
3878.2950,0.008316
3880.1587,0.008130
3882.0224,0.007853
3883.8860,0.008012
3885.7497,0.008050
3887.6134,0.007847
3889.4770,0.007926
3891.3407,0.007787
3893.2044,0.007985
3895.0680,0.008447
3896.9317,0.008091
3898.7954,0.007653
3900.6590,0.007910
3902.5227,0.007659
3904.3864,0.007312
3906.2501,0.007814
3908.1137,0.008619
3909.9774,0.009039
3911.8411,0.008698
3913.7047,0.008247
3915.5684,0.008500
3917.4321,0.008710
3919.2957,0.008743
3921.1594,0.009094
3923.0231,0.009143
3924.8867,0.008872
3926.7504,0.008818
3928.6141,0.008462
3930.4777,0.008443
3932.3414,0.008611
3934.2051,0.008533
3936.0688,0.009102
3937.9324,0.009389
3939.7961,0.009093
3941.6598,0.008752
3943.5234,0.008604
3945.3871,0.008905
3947.2508,0.009100
3949.1144,0.008884
3950.9781,0.009095
3952.8418,0.009585
3954.7054,0.009254
3956.5691,0.009063
3958.4328,0.009453
3960.2965,0.009016
3962.1601,0.008700
3964.0238,0.009079
3965.8875,0.009296
3967.7511,0.009134
3969.6148,0.008841
3971.4785,0.008586
3973.3421,0.008951
3975.2058,0.009391
3977.0695,0.009484
3978.9331,0.009266
3980.7968,0.009170
3982.6605,0.008999
3984.5241,0.008861
3986.3878,0.009221
3988.2515,0.009210
3990.1152,0.008804
3991.9788,0.008882
3993.8425,0.009783
3995.7062,0.009940
3997.5698,0.009334
3999.4335,0.009100
