Wavenumber,Intensity
650.4205,0.199897
652.2841,0.190797
654.1478,0.185291
656.0115,0.181869
657.8751,0.179321
659.7388,0.176008
661.6025,0.173426
663.4661,0.168655
665.3298,0.164357
667.1935,0.164147
669.0571,0.166569
670.9208,0.165769
672.7845,0.166707
674.6481,0.166620
676.5118,0.166166
678.3755,0.166197
680.2392,0.167031
682.1028,0.167011
683.9665,0.167817
685.8302,0.168013
687.6938,0.167508
689.5575,0.167465
691.4212,0.167237
693.2848,0.167004
695.1485,0.168535
697.0122,0.169723
698.8758,0.170661
700.7395,0.170624
702.6032,0.170641
704.4669,0.169029
706.3305,0.163912
708.1942,0.157076
710.0579,0.149802
711.9215,0.141150
713.7852,0.133872
715.6489,0.127248
717.5125,0.121021
719.3762,0.115762
721.2399,0.111311
723.1035,0.106946
724.9672,0.102828
726.8309,0.098589
728.6945,0.094580
730.5582,0.091385
732.4219,0.088085
734.2856,0.084259
736.1492,0.081822
738.0129,0.080504
739.8766,0.080474
741.7402,0.082213
743.6039,0.084345
745.4676,0.085396
747.3312,0.085599
749.1949,0.085158
751.0586,0.084334
752.9222,0.083316
754.7859,0.082300
756.6496,0.081012
758.5132,0.079848
760.3769,0.079080
762.2406,0.078844
764.1043,0.078609
765.9679,0.078398
767.8316,0.078414
769.6953,0.078423
771.5589,0.078249
773.4226,0.078383
775.2863,0.078996
777.1499,0.079721
779.0136,0.080534
780.8773,0.081692
782.7409,0.083000
784.6046,0.084172
786.4683,0.085528
788.3320,0.087229
790.1956,0.088900
792.0593,0.090596
793.9230,0.092168
795.7866,0.094150
797.6503,0.096386
799.5140,0.097812
801.3776,0.098544
803.2413,0.098891
805.1050,0.098386
806.9686,0.097027
808.8323,0.095104
810.6960,0.092848
812.5596,0.090081
814.4233,0.087177
816.2870,0.084195
818.1507,0.081328
820.0143,0.078820
821.8780,0.076934
823.7417,0.075717
825.6053,0.075713
827.4690,0.077210
829.3327,0.077968
831.1963,0.072946
833.0600,0.062640
834.9237,0.053973
836.7873,0.050096
838.6510,0.048868
840.5147,0.048297
842.3784,0.047748
844.2420,0.047242
846.1057,0.046937
847.9694,0.046718
849.8330,0.046410
851.6967,0.046212
853.5604,0.046344
855.4240,0.046345
857.2877,0.046217
859.1514,0.046180
861.0150,0.046069
862.8787,0.046091
864.7424,0.046206
866.6060,0.046295
868.4697,0.046482
870.3334,0.046452
872.1971,0.046413
874.0607,0.046656
875.9244,0.046824
877.7881,0.046902
879.6517,0.047123
881.5154,0.047358
883.3791,0.047656
885.2427,0.048168
887.1064,0.048570
888.9701,0.048917
890.8337,0.049394
892.6974,0.049961
894.5611,0.050482
896.4247,0.051073
898.2884,0.052018
900.1521,0.053318
902.0158,0.055067
903.8794,0.057341
905.7431,0.060272
907.6068,0.064139
909.4704,0.068710
911.3341,0.074269
913.1978,0.080812
915.0614,0.083818
916.9251,0.076520
918.7888,0.062519
920.6524,0.052079
922.5161,0.047777
924.3798,0.046528
926.2435,0.046278
928.1071,0.046478
929.9708,0.046966
931.8345,0.047515
933.6981,0.048087
935.5618,0.048802
937.4255,0.049439
939.2891,0.049973
941.1528,0.050562
943.0165,0.051129
944.8801,0.051820
946.7438,0.052637
948.6075,0.053334
950.4711,0.054099
952.3348,0.055016
954.1985,0.055942
956.0622,0.056957
957.9258,0.058032
959.7895,0.059010
961.6532,0.059982
963.5168,0.061162
965.3805,0.062579
967.2442,0.064375
969.1078,0.066704
970.9715,0.069213
972.8352,0.072137
974.6988,0.076821
976.5625,0.085007
978.4262,0.099283
980.2899,0.119479
982.1535,0.127539
984.0172,0.104618
985.8809,0.074362
987.7445,0.060770
989.6082,0.058706
991.4719,0.059226
993.3355,0.060239
995.1992,0.061303
997.0629,0.062345
998.9265,0.063359
1000.7902,0.064251
1002.6539,0.065160
1004.5175,0.066129
1006.3812,0.067183
1008.2449,0.068231
1010.1086,0.069152
1011.9722,0.070020
1013.8359,0.070859
1015.6996,0.071631
1017.5632,0.072444
1019.4269,0.073214
1021.2906,0.073944
1023.1542,0.074830
1025.0179,0.075826
1026.8816,0.076795
1028.7452,0.077921
1030.6089,0.079280
1032.4726,0.080646
1034.3362,0.082062
1036.1999,0.083873
1038.0636,0.086035
1039.9273,0.088548
1041.7909,0.091632
1043.6546,0.095194
1045.5183,0.098823
1047.3819,0.101682
1049.2456,0.101902
1051.1093,0.097450
1052.9729,0.089340
1054.8366,0.081417
1056.7003,0.076260
1058.5639,0.073804
1060.4276,0.073042
1062.2913,0.073129
1064.1550,0.073597
1066.0186,0.074380
1067.8823,0.075417
1069.7460,0.076679
1071.6096,0.077989
1073.4733,0.079271
1075.3370,0.080681
1077.2006,0.082242
1079.0643,0.083912
1080.9280,0.085734
1082.7916,0.087848
1084.6553,0.090269
1086.5190,0.092948
1088.3826,0.095889
1090.2463,0.099270
1092.1100,0.103097
1093.9737,0.107320
1095.8373,0.112112
1097.7010,0.117413
1099.5647,0.123264
1101.4283,0.129484
1103.2920,0.135166
1105.1557,0.139152
1107.0193,0.139912
1108.8830,0.136251
1110.7467,0.127965
1112.6103,0.116530
1114.4740,0.104419
1116.3377,0.093426
1118.2014,0.084409
1120.0650,0.077789
1121.9287,0.073357
1123.7924,0.070406
1125.6560,0.068164
1127.5197,0.066104
1129.3834,0.064018
1131.2470,0.062011
1133.1107,0.060448
1134.9744,0.059267
1136.8380,0.058339
1138.7017,0.057757
1140.5654,0.057521
1142.4290,0.057536
1144.2927,0.057654
1146.1564,0.057819
1148.0201,0.058147
1149.8837,0.058631
1151.7474,0.059174
1153.6111,0.059680
1155.4747,0.060313
1157.3384,0.061175
1159.2021,0.062098
1161.0657,0.063263
1162.9294,0.064780
1164.7931,0.066712
1166.6567,0.069293
1168.5204,0.072446
1170.3841,0.075723
1172.2477,0.078019
1174.1114,0.077568
1175.9751,0.073809
1177.8388,0.068629
1179.7024,0.064304
1181.5661,0.061699
1183.4298,0.060561
1185.2934,0.060285
1187.1571,0.060378
1189.0208,0.060515
1190.8844,0.060430
1192.7481,0.060256
1194.6118,0.060234
1196.4754,0.060317
1198.3391,0.060489
1200.2028,0.060688
1202.0665,0.060841
1203.9301,0.061091
1205.7938,0.061456
1207.6575,0.061754
1209.5211,0.062100
1211.3848,0.062671
1213.2485,0.063243
1215.1121,0.063653
1216.9758,0.064125
1218.8395,0.064737
1220.7031,0.065363
1222.5668,0.065920
1224.4305,0.066407
1226.2941,0.066966
1228.1578,0.067586
1230.0215,0.068161
1231.8852,0.068688
1233.7488,0.069238
1235.6125,0.069885
1237.4762,0.070527
1239.3398,0.071036
1241.2035,0.071519
1243.0672,0.072125
1244.9308,0.072731
1246.7945,0.073255
1248.6582,0.073884
1250.5218,0.074564
1252.3855,0.075081
1254.2492,0.075662
1256.1129,0.076471
1257.9765,0.077311
1259.8402,0.078159
1261.7039,0.079138
1263.5675,0.080111
1265.4312,0.080875
1267.2949,0.081395
1269.1585,0.081605
1271.0222,0.081512
1272.8859,0.081445
1274.7495,0.081781
1276.6132,0.082407
1278.4769,0.083145
1280.3405,0.084220
1282.2042,0.085612
1284.0679,0.087190
1285.9316,0.089009
1287.7952,0.091180
1289.6589,0.093658
1291.5226,0.096412
1293.3862,0.099679
1295.2499,0.103651
1297.1136,0.108422
1298.9772,0.114176
1300.8409,0.121218
1302.7046,0.128828
1304.5682,0.134517
1306.4319,0.134370
1308.2956,0.124305
1310.1592,0.105303
1312.0229,0.085597
1313.8866,0.072572
1315.7503,0.067495
1317.6139,0.067252
1319.4776,0.069020
1321.3413,0.071168
1323.2049,0.073412
1325.0686,0.075853
1326.9323,0.078310
1328.7959,0.080797
1330.6596,0.083156
1332.5233,0.084958
1334.3869,0.086027
1336.2506,0.086886
1338.1143,0.088433
1339.9780,0.090424
1341.8416,0.091087
1343.7053,0.091048
1345.5690,0.091710
1347.4326,0.092786
1349.2963,0.094093
1351.1600,0.095608
1353.0236,0.097399
1354.8873,0.099675
1356.7510,0.101930
1358.6146,0.103879
1360.4783,0.106655
1362.3420,0.111249
1364.2056,0.115318
1366.0693,0.117458
1367.9330,0.120490
1369.7967,0.124077
1371.6603,0.127050
1373.5240,0.131406
1375.3877,0.136331
1377.2513,0.139403
1379.1150,0.143451
1380.9787,0.148917
1382.8423,0.154476
1384.7060,0.160554
1386.5697,0.168664
1388.4333,0.177528
1390.2970,0.182175
1392.1607,0.184820
1394.0244,0.186162
1395.8880,0.181932
1397.7517,0.173563
1399.6154,0.163897
1401.4790,0.153876
1403.3427,0.144562
1405.2064,0.131360
1407.0700,0.113805
1408.9337,0.096977
1410.7974,0.082159
1412.6610,0.071659
1414.5247,0.066659
1416.3884,0.066347
1418.2520,0.070885
1420.1157,0.078825
1421.9794,0.082851
1423.8431,0.081505
1425.7067,0.073854
1427.5704,0.065056
1429.4341,0.059695
1431.2977,0.057531
1433.1614,0.057172
1435.0251,0.058492
1436.8887,0.062014
1438.7524,0.063933
1440.6161,0.064352
1442.4797,0.065714
1444.3434,0.067055
1446.2071,0.068121
1448.0707,0.068662
1449.9344,0.067155
1451.7981,0.064281
1453.6618,0.061429
1455.5254,0.060916
1457.3891,0.064733
1459.2528,0.066175
1461.1164,0.064923
1462.9801,0.065024
1464.8438,0.066024
1466.7074,0.065302
1468.5711,0.063240
1470.4348,0.062349
1472.2984,0.063468
1474.1621,0.064513
1476.0258,0.064055
1477.8895,0.063771
1479.7531,0.063570
1481.6168,0.064026
1483.4805,0.064158
1485.3441,0.064089
1487.2078,0.065067
1489.0715,0.067456
1490.9351,0.069224
1492.7988,0.068565
1494.6625,0.068344
1496.5261,0.070783
1498.3898,0.073114
1500.2535,0.073218
1502.1171,0.072468
1503.9808,0.072263
1505.8445,0.075439
1507.7082,0.082501
1509.5718,0.081615
1511.4355,0.080600
1513.2992,0.080970
1515.1628,0.081937
1517.0265,0.083941
1518.8902,0.085171
1520.7538,0.086888
1522.6175,0.090042
1524.4812,0.090136
1526.3448,0.091135
1528.2085,0.092013
1530.0722,0.091841
1531.9359,0.093154
1533.7995,0.096300
1535.6632,0.096277
1537.5269,0.095564
1539.3905,0.100045
1541.2542,0.107350
1543.1179,0.107897
1544.9815,0.108803
1546.8452,0.109527
1548.7089,0.110712
1550.5725,0.113371
1552.4362,0.115062
1554.2999,0.116444
1556.1635,0.118919
1558.0272,0.125209
1559.8909,0.137268
1561.7546,0.133331
1563.6182,0.131739
1565.4819,0.134135
1567.3456,0.136923
1569.2092,0.141174
1571.0729,0.145439
1572.9366,0.145944
1574.8002,0.149435
1576.6639,0.157037
1578.5276,0.159730
1580.3912,0.160159
1582.2549,0.162780
1584.1186,0.165258
1585.9822,0.167315
1587.8459,0.168709
1589.7096,0.169413
1591.5733,0.169224
1593.4369,0.168668
1595.3006,0.167491
1597.1643,0.165542
1599.0279,0.163019
1600.8916,0.160490
1602.7553,0.158019
1604.6189,0.155647
1606.4826,0.153552
1608.3463,0.151582
1610.2099,0.149214
1612.0736,0.146027
1613.9373,0.142556
1615.8010,0.139367
1617.6646,0.133025
1619.5283,0.124900
1621.3920,0.119367
1623.2556,0.113217
1625.1193,0.105490
1626.9830,0.098163
1628.8466,0.089395
1630.7103,0.080213
1632.5740,0.073212
1634.4376,0.067220
1636.3013,0.060565
1638.1650,0.055196
1640.0286,0.053230
1641.8923,0.052140
1643.7560,0.052177
1645.6197,0.053753
1647.4833,0.056565
1649.3470,0.057753
1651.2107,0.059544
1653.0743,0.065109
1654.9380,0.069296
1656.8017,0.068002
1658.6653,0.068364
1660.5290,0.068995
1662.3927,0.069151
1664.2563,0.067901
1666.1200,0.066105
1667.9837,0.065095
1669.8474,0.064374
1671.7110,0.063092
1673.5747,0.063133
1675.4384,0.065033
1677.3020,0.067509
1679.1657,0.069532
1681.0294,0.073157
1682.8930,0.077745
1684.7567,0.083663
1686.6204,0.084845
1688.4840,0.083870
1690.3477,0.082844
1692.2114,0.080796
1694.0750,0.078656
1695.9387,0.076356
1697.8024,0.072570
1699.6661,0.069915
1701.5297,0.063902
1703.3934,0.057600
1705.2571,0.051299
1707.1207,0.043129
1708.9844,0.037075
1710.8481,0.032683
1712.7117,0.029298
1714.5754,0.027326
1716.4391,0.025837
1718.3027,0.024988
1720.1664,0.023681
1722.0301,0.022525
1723.8937,0.020950
1725.7574,0.019106
1727.6211,0.017421
1729.4848,0.015916
1731.3484,0.014547
1733.2121,0.013784
1735.0758,0.012853
1736.9394,0.012119
1738.8031,0.011745
1740.6668,0.011381
1742.5304,0.010832
1744.3941,0.010614
1746.2578,0.010358
1748.1214,0.010163
1749.9851,0.009831
1751.8488,0.009571
1753.7125,0.009220
1755.5761,0.009210
1757.4398,0.009097
1759.3035,0.008943
1761.1671,0.008917
1763.0308,0.008939
1764.8945,0.008797
1766.7581,0.008860
1768.6218,0.008715
1770.4855,0.008622
1772.3491,0.008719
1774.2128,0.008752
1776.0765,0.008539
1777.9401,0.008671
1779.8038,0.008711
1781.6675,0.008788
1783.5312,0.008832
1785.3948,0.008916
1787.2585,0.008910
1789.1222,0.009149
1790.9858,0.009313
1792.8495,0.009378
1794.7132,0.009175
1796.5768,0.009010
1798.4405,0.008958
1800.3042,0.009261
1802.1678,0.009285
1804.0315,0.009335
1805.8952,0.009435
1807.7589,0.009555
1809.6225,0.009613
1811.4862,0.009615
1813.3499,0.009499
1815.2135,0.009574
1817.0772,0.009559
1818.9409,0.009567
1820.8045,0.009433
1822.6682,0.009566
1824.5319,0.009648
1826.3955,0.009524
1828.2592,0.009362
1830.1229,0.009333
1831.9865,0.009014
1833.8502,0.009213
1835.7139,0.009391
1837.5776,0.009367
1839.4412,0.009281
1841.3049,0.009441
1843.1686,0.009694
1845.0322,0.009726
1846.8959,0.009342
1848.7596,0.009712
1850.6232,0.009721
1852.4869,0.009656
1854.3506,0.009700
1856.2142,0.009752
1858.0779,0.009763
1859.9416,0.009688
1861.8052,0.009527
1863.6689,0.009506
1865.5326,0.009747
1867.3963,0.010279
1869.2599,0.010139
1871.1236,0.009663
1872.9873,0.009729
1874.8509,0.010001
1876.7146,0.009773
1878.5783,0.009665
1880.4419,0.009982
1882.3056,0.010220
1884.1693,0.010053
1886.0329,0.010114
1887.8966,0.009954
1889.7603,0.009976
1891.6240,0.010059
1893.4876,0.010064
1895.3513,0.010005
1897.2150,0.009870
1899.0786,0.009807
1900.9423,0.010173
1902.8060,0.010299
1904.6696,0.010231
1906.5333,0.009871
1908.3970,0.010069
1910.2606,0.010306
1912.1243,0.010279
1913.9880,0.010250
1915.8516,0.010632
1917.7153,0.010348
1919.5790,0.009662
1921.4427,0.009406
1923.3063,0.009669
1925.1700,0.009455
1927.0337,0.009657
1928.8973,0.009951
1930.7610,0.010234
1932.6247,0.009629
1934.4883,0.009496
1936.3520,0.009228
1938.2157,0.009060
1940.0793,0.008604
1941.9430,0.008745
1943.8067,0.009315
1945.6704,0.009594
1947.5340,0.008425
1949.3977,0.008676
1951.2614,0.009261
1953.1250,0.008955
1954.9887,0.008619
1956.8524,0.009027
1958.7160,0.008712
1960.5797,0.007924
1962.4434,0.006811
1964.3070,0.006303
1966.1707,0.005034
1968.0344,0.003779
1969.8980,0.003959
1971.7617,0.005802
1973.6254,0.005300
1975.4891,0.004672
1977.3527,0.005429
1979.2164,0.006223
1981.0801,0.006024
1982.9437,0.006557
1984.8074,0.006202
1986.6711,0.006912
1988.5347,0.008034
1990.3984,0.007791
1992.2621,0.007085
1994.1257,0.007253
1995.9894,0.007170
1997.8531,0.008196
1999.7167,0.009076
2001.5804,0.008799
2003.4441,0.007332
2005.3078,0.006832
2007.1714,0.006647
2009.0351,0.007651
2010.8988,0.007476
2012.7624,0.006743
2014.6261,0.005679
2016.4898,0.005608
2018.3534,0.006294
2020.2171,0.005449
2022.0808,0.004018
2023.9444,0.005849
2025.8081,0.006448
2027.6718,0.005484
2029.5355,0.005265
2031.3991,0.005891
2033.2628,0.006380
2035.1265,0.007714
2036.9901,0.006821
2038.8538,0.006166
2040.7175,0.006830
2042.5811,0.007968
2044.4448,0.007806
2046.3085,0.008502
2048.1721,0.008940
2050.0358,0.009552
2051.8995,0.009912
2053.7631,0.009553
2055.6268,0.009982
2057.4905,0.010769
2059.3542,0.010880
2061.2178,0.011537
2063.0815,0.011347
2064.9452,0.011428
2066.8088,0.011391
2068.6725,0.011711
2070.5362,0.011897
2072.3998,0.011600
2074.2635,0.012005
2076.1272,0.012521
2077.9908,0.011936
2079.8545,0.011670
2081.7182,0.012326
2083.5819,0.012902
2085.4455,0.012910
2087.3092,0.013045
2089.1729,0.013214
2091.0365,0.013354
2092.9002,0.012909
2094.7639,0.013105
2096.6275,0.013270
2098.4912,0.013077
2100.3549,0.013227
2102.2185,0.013316
2104.0822,0.012986
2105.9459,0.012633
2107.8095,0.012407
2109.6732,0.013262
2111.5369,0.013620
2113.4006,0.013890
2115.2642,0.014185
2117.1279,0.014176
2118.9916,0.014058
2120.8552,0.013909
2122.7189,0.014187
2124.5826,0.013930
2126.4462,0.012785
2128.3099,0.012730
2130.1736,0.013066
2132.0372,0.013098
2133.9009,0.012951
2135.7646,0.012556
2137.6282,0.012111
2139.4919,0.012937
2141.3556,0.012560
2143.2193,0.012209
2145.0829,0.011388
2146.9466,0.010814
2148.8103,0.009564
2150.6739,0.008837
2152.5376,0.008603
2154.4013,0.007216
2156.2649,0.006056
2158.1286,0.006023
2159.9923,0.005331
2161.8559,0.006361
2163.7196,0.007451
2165.5833,0.008477
2167.4470,0.009760
2169.3106,0.009584
2171.1743,0.009168
2173.0380,0.010908
2174.9016,0.011396
2176.7653,0.010076
2178.6290,0.009284
2180.4926,0.010207
2182.3563,0.010747
2184.2200,0.011352
2186.0836,0.011620
2187.9473,0.010919
2189.8110,0.010482
2191.6746,0.010802
2193.5383,0.011358
2195.4020,0.012244
2197.2657,0.012252
2199.1293,0.012767
2200.9930,0.013188
2202.8567,0.012872
2204.7203,0.012264
2206.5840,0.013037
2208.4477,0.013347
2210.3113,0.013101
2212.1750,0.013172
2214.0387,0.013581
2215.9023,0.013284
2217.7660,0.013481
2219.6297,0.013042
2221.4934,0.013497
2223.3570,0.014399
2225.2207,0.014657
2227.0844,0.014492
2228.9480,0.014261
2230.8117,0.014440
2232.6754,0.015005
2234.5390,0.014979
2236.4027,0.015523
2238.2664,0.015657
2240.1300,0.015015
2241.9937,0.014509
2243.8574,0.014937
2245.7210,0.015653
2247.5847,0.016047
2249.4484,0.016207
2251.3121,0.016263
2253.1757,0.016006
2255.0394,0.016181
2256.9031,0.016644
2258.7667,0.016519
2260.6304,0.016622
2262.4941,0.016797
2264.3577,0.017014
2266.2214,0.016977
2268.0851,0.017248
2269.9487,0.018102
2271.8124,0.018468
2273.6761,0.018767
2275.5397,0.018900
2277.4034,0.018968
2279.2671,0.018738
2281.1308,0.018774
2282.9944,0.019388
2284.8581,0.019786
2286.7218,0.019449
2288.5854,0.019228
2290.4491,0.019445
2292.3128,0.019499
2294.1764,0.019561
2296.0401,0.019667
2297.9038,0.019574
2299.7674,0.019493
2301.6311,0.019740
2303.4948,0.020009
2305.3585,0.020074
2307.2221,0.020050
2309.0858,0.020175
2310.9495,0.020231
2312.8131,0.020142
2314.6768,0.020207
2316.5405,0.020165
2318.4041,0.020162
2320.2678,0.020408
2322.1315,0.020632
2323.9951,0.020440
2325.8588,0.019838
2327.7225,0.019249
2329.5861,0.019494
2331.4498,0.019674
2333.3135,0.019091
2335.1772,0.018551
2337.0408,0.018655
2338.9045,0.019099
2340.7682,0.019472
2342.6318,0.019656
2344.4955,0.019843
2346.3592,0.019514
2348.2228,0.019128
2350.0865,0.018878
2351.9502,0.018789
2353.8138,0.018659
2355.6775,0.018953
2357.5412,0.019138
2359.4049,0.019035
2361.2685,0.018977
2363.1322,0.019306
2364.9959,0.019451
2366.8595,0.018769
2368.7232,0.018727
2370.5869,0.019264
2372.4505,0.019711
2374.3142,0.020159
2376.1779,0.020205
2378.0415,0.019883
2379.9052,0.020021
2381.7689,0.020430
2383.6325,0.020480
2385.4962,0.020115
2387.3599,0.019800
2389.2236,0.020064
2391.0872,0.020202
2392.9509,0.020066
2394.8146,0.020011
2396.6782,0.020499
2398.5419,0.020592
2400.4056,0.020381
2402.2692,0.020342
2404.1329,0.020515
2405.9966,0.020461
2407.8602,0.020521
2409.7239,0.020738
2411.5876,0.020774
2413.4512,0.020608
2415.3149,0.020611
2417.1786,0.020912
2419.0423,0.021125
2420.9059,0.020932
2422.7696,0.021112
2424.6333,0.021535
2426.4969,0.021401
2428.3606,0.021225
2430.2243,0.021416
2432.0879,0.021509
2433.9516,0.021362
2435.8153,0.021438
2437.6789,0.021497
2439.5426,0.021475
2441.4063,0.021234
2443.2700,0.021085
2445.1336,0.021445
2446.9973,0.021476
2448.8610,0.021098
2450.7246,0.020919
2452.5883,0.021120
2454.4520,0.021397
2456.3156,0.021281
2458.1793,0.021299
2460.0430,0.021402
2461.9066,0.021227
2463.7703,0.021117
2465.6340,0.021291
2467.4976,0.020984
2469.3613,0.020744
2471.2250,0.021038
2473.0887,0.021501
2474.9523,0.021331
2476.8160,0.020968
2478.6797,0.020977
2480.5433,0.020865
2482.4070,0.021067
2484.2707,0.021495
2486.1343,0.021767
2487.9980,0.022017
2489.8617,0.022162
2491.7253,0.022231
2493.5890,0.022276
2495.4527,0.022243
2497.3164,0.022155
2499.1800,0.021919
2501.0437,0.021907
2502.9074,0.022131
2504.7710,0.022380
2506.6347,0.022563
2508.4984,0.022482
2510.3620,0.022249
2512.2257,0.022255
2514.0894,0.022702
2515.9530,0.022967
2517.8167,0.022681
2519.6804,0.022664
2521.5440,0.023068
2523.4077,0.023173
2525.2714,0.022946
2527.1351,0.023040
2528.9987,0.022929
2530.8624,0.022852
2532.7261,0.023006
2534.5897,0.022909
2536.4534,0.022774
2538.3171,0.022967
2540.1807,0.023304
2542.0444,0.023177
2543.9081,0.023075
2545.7717,0.023034
2547.6354,0.023249
2549.4991,0.023281
2551.3627,0.023062
2553.2264,0.023366
2555.0901,0.023715
2556.9538,0.023474
2558.8174,0.023069
2560.6811,0.023178
2562.5448,0.023637
2564.4084,0.023940
2566.2721,0.024028
2568.1358,0.024159
2569.9994,0.024305
2571.8631,0.024244
2573.7268,0.024145
2575.5904,0.024148
2577.4541,0.024286
2579.3178,0.024468
2581.1815,0.024950
2583.0451,0.025169
2584.9088,0.025058
2586.7725,0.025171
2588.6361,0.025571
2590.4998,0.025631
2592.3635,0.025463
2594.2271,0.025832
2596.0908,0.026099
2597.9545,0.025729
2599.8181,0.025818
2601.6818,0.026131
2603.5455,0.026058
2605.4091,0.026284
2607.2728,0.026754
2609.1365,0.026987
2611.0002,0.026886
2612.8638,0.026817
2614.7275,0.026975
2616.5912,0.027037
2618.4548,0.026916
2620.3185,0.026872
2622.1822,0.027272
2624.0458,0.027638
2625.9095,0.027765
2627.7732,0.028183
2629.6368,0.028567
2631.5005,0.028621
2633.3642,0.028803
2635.2279,0.029044
2637.0915,0.029291
2638.9552,0.029346
2640.8189,0.029594
2642.6825,0.029713
2644.5462,0.029753
2646.4099,0.029804
2648.2735,0.029940
2650.1372,0.030308
2652.0009,0.030674
2653.8645,0.030715
2655.7282,0.030717
2657.5919,0.030703
2659.4555,0.030818
2661.3192,0.030814
2663.1829,0.030979
2665.0466,0.030931
2666.9102,0.030811
2668.7739,0.030991
2670.6376,0.031019
2672.5012,0.031235
2674.3649,0.031588
2676.2286,0.031567
2678.0922,0.031608
2679.9559,0.031815
2681.8196,0.032141
2683.6832,0.032496
2685.5469,0.032516
2687.4106,0.032540
2689.2742,0.032820
2691.1379,0.033002
2693.0016,0.033224
2694.8653,0.033524
2696.7289,0.033642
2698.5926,0.033810
2700.4563,0.034029
2702.3199,0.034365
2704.1836,0.034601
2706.0473,0.034800
2707.9109,0.035106
2709.7746,0.035461
2711.6383,0.035885
2713.5019,0.036043
2715.3656,0.036214
2717.2293,0.036515
2719.0930,0.036646
2720.9566,0.036932
2722.8203,0.037329
2724.6840,0.037583
2726.5476,0.037987
2728.4113,0.038389
2730.2750,0.038855
2732.1386,0.039159
2734.0023,0.039190
2735.8660,0.039388
2737.7296,0.039814
2739.5933,0.040459
2741.4570,0.040976
2743.3206,0.041205
2745.1843,0.041697
2747.0480,0.042141
2748.9117,0.042650
2750.7753,0.043360
2752.6390,0.043759
2754.5027,0.044039
2756.3663,0.044492
2758.2300,0.044860
2760.0937,0.045334
2761.9573,0.045906
2763.8210,0.046383
2765.6847,0.046762
2767.5483,0.047217
2769.4120,0.047695
2771.2757,0.048276
2773.1394,0.048689
2775.0030,0.049311
2776.8667,0.049882
2778.7304,0.050349
2780.5940,0.050637
2782.4577,0.050861
2784.3214,0.050916
2786.1850,0.050795
2788.0487,0.050557
2789.9124,0.050405
2791.7760,0.050102
2793.6397,0.049441
2795.5034,0.048849
2797.3670,0.048470
2799.2307,0.048140
2801.0944,0.047745
2802.9581,0.047249
2804.8217,0.046797
2806.6854,0.046460
2808.5491,0.046262
2810.4127,0.046125
2812.2764,0.046019
2814.1401,0.045649
2816.0037,0.045575
2817.8674,0.045926
2819.7311,0.046193
2821.5947,0.046038
2823.4584,0.046051
2825.3221,0.045891
2827.1857,0.045688
2829.0494,0.045680
2830.9131,0.045521
2832.7768,0.045366
2834.6404,0.045216
2836.5041,0.045239
2838.3678,0.045463
2840.2314,0.045947
2842.0951,0.046285
2843.9588,0.046254
2845.8224,0.046639
2847.6861,0.046951
2849.5498,0.047081
2851.4134,0.047579
2853.2771,0.048302
2855.1408,0.048806
2857.0045,0.049584
2858.8681,0.050229
2860.7318,0.050632
2862.5955,0.051077
2864.4591,0.051729
2866.3228,0.051964
2868.1865,0.051879
2870.0501,0.051846
2871.9138,0.052092
2873.7775,0.052705
2875.6411,0.053368
2877.5048,0.053474
2879.3685,0.053474
2881.2321,0.053802
2883.0958,0.054436
2884.9595,0.054773
2886.8232,0.055264
2888.6868,0.055707
2890.5505,0.055950
2892.4142,0.056095
2894.2778,0.056312
2896.1415,0.056856
2898.0052,0.057708
2899.8688,0.057657
2901.7325,0.057423
2903.5962,0.057508
2905.4598,0.057450
2907.3235,0.057352
2909.1872,0.057779
2911.0509,0.058227
2912.9145,0.058632
2914.7782,0.059289
2916.6419,0.059857
2918.5055,0.060314
2920.3692,0.060953
2922.2329,0.061202
2924.0965,0.061581
2925.9602,0.062352
2927.8239,0.063018
2929.6875,0.063530
2931.5512,0.064027
2933.4149,0.064580
2935.2785,0.064928
2937.1422,0.065088
2939.0059,0.065570
2940.8696,0.065969
2942.7332,0.066113
2944.5969,0.066307
2946.4606,0.066414
2948.3242,0.066477
2950.1879,0.066895
2952.0516,0.067498
2953.9152,0.068011
2955.7789,0.068163
2957.6426,0.068269
2959.5062,0.068472
2961.3699,0.069135
2963.2336,0.069924
2965.0972,0.070618
2966.9609,0.071317
2968.8246,0.071951
2970.6883,0.072351
2972.5519,0.073174
2974.4156,0.073835
2976.2793,0.074370
2978.1429,0.074870
2980.0066,0.075187
2981.8703,0.075535
2983.7339,0.075971
2985.5976,0.076037
2987.4613,0.076402
2989.3249,0.076998
2991.1886,0.077463
2993.0523,0.078027
2994.9160,0.078832
2996.7796,0.079507
2998.6433,0.080252
3000.5070,0.080894
3002.3706,0.081324
3004.2343,0.081948
3006.0980,0.083089
3007.9616,0.083491
3009.8253,0.084092
3011.6890,0.085288
3013.5526,0.086089
3015.4163,0.086365
3017.2800,0.086546
3019.1436,0.086778
3021.0073,0.087315
3022.8710,0.087723
3024.7347,0.088077
3026.5983,0.088374
3028.4620,0.088491
3030.3257,0.088605
3032.1893,0.088977
3034.0530,0.089532
3035.9167,0.089953
3037.7803,0.089657
3039.6440,0.089756
3041.5077,0.090215
3043.3713,0.090555
3045.2350,0.090804
3047.0987,0.091272
3048.9624,0.091483
3050.8260,0.091789
3052.6897,0.092096
3054.5534,0.092254
3056.4170,0.092268
3058.2807,0.092408
3060.1444,0.092620
3062.0080,0.092862
3063.8717,0.092571
3065.7354,0.092571
3067.5990,0.093035
3069.4627,0.093445
3071.3264,0.093261
3073.1900,0.092747
3075.0537,0.092399
3076.9174,0.092677
3078.7811,0.092524
3080.6447,0.092062
3082.5084,0.091559
3084.3721,0.091237
3086.2357,0.091187
3088.0994,0.090883
3089.9631,0.089878
3091.8267,0.089488
3093.6904,0.089056
3095.5541,0.088080
3097.4177,0.087177
3099.2814,0.086578
3101.1451,0.085741
3103.0087,0.084962
3104.8724,0.084505
3106.7361,0.083686
3108.5998,0.082360
3110.4634,0.081842
3112.3271,0.081176
3114.1908,0.080539
3116.0544,0.079858
3117.9181,0.078993
3119.7818,0.078247
3121.6454,0.077878
3123.5091,0.077306
3125.3728,0.076366
3127.2364,0.075401
3129.1001,0.074671
3130.9638,0.074004
3132.8275,0.073604
3134.6911,0.073185
3136.5548,0.072159
3138.4185,0.071380
3140.2821,0.071621
3142.1458,0.071447
3144.0095,0.070851
3145.8731,0.069870
3147.7368,0.069094
3149.6005,0.068705
3151.4641,0.068713
3153.3278,0.068705
3155.1915,0.068408
3157.0551,0.068097
3158.9188,0.067823
3160.7825,0.067297
3162.6462,0.066827
3164.5098,0.065824
3166.3735,0.064916
3168.2372,0.064787
3170.1008,0.064836
3171.9645,0.064666
3173.8282,0.064307
3175.6918,0.063434
3177.5555,0.062885
3179.4192,0.062721
3181.2828,0.062851
3183.1465,0.062716
3185.0102,0.062541
3186.8739,0.062435
3188.7375,0.062310
3190.6012,0.062256
3192.4649,0.062303
3194.3285,0.062674
3196.1922,0.062618
3198.0559,0.061844
3199.9195,0.061771
3201.7832,0.061837
3203.6469,0.062343
3205.5105,0.062484
3207.3742,0.061896
3209.2379,0.062335
3211.1015,0.063054
3212.9652,0.063186
3214.8289,0.063017
3216.6926,0.062352
3218.5562,0.062577
3220.4199,0.063273
3222.2836,0.063175
3224.1472,0.063109
3226.0109,0.063430
3227.8746,0.063571
3229.7382,0.063774
3231.6019,0.064022
3233.4656,0.064377
3235.3292,0.064555
3237.1929,0.064608
3239.0566,0.064855
3240.9202,0.065553
3242.7839,0.065334
3244.6476,0.064843
3246.5113,0.065065
3248.3749,0.066015
3250.2386,0.066699
3252.1023,0.067034
3253.9659,0.067095
3255.8296,0.067445
3257.6933,0.068004
3259.5569,0.068072
3261.4206,0.068011
3263.2843,0.068192
3265.1479,0.068061
3267.0116,0.068336
3268.8753,0.068800
3270.7390,0.069233
3272.6026,0.069277
3274.4663,0.068688
3276.3300,0.068164
3278.1936,0.068666
3280.0573,0.068747
3281.9210,0.068449
3283.7846,0.067796
3285.6483,0.066662
3287.5120,0.066239
3289.3756,0.066246
3291.2393,0.065604
3293.1030,0.064949
3294.9666,0.064280
3296.8303,0.063581
3298.6940,0.063086
3300.5577,0.062541
3302.4213,0.061606
3304.2850,0.060702
3306.1487,0.060305
3308.0123,0.060341
3309.8760,0.060226
3311.7397,0.059776
3313.6033,0.059008
3315.4670,0.058754
3317.3307,0.058463
3319.1943,0.058327
3321.0580,0.058319
3322.9217,0.058879
3324.7854,0.059168
3326.6490,0.059312
3328.5127,0.059725
3330.3764,0.059795
3332.2400,0.059876
3334.1037,0.059438
3335.9674,0.058548
3337.8310,0.058037
3339.6947,0.057729
3341.5584,0.057673
3343.4220,0.056841
3345.2857,0.055418
3347.1494,0.054419
3349.0130,0.053833
3350.8767,0.053155
3352.7404,0.051968
3354.6041,0.050603
3356.4677,0.049586
3358.3314,0.048139
3360.1951,0.047266
3362.0587,0.047303
3363.9224,0.047051
3365.7861,0.046795
3367.6497,0.046359
3369.5134,0.044879
3371.3771,0.044195
3373.2407,0.044779
3375.1044,0.044932
3376.9681,0.044825
3378.8317,0.044898
3380.6954,0.045421
3382.5591,0.046504
3384.4228,0.046721
3386.2864,0.046404
3388.1501,0.046557
3390.0138,0.046731
3391.8774,0.047235
3393.7411,0.047907
3395.6048,0.048192
3397.4684,0.048460
3399.3321,0.048389
3401.1958,0.047746
3403.0594,0.047541
3404.9231,0.047595
3406.7868,0.046290
3408.6505,0.045208
3410.5141,0.044451
3412.3778,0.042520
3414.2415,0.040655
3416.1051,0.039793
3417.9688,0.039033
3419.8325,0.037137
3421.6961,0.035259
3423.5598,0.034246
3425.4235,0.033314
3427.2871,0.032627
3429.1508,0.032124
3431.0145,0.031180
3432.8781,0.029243
3434.7418,0.027397
3436.6055,0.026558
3438.4692,0.026217
3440.3328,0.025967
3442.1965,0.025542
3444.0602,0.025391
3445.9238,0.025589
3447.7875,0.025075
3449.6512,0.023670
3451.5148,0.023106
3453.3785,0.022984
3455.2422,0.022396
3457.1058,0.021935
3458.9695,0.021869
3460.8332,0.021300
3462.6969,0.020350
3464.5605,0.019888
3466.4242,0.020330
3468.2879,0.020538
3470.1515,0.018847
3472.0152,0.017811
3473.8789,0.019126
3475.7425,0.019727
3477.6062,0.018577
3479.4699,0.018158
3481.3335,0.018270
3483.1972,0.017541
3485.0609,0.015923
3486.9245,0.014788
3488.7882,0.015228
3490.6519,0.015764
3492.5156,0.015394
3494.3792,0.014867
3496.2429,0.015129
3498.1066,0.014656
3499.9702,0.013319
3501.8339,0.014619
3503.6976,0.015098
3505.5612,0.012327
3507.4249,0.011017
3509.2886,0.011628
3511.1522,0.011438
3513.0159,0.011061
3514.8796,0.011961
3516.7432,0.011987
3518.6069,0.010828
3520.4706,0.010953
3522.3343,0.011835
3524.1979,0.011363
3526.0616,0.010284
3527.9253,0.009651
3529.7889,0.009127
3531.6526,0.009114
3533.5163,0.009451
3535.3799,0.010131
3537.2436,0.010621
3539.1073,0.009449
3540.9709,0.008480
3542.8346,0.008878
3544.6983,0.008151
3546.5620,0.006831
3548.4256,0.007566
3550.2893,0.009100
3552.1530,0.008556
3554.0166,0.007486
3555.8803,0.007639
3557.7440,0.007817
3559.6076,0.007796
3561.4713,0.007540
3563.3350,0.007072
3565.1986,0.006969
3567.0623,0.006540
3568.9260,0.005462
3570.7896,0.005873
3572.6533,0.006648
3574.5170,0.006384
3576.3807,0.006511
3578.2443,0.007293
3580.1080,0.007817
3581.9717,0.007396
3583.8353,0.006371
3585.6990,0.006465
3587.5627,0.006868
3589.4263,0.006208
3591.2900,0.006100
3593.1537,0.006213
3595.0173,0.006096
3596.8810,0.005962
3598.7447,0.005741
3600.6084,0.006444
3602.4720,0.006953
3604.3357,0.006449
3606.1994,0.006449
3608.0630,0.006663
3609.9267,0.006186
3611.7904,0.005639
3613.6540,0.005785
3615.5177,0.005905
3617.3814,0.006164
3619.2450,0.006528
3621.1087,0.006532
3622.9724,0.006422
3624.8360,0.006272
3626.6997,0.006120
3628.5634,0.005932
3630.4271,0.005898
3632.2907,0.005684
3634.1544,0.005963
3636.0181,0.006302
3637.8817,0.006053
3639.7454,0.005723
3641.6091,0.005758
3643.4727,0.006470
3645.3364,0.006967
3647.2001,0.006995
3649.0637,0.006872
3650.9274,0.005969
3652.7911,0.005387
3654.6547,0.006214
3656.5184,0.006639
3658.3821,0.006118
3660.2458,0.006167
3662.1094,0.006568
3663.9731,0.006517
3665.8368,0.006763
3667.7004,0.007203
3669.5641,0.006509
3671.4278,0.005277
3673.2914,0.005418
3675.1551,0.006149
3677.0188,0.005918
3678.8824,0.005549
3680.7461,0.005823
3682.6098,0.005933
3684.4735,0.006385
3686.3371,0.006760
3688.2008,0.006596
3690.0645,0.006904
3691.9281,0.007193
3693.7918,0.006900
3695.6555,0.006656
3697.5191,0.006757
3699.3828,0.006948
3701.2465,0.006689
3703.1101,0.006499
3704.9738,0.006662
3706.8375,0.006561
3708.7011,0.006215
3710.5648,0.006183
3712.4285,0.006059
3714.2922,0.006039
3716.1558,0.006494
3718.0195,0.006983
3719.8832,0.007345
3721.7468,0.007429
3723.6105,0.007492
3725.4742,0.007055
3727.3378,0.006393
3729.2015,0.006568
3731.0652,0.007240
3732.9288,0.007300
3734.7925,0.006720
3736.6562,0.006119
3738.5199,0.006019
3740.3835,0.006861
3742.2472,0.007384
3744.1109,0.006660
3745.9745,0.005416
3747.8382,0.005453
3749.7019,0.006634
3751.5655,0.007587
3753.4292,0.007089
3755.2929,0.007064
3757.1565,0.007598
3759.0202,0.007611
3760.8839,0.007814
3762.7475,0.007680
3764.6112,0.007545
3766.4749,0.007875
3768.3386,0.008175
3770.2022,0.008172
3772.0659,0.007727
3773.9296,0.008029
3775.7932,0.008762
3777.6569,0.008875
3779.5206,0.008654
3781.3842,0.008319
3783.2479,0.007997
3785.1116,0.007773
3786.9752,0.007730
3788.8389,0.008333
3790.7026,0.008864
3792.5662,0.008943
3794.4299,0.008807
3796.2936,0.008337
3798.1573,0.008019
3800.0209,0.007779
3801.8846,0.007773
3803.7483,0.008091
3805.6119,0.008165
3807.4756,0.008139
3809.3393,0.007905
3811.2029,0.008119
3813.0666,0.008580
3814.9303,0.008427
3816.7939,0.008002
3818.6576,0.007458
3820.5213,0.007426
3822.3850,0.007991
3824.2486,0.007971
3826.1123,0.008264
3827.9760,0.008718
3829.8396,0.008372
3831.7033,0.008495
3833.5670,0.008880
3835.4306,0.008730
3837.2943,0.008869
3839.1580,0.008774
3841.0216,0.007803
3842.8853,0.007420
3844.7490,0.007989
3846.6126,0.008416
3848.4763,0.008201
3850.3400,0.007914
3852.2037,0.008018
3854.0673,0.008502
3855.9310,0.008190
3857.7947,0.008251
3859.6583,0.008687
3861.5220,0.008734
3863.3857,0.008733
3865.2493,0.008579
3867.1130,0.007756
3868.9767,0.007868
3870.8403,0.008531
3872.7040,0.008433
3874.5677,0.008512
3876.4314,0.009079
3878.2950,0.009347
3880.1587,0.009207
3882.0224,0.008997
3883.8860,0.009038
3885.7497,0.009016
3887.6134,0.008854
3889.4770,0.008700
3891.3407,0.009024
3893.2044,0.009296
3895.0680,0.009205
3896.9317,0.009240
3898.7954,0.009158
3900.6590,0.008860
3902.5227,0.009359
3904.3864,0.010096
3906.2501,0.009429
3908.1137,0.009251
3909.9774,0.009426
3911.8411,0.009223
3913.7047,0.009539
3915.5684,0.009634
3917.4321,0.009164
3919.2957,0.009104
3921.1594,0.009346
3923.0231,0.009404
3924.8867,0.009798
3926.7504,0.009834
3928.6141,0.009439
3930.4777,0.009840
3932.3414,0.009949
3934.2051,0.009869
3936.0688,0.010190
3937.9324,0.010151
3939.7961,0.010101
3941.6598,0.010013
3943.5234,0.010103
3945.3871,0.010407
3947.2508,0.010374
3949.1144,0.009951
3950.9781,0.009768
3952.8418,0.010159
3954.7054,0.010135
3956.5691,0.009890
3958.4328,0.009988
3960.2965,0.009915
3962.1601,0.009583
3964.0238,0.009450
3965.8875,0.009556
3967.7511,0.009906
3969.6148,0.010308
3971.4785,0.010385
3973.3421,0.010291
3975.2058,0.010084
3977.0695,0.010155
3978.9331,0.010233
3980.7968,0.010118
3982.6605,0.010292
3984.5241,0.010244
3986.3878,0.010008
3988.2515,0.010138
3990.1152,0.010171
3991.9788,0.010207
3993.8425,0.010387
3995.7062,0.010495
3997.5698,0.010419
3999.4335,0.010428
