Wavenumber,Intensity
650.4205,0.137285
652.2841,0.135091
654.1478,0.132343
656.0115,0.129943
657.8751,0.129015
659.7388,0.126138
661.6025,0.124396
663.4661,0.122234
665.3298,0.120608
667.1935,0.121291
669.0571,0.120556
670.9208,0.118545
672.7845,0.118703
674.6481,0.119664
676.5118,0.120740
678.3755,0.120254
680.2392,0.119653
682.1028,0.120091
683.9665,0.120420
685.8302,0.120082
687.6938,0.120294
689.5575,0.120337
691.4212,0.119625
693.2848,0.119449
695.1485,0.121280
697.0122,0.122817
698.8758,0.123353
700.7395,0.123185
702.6032,0.122057
704.4669,0.120071
706.3305,0.117596
708.1942,0.113510
710.0579,0.108487
711.9215,0.103075
713.7852,0.099193
715.6489,0.095512
717.5125,0.091050
719.3762,0.087600
721.2399,0.084779
723.1035,0.081319
724.9672,0.077842
726.8309,0.075089
728.6945,0.072769
730.5582,0.070041
732.4219,0.067719
734.2856,0.065614
736.1492,0.063474
738.0129,0.062155
739.8766,0.062125
741.7402,0.063285
743.6039,0.065106
745.4676,0.066344
747.3312,0.066385
749.1949,0.065395
751.0586,0.064514
752.9222,0.064367
754.7859,0.064001
756.6496,0.063011
758.5132,0.062107
760.3769,0.061501
762.2406,0.061313
764.1043,0.061175
765.9679,0.060958
767.8316,0.060775
769.6953,0.060727
771.5589,0.060990
773.4226,0.061241
775.2863,0.061356
777.1499,0.061434
779.0136,0.062226
780.8773,0.063454
782.7409,0.064169
784.6046,0.065025
786.4683,0.066082
788.3320,0.067377
790.1956,0.068831
792.0593,0.070158
793.9230,0.071353
795.7866,0.072308
797.6503,0.073347
799.5140,0.074091
801.3776,0.074491
803.2413,0.074926
805.1050,0.075049
806.9686,0.074256
808.8323,0.072815
810.6960,0.070901
812.5596,0.068477
814.4233,0.066519
816.2870,0.065090
818.1507,0.063228
820.0143,0.061117
821.8780,0.059561
823.7417,0.058852
825.6053,0.058981
827.4690,0.059842
829.3327,0.060306
831.1963,0.056983
833.0600,0.049369
834.9237,0.042496
836.7873,0.039280
838.6510,0.037973
840.5147,0.037437
842.3784,0.037330
844.2420,0.037102
846.1057,0.036616
847.9694,0.036312
849.8330,0.036440
851.6967,0.036371
853.5604,0.036100
855.4240,0.035980
857.2877,0.035965
859.1514,0.035972
861.0150,0.035917
862.8787,0.035821
864.7424,0.035805
866.6060,0.035934
868.4697,0.035922
870.3334,0.035806
872.1971,0.036048
874.0607,0.036267
875.9244,0.036170
877.7881,0.036145
879.6517,0.036282
881.5154,0.036572
883.3791,0.036922
885.2427,0.037338
887.1064,0.037742
888.9701,0.038146
890.8337,0.038507
892.6974,0.038722
894.5611,0.039109
896.4247,0.039787
898.2884,0.040544
900.1521,0.041409
902.0158,0.042723
903.8794,0.044524
905.7431,0.046852
907.6068,0.049811
909.4704,0.053290
911.3341,0.057320
913.1978,0.061807
915.0614,0.064187
916.9251,0.059642
918.7888,0.049711
920.6524,0.041454
922.5161,0.037408
924.3798,0.035918
926.2435,0.035742
928.1071,0.036053
929.9708,0.036285
931.8345,0.036638
933.6981,0.037166
935.5618,0.037714
937.4255,0.038276
939.2891,0.038707
941.1528,0.038993
943.0165,0.039432
944.8801,0.039998
946.7438,0.040557
948.6075,0.041269
950.4711,0.042045
952.3348,0.042669
954.1985,0.043328
956.0622,0.044205
957.9258,0.045101
959.7895,0.045827
961.6532,0.046589
963.5168,0.047576
965.3805,0.048737
967.2442,0.050167
969.1078,0.051830
970.9715,0.053677
972.8352,0.056029
974.6988,0.059721
976.5625,0.065962
978.4262,0.076602
980.2899,0.091272
982.1535,0.097531
984.0172,0.081912
985.8809,0.059618
987.7445,0.048729
989.6082,0.046607
991.4719,0.046769
993.3355,0.047386
995.1992,0.048127
997.0629,0.048982
998.9265,0.049780
1000.7902,0.050535
1002.6539,0.051322
1004.5175,0.052105
1006.3812,0.052902
1008.2449,0.053650
1010.1086,0.054360
1011.9722,0.055057
1013.8359,0.055730
1015.6996,0.056418
1017.5632,0.057124
1019.4269,0.057789
1021.2906,0.058459
1023.1542,0.059136
1025.0179,0.059828
1026.8816,0.060607
1028.7452,0.061560
1030.6089,0.062626
1032.4726,0.063663
1034.3362,0.064768
1036.1999,0.066126
1038.0636,0.067810
1039.9273,0.069768
1041.7909,0.071973
1043.6546,0.074450
1045.5183,0.077105
1047.3819,0.079444
1049.2456,0.079824
1051.1093,0.076745
1052.9729,0.070933
1054.8366,0.065062
1056.7003,0.061010
1058.5639,0.058933
1060.4276,0.058331
1062.2913,0.058393
1064.1550,0.058613
1066.0186,0.059096
1067.8823,0.060007
1069.7460,0.061090
1071.6096,0.062059
1073.4733,0.062975
1075.3370,0.064022
1077.2006,0.065277
1079.0643,0.066625
1080.9280,0.068026
1082.7916,0.069701
1084.6553,0.071492
1086.5190,0.073484
1088.3826,0.075835
1090.2463,0.078352
1092.1100,0.081025
1093.9737,0.084005
1095.8373,0.087355
1097.7010,0.090976
1099.5647,0.094902
1101.4283,0.098877
1103.2920,0.102205
1105.1557,0.104391
1107.0193,0.104750
1108.8830,0.102235
1110.7467,0.096715
1112.6103,0.089227
1114.4740,0.081063
1116.3377,0.073406
1118.2014,0.067016
1120.0650,0.062086
1121.9287,0.058655
1123.7924,0.056435
1125.6560,0.054777
1127.5197,0.053269
1129.3834,0.051771
1131.2470,0.050218
1133.1107,0.048819
1134.9744,0.047726
1136.8380,0.046905
1138.7017,0.046408
1140.5654,0.046227
1142.4290,0.046167
1144.2927,0.046222
1146.1564,0.046449
1148.0201,0.046719
1149.8837,0.046989
1151.7474,0.047328
1153.6111,0.047759
1155.4747,0.048294
1157.3384,0.048918
1159.2021,0.049676
1161.0657,0.050565
1162.9294,0.051643
1164.7931,0.053168
1166.6567,0.055163
1168.5204,0.057568
1170.3841,0.060144
1172.2477,0.061894
1174.1114,0.061559
1175.9751,0.058795
1177.8388,0.054854
1179.7024,0.051554
1181.5661,0.049625
1183.4298,0.048736
1185.2934,0.048530
1187.1571,0.048610
1189.0208,0.048579
1190.8844,0.048451
1192.7481,0.048383
1194.6118,0.048331
1196.4754,0.048361
1198.3391,0.048465
1200.2028,0.048581
1202.0665,0.048785
1203.9301,0.049019
1205.7938,0.049305
1207.6575,0.049638
1209.5211,0.049942
1211.3848,0.050310
1213.2485,0.050745
1215.1121,0.051177
1216.9758,0.051629
1218.8395,0.052089
1220.7031,0.052520
1222.5668,0.052944
1224.4305,0.053397
1226.2941,0.053858
1228.1578,0.054311
1230.0215,0.054823
1231.8852,0.055316
1233.7488,0.055762
1235.6125,0.056229
1237.4762,0.056689
1239.3398,0.057133
1241.2035,0.057616
1243.0672,0.058094
1244.9308,0.058546
1246.7945,0.059038
1248.6582,0.059519
1250.5218,0.060027
1252.3855,0.060588
1254.2492,0.061062
1256.1129,0.061512
1257.9765,0.062105
1259.8402,0.062801
1261.7039,0.063561
1263.5675,0.064379
1265.4312,0.065018
1267.2949,0.065235
1269.1585,0.065211
1271.0222,0.065201
1272.8859,0.065290
1274.7495,0.065550
1276.6132,0.065990
1278.4769,0.066580
1280.3405,0.067371
1282.2042,0.068358
1284.0679,0.069470
1285.9316,0.070828
1287.7952,0.072450
1289.6589,0.074176
1291.5226,0.076131
1293.3862,0.078509
1295.2499,0.081267
1297.1136,0.084412
1298.9772,0.088173
1300.8409,0.092729
1302.7046,0.097559
1304.5682,0.100880
1306.4319,0.100411
1308.2956,0.094016
1310.1592,0.081703
1312.0229,0.068219
1313.8866,0.058762
1315.7503,0.054647
1317.6139,0.054024
1319.4776,0.055128
1321.3413,0.056762
1323.2049,0.058545
1325.0686,0.060491
1326.9323,0.062417
1328.7959,0.064282
1330.6596,0.066022
1332.5233,0.067473
1334.3869,0.068490
1336.2506,0.069331
1338.1143,0.070446
1339.9780,0.071598
1341.8416,0.072162
1343.7053,0.072475
1345.5690,0.073006
1347.4326,0.073733
1349.2963,0.074737
1351.1600,0.075863
1353.0236,0.077116
1354.8873,0.078846
1356.7510,0.080697
1358.6146,0.082268
1360.4783,0.084092
1362.3420,0.086750
1364.2056,0.089396
1366.0693,0.091290
1367.9330,0.093613
1369.7967,0.096166
1371.6603,0.098349
1373.5240,0.100926
1375.3877,0.103572
1377.2513,0.105719
1379.1150,0.108386
1380.9787,0.111643
1382.8423,0.115208
1384.7060,0.119119
1386.5697,0.123419
1388.4333,0.127862
1390.2970,0.131090
1392.1607,0.133124
1394.0244,0.133285
1395.8880,0.129988
1397.7517,0.125138
1399.6154,0.119158
1401.4790,0.113189
1403.3427,0.107872
1405.2064,0.099213
1407.0700,0.087682
1408.9337,0.076554
1410.7974,0.066084
1412.6610,0.058297
1414.5247,0.054454
1416.3884,0.054049
1418.2520,0.056779
1420.1157,0.062144
1421.9794,0.065759
1423.8431,0.065266
1425.7067,0.059873
1427.5704,0.053554
1429.4341,0.049190
1431.2977,0.047168
1433.1614,0.047086
1435.0251,0.048015
1436.8887,0.049860
1438.7524,0.051383
1440.6161,0.052412
1442.4797,0.053638
1444.3434,0.054639
1446.2071,0.055431
1448.0707,0.055709
1449.9344,0.054697
1451.7981,0.052901
1453.6618,0.051052
1455.5254,0.050301
1457.3891,0.051595
1459.2528,0.052743
1461.1164,0.052816
1462.9801,0.053281
1464.8438,0.053676
1466.7074,0.052917
1468.5711,0.051901
1470.4348,0.051514
1472.2984,0.051574
1474.1621,0.051673
1476.0258,0.051664
1477.8895,0.051613
1479.7531,0.051602
1481.6168,0.051942
1483.4805,0.052254
1485.3441,0.052558
1487.2078,0.053189
1489.0715,0.054270
1490.9351,0.055233
1492.7988,0.055551
1494.6625,0.056040
1496.5261,0.057439
1498.3898,0.058732
1500.2535,0.059137
1502.1171,0.059253
1503.9808,0.059762
1505.8445,0.061251
1507.7082,0.063709
1509.5718,0.064210
1511.4355,0.064804
1513.2992,0.065619
1515.1628,0.066539
1517.0265,0.067847
1518.8902,0.068902
1520.7538,0.069789
1522.6175,0.071157
1524.4812,0.071943
1526.3448,0.072866
1528.2085,0.073457
1530.0722,0.073939
1531.9359,0.075006
1533.7995,0.076511
1535.6632,0.077111
1537.5269,0.077820
1539.3905,0.079798
1541.2542,0.082466
1543.1179,0.083605
1544.9815,0.084691
1546.8452,0.085931
1548.7089,0.087543
1550.5725,0.089340
1552.4362,0.090746
1554.2999,0.092118
1556.1635,0.093986
1558.0272,0.096801
1559.8909,0.100378
1561.7546,0.100405
1563.6182,0.101423
1565.4819,0.103352
1567.3456,0.105480
1569.2092,0.107579
1571.0729,0.109573
1572.9366,0.111301
1574.8002,0.113850
1576.6639,0.116472
1578.5276,0.117939
1580.3912,0.119363
1582.2549,0.121119
1584.1186,0.122609
1585.9822,0.123778
1587.8459,0.124444
1589.7096,0.124597
1591.5733,0.124235
1593.4369,0.123689
1595.3006,0.122657
1597.1643,0.121206
1599.0279,0.119691
1600.8916,0.118027
1602.7553,0.116113
1604.6189,0.114356
1606.4826,0.113077
1608.3463,0.111824
1610.2099,0.110297
1612.0736,0.108741
1613.9373,0.107444
1615.8010,0.105070
1617.6646,0.099168
1619.5283,0.094647
1621.3920,0.092211
1623.2556,0.087636
1625.1193,0.081592
1626.9830,0.076715
1628.8466,0.070831
1630.7103,0.064816
1632.5740,0.060213
1634.4376,0.055522
1636.3013,0.049347
1638.1650,0.045371
1640.0286,0.044406
1641.8923,0.043751
1643.7560,0.043842
1645.6197,0.044447
1647.4833,0.045782
1649.3470,0.047551
1651.2107,0.049480
1653.0743,0.051457
1654.9380,0.053180
1656.8017,0.054443
1658.6653,0.055748
1660.5290,0.056241
1662.3927,0.055846
1664.2563,0.054997
1666.1200,0.054390
1667.9837,0.053565
1669.8474,0.052213
1671.7110,0.051292
1673.5747,0.051754
1675.4384,0.052832
1677.3020,0.054612
1679.1657,0.056922
1681.0294,0.059905
1682.8930,0.062581
1684.7567,0.064583
1686.6204,0.065387
1688.4840,0.066054
1690.3477,0.065593
1692.2114,0.064228
1694.0750,0.062842
1695.9387,0.060530
1697.8024,0.057754
1699.6661,0.056061
1701.5297,0.050467
1703.3934,0.046576
1705.2571,0.042529
1707.1207,0.036100
1708.9844,0.031565
1710.8481,0.028447
1712.7117,0.025879
1714.5754,0.024191
1716.4391,0.022483
1718.3027,0.020938
1720.1664,0.020069
1722.0301,0.019657
1723.8937,0.018547
1725.7574,0.017138
1727.6211,0.015753
1729.4848,0.014458
1731.3484,0.013380
1733.2121,0.012653
1735.0758,0.011234
1736.9394,0.010684
1738.8031,0.010696
1740.6668,0.010357
1742.5304,0.009881
1744.3941,0.009634
1746.2578,0.009228
1748.1214,0.008949
1749.9851,0.008484
1751.8488,0.008158
1753.7125,0.008048
1755.5761,0.008106
1757.4398,0.008000
1759.3035,0.007926
1761.1671,0.007767
1763.0308,0.007552
1764.8945,0.007503
1766.7581,0.007532
1768.6218,0.007317
1770.4855,0.007423
1772.3491,0.007386
1774.2128,0.007127
1776.0765,0.007190
1777.9401,0.007422
1779.8038,0.007417
1781.6675,0.007468
1783.5312,0.007480
1785.3948,0.007565
1787.2585,0.007483
1789.1222,0.007470
1790.9858,0.007583
1792.8495,0.007563
1794.7132,0.007398
1796.5768,0.007520
1798.4405,0.007586
1800.3042,0.007559
1802.1678,0.007480
1804.0315,0.007637
1805.8952,0.007747
1807.7589,0.007842
1809.6225,0.007722
1811.4862,0.007592
1813.3499,0.007510
1815.2135,0.007509
1817.0772,0.007659
1818.9409,0.007825
1820.8045,0.007651
1822.6682,0.007731
1824.5319,0.007736
1826.3955,0.007511
1828.2592,0.007470
1830.1229,0.007529
1831.9865,0.007249
1833.8502,0.007383
1835.7139,0.007370
1837.5776,0.007222
1839.4412,0.007428
1841.3049,0.007771
1843.1686,0.007693
1845.0322,0.007461
1846.8959,0.007485
1848.7596,0.007745
1850.6232,0.007558
1852.4869,0.007534
1854.3506,0.007687
1856.2142,0.007954
1858.0779,0.007860
1859.9416,0.007732
1861.8052,0.007687
1863.6689,0.007684
1865.5326,0.007776
1867.3963,0.007992
1869.2599,0.007951
1871.1236,0.007681
1872.9873,0.007438
1874.8509,0.007736
1876.7146,0.007964
1878.5783,0.007939
1880.4419,0.007782
1882.3056,0.007645
1884.1693,0.007464
1886.0329,0.007668
1887.8966,0.008030
1889.7603,0.007914
1891.6240,0.007661
1893.4876,0.007900
1895.3513,0.007782
1897.2150,0.007609
1899.0786,0.007810
1900.9423,0.008185
1902.8060,0.007920
1904.6696,0.007670
1906.5333,0.007641
1908.3970,0.007720
1910.2606,0.007691
1912.1243,0.007790
1913.9880,0.007549
1915.8516,0.007728
1917.7153,0.007831
1919.5790,0.007873
1921.4427,0.008144
1923.3063,0.007970
1925.1700,0.007408
1927.0337,0.007188
1928.8973,0.007176
1930.7610,0.007633
1932.6247,0.007871
1934.4883,0.008465
1936.3520,0.008409
1938.2157,0.007941
1940.0793,0.007614
1941.9430,0.007298
1943.8067,0.006096
1945.6704,0.006102
1947.5340,0.006637
1949.3977,0.006692
1951.2614,0.006878
1953.1250,0.006968
1954.9887,0.006944
1956.8524,0.006985
1958.7160,0.005371
1960.5797,0.004616
1962.4434,0.004363
1964.3070,0.004561
1966.1707,0.004473
1968.0344,0.004906
1969.8980,0.004285
1971.7617,0.003316
1973.6254,0.002914
1975.4891,0.004162
1977.3527,0.004061
1979.2164,0.004214
1981.0801,0.004915
1982.9437,0.005602
1984.8074,0.006594
1986.6711,0.007448
1988.5347,0.007236
1990.3984,0.007150
1992.2621,0.006298
1994.1257,0.006255
1995.9894,0.006886
1997.8531,0.007337
1999.7167,0.007277
2001.5804,0.007412
2003.4441,0.006712
2005.3078,0.005638
2007.1714,0.004799
2009.0351,0.005256
2010.8988,0.006499
2012.7624,0.006496
2014.6261,0.004657
2016.4898,0.003764
2018.3534,0.004305
2020.2171,0.005044
2022.0808,0.004412
2023.9444,0.004427
2025.8081,0.004592
2027.6718,0.004331
2029.5355,0.003625
2031.3991,0.003235
2033.2628,0.004183
2035.1265,0.006394
2036.9901,0.007004
2038.8538,0.007724
2040.7175,0.007987
2042.5811,0.007468
2044.4448,0.006582
2046.3085,0.005934
2048.1721,0.005440
2050.0358,0.006821
2051.8995,0.008058
2053.7631,0.007941
2055.6268,0.008004
2057.4905,0.008888
2059.3542,0.008558
2061.2178,0.008281
2063.0815,0.008088
2064.9452,0.008714
2066.8088,0.009292
2068.6725,0.009064
2070.5362,0.008585
2072.3998,0.009185
2074.2635,0.009643
2076.1272,0.010187
2077.9908,0.010399
2079.8545,0.010277
2081.7182,0.010562
2083.5819,0.011046
2085.4455,0.010665
2087.3092,0.009781
2089.1729,0.009317
2091.0365,0.009710
2092.9002,0.009953
2094.7639,0.010297
2096.6275,0.010543
2098.4912,0.010440
2100.3549,0.010245
2102.2185,0.010196
2104.0822,0.010344
2105.9459,0.010395
2107.8095,0.010642
2109.6732,0.011065
2111.5369,0.011310
2113.4006,0.011065
2115.2642,0.010545
2117.1279,0.010613
2118.9916,0.011261
2120.8552,0.011758
2122.7189,0.011305
2124.5826,0.011099
2126.4462,0.010879
2128.3099,0.010454
2130.1736,0.009892
2132.0372,0.009640
2133.9009,0.009227
2135.7646,0.008714
2137.6282,0.008784
2139.4919,0.008966
2141.3556,0.008736
2143.2193,0.008925
2145.0829,0.008878
2146.9466,0.008455
2148.8103,0.008250
2150.6739,0.008046
2152.5376,0.007336
2154.4013,0.006778
2156.2649,0.006581
2158.1286,0.006664
2159.9923,0.005827
2161.8559,0.006585
2163.7196,0.006848
2165.5833,0.006941
2167.4470,0.007464
2169.3106,0.007629
2171.1743,0.008079
2173.0380,0.007985
2174.9016,0.007761
2176.7653,0.008860
2178.6290,0.008688
2180.4926,0.008629
2182.3563,0.009016
2184.2200,0.009061
2186.0836,0.008756
2187.9473,0.008888
2189.8110,0.008489
2191.6746,0.008737
2193.5383,0.008994
2195.4020,0.008667
2197.2657,0.008178
2199.1293,0.008900
2200.9930,0.009699
2202.8567,0.009798
2204.7203,0.010078
2206.5840,0.010492
2208.4477,0.010848
2210.3113,0.010815
2212.1750,0.010240
2214.0387,0.010891
2215.9023,0.012243
2217.7660,0.012189
2219.6297,0.010965
2221.4934,0.010856
2223.3570,0.011091
2225.2207,0.011890
2227.0844,0.012931
2228.9480,0.013099
2230.8117,0.012551
2232.6754,0.012383
2234.5390,0.012929
2236.4027,0.012785
2238.2664,0.012633
2240.1300,0.012620
2241.9937,0.012235
2243.8574,0.012502
2245.7210,0.012897
2247.5847,0.012494
2249.4484,0.012478
2251.3121,0.013472
2253.1757,0.013432
2255.0394,0.013175
2256.9031,0.013704
2258.7667,0.013967
2260.6304,0.013906
2262.4941,0.014115
2264.3577,0.013970
2266.2214,0.014004
2268.0851,0.014532
2269.9487,0.014747
2271.8124,0.014826
2273.6761,0.015136
2275.5397,0.015237
2277.4034,0.015267
2279.2671,0.015140
2281.1308,0.015545
2282.9944,0.016326
2284.8581,0.016848
2286.7218,0.016890
2288.5854,0.016544
2290.4491,0.016195
2292.3128,0.016404
2294.1764,0.016848
2296.0401,0.016817
2297.9038,0.016278
2299.7674,0.016296
2301.6311,0.016423
2303.4948,0.016540
2305.3585,0.016822
2307.2221,0.016615
2309.0858,0.016286
2310.9495,0.016508
2312.8131,0.016983
2314.6768,0.017262
2316.5405,0.017138
2318.4041,0.016928
2320.2678,0.016828
2322.1315,0.016760
2323.9951,0.016715
2325.8588,0.016342
2327.7225,0.015933
2329.5861,0.015759
2331.4498,0.015638
2333.3135,0.015657
2335.1772,0.015802
2337.0408,0.015738
2338.9045,0.015671
2340.7682,0.015797
2342.6318,0.015729
2344.4955,0.015738
2346.3592,0.015747
2348.2228,0.015646
2350.0865,0.015563
2351.9502,0.015445
2353.8138,0.015218
2355.6775,0.015250
2357.5412,0.015865
2359.4049,0.015791
2361.2685,0.015052
2363.1322,0.015113
2364.9959,0.015327
2366.8595,0.015259
2368.7232,0.015560
2370.5869,0.015664
2372.4505,0.015693
2374.3142,0.015895
2376.1779,0.016430
2378.0415,0.016830
2379.9052,0.016784
2381.7689,0.016759
2383.6325,0.016490
2385.4962,0.016366
2387.3599,0.016400
2389.2236,0.016358
2391.0872,0.016403
2392.9509,0.016478
2394.8146,0.016539
2396.6782,0.016541
2398.5419,0.016702
2400.4056,0.016918
2402.2692,0.016970
2404.1329,0.016927
2405.9966,0.017197
2407.8602,0.017201
2409.7239,0.017164
2411.5876,0.017273
2413.4512,0.017310
2415.3149,0.017175
2417.1786,0.017208
2419.0423,0.017361
2420.9059,0.017383
2422.7696,0.017785
2424.6333,0.018061
2426.4969,0.018040
2428.3606,0.017788
2430.2243,0.017743
2432.0879,0.017808
2433.9516,0.017764
2435.8153,0.017962
2437.6789,0.017931
2439.5426,0.017959
2441.4063,0.017867
2443.2700,0.017551
2445.1336,0.017583
2446.9973,0.017600
2448.8610,0.017619
2450.7246,0.017728
2452.5883,0.017845
2454.4520,0.017827
2456.3156,0.017829
2458.1793,0.017811
2460.0430,0.017640
2461.9066,0.017372
2463.7703,0.017746
2465.6340,0.017812
2467.4976,0.017369
2469.3613,0.017298
2471.2250,0.017839
2473.0887,0.017793
2474.9523,0.017774
2476.8160,0.018219
2478.6797,0.018191
2480.5433,0.018032
2482.4070,0.017875
2484.2707,0.017783
2486.1343,0.018096
2487.9980,0.018005
2489.8617,0.017991
2491.7253,0.018317
2493.5890,0.018436
2495.4527,0.018468
2497.3164,0.018715
2499.1800,0.018926
2501.0437,0.019043
2502.9074,0.018968
2504.7710,0.019025
2506.6347,0.019108
2508.4984,0.019002
2510.3620,0.018708
2512.2257,0.018610
2514.0894,0.018774
2515.9530,0.018853
2517.8167,0.019597
2519.6804,0.019709
2521.5440,0.019418
2523.4077,0.019604
2525.2714,0.019571
2527.1351,0.019599
2528.9987,0.019707
2530.8624,0.019573
2532.7261,0.019380
2534.5897,0.019401
2536.4534,0.019520
2538.3171,0.019895
2540.1807,0.020091
2542.0444,0.019923
2543.9081,0.020152
2545.7717,0.020124
2547.6354,0.019784
2549.4991,0.019631
2551.3627,0.019419
2553.2264,0.019678
2555.0901,0.020365
2556.9538,0.020355
2558.8174,0.020095
2560.6811,0.019985
2562.5448,0.020117
2564.4084,0.020281
2566.2721,0.020309
2568.1358,0.020337
2569.9994,0.020415
2571.8631,0.020787
2573.7268,0.021075
2575.5904,0.021237
2577.4541,0.021068
2579.3178,0.020834
2581.1815,0.020972
2583.0451,0.021165
2584.9088,0.021220
2586.7725,0.021518
2588.6361,0.021937
2590.4998,0.022089
2592.3635,0.021765
2594.2271,0.021597
2596.0908,0.022174
2597.9545,0.022496
2599.8181,0.022251
2601.6818,0.022166
2603.5455,0.022246
2605.4091,0.022224
2607.2728,0.022519
2609.1365,0.022785
2611.0002,0.022908
2612.8638,0.023233
2614.7275,0.023340
2616.5912,0.023151
2618.4548,0.023088
2620.3185,0.023458
2622.1822,0.023783
2624.0458,0.023843
2625.9095,0.024061
2627.7732,0.024327
2629.6368,0.024469
2631.5005,0.024510
2633.3642,0.024806
2635.2279,0.025316
2637.0915,0.025456
2638.9552,0.025476
2640.8189,0.025551
2642.6825,0.025446
2644.5462,0.025723
2646.4099,0.026081
2648.2735,0.026134
2650.1372,0.026188
2652.0009,0.026351
2653.8645,0.026307
2655.7282,0.026481
2657.5919,0.026786
2659.4555,0.026810
2661.3192,0.026656
2663.1829,0.026650
2665.0466,0.026888
2666.9102,0.026993
2668.7739,0.026933
2670.6376,0.027013
2672.5012,0.027266
2674.3649,0.027321
2676.2286,0.027303
2678.0922,0.027737
2679.9559,0.028043
2681.8196,0.028032
2683.6832,0.028185
2685.5469,0.028283
2687.4106,0.028331
2689.2742,0.028468
2691.1379,0.028669
2693.0016,0.028930
2694.8653,0.029181
2696.7289,0.029391
2698.5926,0.029625
2700.4563,0.029835
2702.3199,0.030207
2704.1836,0.030589
2706.0473,0.030662
2707.9109,0.030688
2709.7746,0.030894
2711.6383,0.031102
2713.5019,0.031415
2715.3656,0.031684
2717.2293,0.031845
2719.0930,0.032153
2720.9566,0.032557
2722.8203,0.033072
2724.6840,0.033398
2726.5476,0.033752
2728.4113,0.034124
2730.2750,0.034186
2732.1386,0.034448
2734.0023,0.034865
2735.8660,0.035197
2737.7296,0.035574
2739.5933,0.035932
2741.4570,0.036237
2743.3206,0.036494
2745.1843,0.036967
2747.0480,0.037439
2748.9117,0.037836
2750.7753,0.038259
2752.6390,0.038722
2754.5027,0.039076
2756.3663,0.039421
2758.2300,0.039693
2760.0937,0.040169
2761.9573,0.040696
2763.8210,0.041093
2765.6847,0.041672
2767.5483,0.042291
2769.4120,0.042660
2771.2757,0.042985
2773.1394,0.043493
2775.0030,0.044168
2776.8667,0.044781
2778.7304,0.045172
2780.5940,0.045330
2782.4577,0.045518
2784.3214,0.045629
2786.1850,0.045506
2788.0487,0.045276
2789.9124,0.045251
2791.7760,0.045082
2793.6397,0.044598
2795.5034,0.043963
2797.3670,0.043528
2799.2307,0.043419
2801.0944,0.043116
2802.9581,0.042675
2804.8217,0.042368
2806.6854,0.041995
2808.5491,0.041563
2810.4127,0.041519
2812.2764,0.041495
2814.1401,0.041281
2816.0037,0.041361
2817.8674,0.041468
2819.7311,0.041409
2821.5947,0.041441
2823.4584,0.041654
2825.3221,0.041769
2827.1857,0.041764
2829.0494,0.041390
2830.9131,0.040958
2832.7768,0.040814
2834.6404,0.040876
2836.5041,0.040953
2838.3678,0.041034
2840.2314,0.041276
2842.0951,0.041612
2843.9588,0.041847
2845.8224,0.042150
2847.6861,0.042434
2849.5498,0.042625
2851.4134,0.042910
2853.2771,0.043705
2855.1408,0.044298
2857.0045,0.044591
2858.8681,0.045227
2860.7318,0.046176
2862.5955,0.046476
2864.4591,0.046357
2866.3228,0.046367
2868.1865,0.046716
2870.0501,0.047019
2871.9138,0.047133
2873.7775,0.047126
2875.6411,0.047680
2877.5048,0.048149
2879.3685,0.048525
2881.2321,0.048926
2883.0958,0.049240
2884.9595,0.049566
2886.8232,0.049970
2888.6868,0.050333
2890.5505,0.050743
2892.4142,0.051172
2894.2778,0.051612
2896.1415,0.051652
2898.0052,0.052000
2899.8688,0.052292
2901.7325,0.052260
2903.5962,0.052229
2905.4598,0.052326
2907.3235,0.052582
2909.1872,0.052906
2911.0509,0.053180
2912.9145,0.053644
2914.7782,0.053987
2916.6419,0.054085
2918.5055,0.054461
2920.3692,0.055144
2922.2329,0.055571
2924.0965,0.056127
2925.9602,0.056502
2927.8239,0.056876
2929.6875,0.057613
2931.5512,0.058131
2933.4149,0.058375
2935.2785,0.058786
2937.1422,0.059207
2939.0059,0.059475
2940.8696,0.059334
2942.7332,0.059569
2944.5969,0.059900
2946.4606,0.060130
2948.3242,0.060292
2950.1879,0.060584
2952.0516,0.060933
2953.9152,0.061337
2955.7789,0.061450
2957.6426,0.061615
2959.5062,0.062016
2961.3699,0.062560
2963.2336,0.063013
2965.0972,0.063500
2966.9609,0.064021
2968.8246,0.064690
2970.6883,0.065476
2972.5519,0.066284
2974.4156,0.066493
2976.2793,0.066607
2978.1429,0.067256
2980.0066,0.067629
2981.8703,0.067783
2983.7339,0.068165
2985.5976,0.068444
2987.4613,0.068635
2989.3249,0.068631
2991.1886,0.069149
2993.0523,0.069949
2994.9160,0.070606
2996.7796,0.071142
2998.6433,0.071790
3000.5070,0.072129
3002.3706,0.072697
3004.2343,0.073366
3006.0980,0.073941
3007.9616,0.074473
3009.8253,0.075250
3011.6890,0.075451
3013.5526,0.075714
3015.4163,0.076394
3017.2800,0.076956
3019.1436,0.077271
3021.0073,0.077663
3022.8710,0.077766
3024.7347,0.077796
3026.5983,0.078002
3028.4620,0.078258
3030.3257,0.078311
3032.1893,0.078557
3034.0530,0.078777
3035.9167,0.079267
3037.7803,0.079683
3039.6440,0.079928
3041.5077,0.080329
3043.3713,0.080647
3045.2350,0.080776
3047.0987,0.081022
3048.9624,0.080945
3050.8260,0.080827
3052.6897,0.080846
3054.5534,0.081385
3056.4170,0.081897
3058.2807,0.082078
3060.1444,0.081863
3062.0080,0.081986
3063.8717,0.081888
3065.7354,0.081774
3067.5990,0.081962
3069.4627,0.082145
3071.3264,0.082009
3073.1900,0.081698
3075.0537,0.081656
3076.9174,0.081664
3078.7811,0.081479
3080.6447,0.081466
3082.5084,0.081370
3084.3721,0.081286
3086.2357,0.081023
3088.0994,0.080625
3089.9631,0.079965
3091.8267,0.079746
3093.6904,0.079600
3095.5541,0.078914
3097.4177,0.077928
3099.2814,0.077612
3101.1451,0.077252
3103.0087,0.076578
3104.8724,0.075317
3106.7361,0.074532
3108.5998,0.074365
3110.4634,0.074010
3112.3271,0.073428
3114.1908,0.072472
3116.0544,0.071546
3117.9181,0.071862
3119.7818,0.071861
3121.6454,0.071166
3123.5091,0.070303
3125.3728,0.069385
3127.2364,0.068663
3129.1001,0.068203
3130.9638,0.067840
3132.8275,0.067515
3134.6911,0.066726
3136.5548,0.066089
3138.4185,0.065734
3140.2821,0.065469
3142.1458,0.065583
3144.0095,0.065313
3145.8731,0.064458
3147.7368,0.064162
3149.6005,0.063554
3151.4641,0.063180
3153.3278,0.063627
3155.1915,0.063829
3157.0551,0.063266
3158.9188,0.062472
3160.7825,0.062093
3162.6462,0.061779
3164.5098,0.061239
3166.3735,0.060905
3168.2372,0.060863
3170.1008,0.060615
3171.9645,0.059992
3173.8282,0.059827
3175.6918,0.059696
3177.5555,0.059089
3179.4192,0.058699
3181.2828,0.058887
3183.1465,0.058967
3185.0102,0.058761
3186.8739,0.058588
3188.7375,0.058806
3190.6012,0.058908
3192.4649,0.058552
3194.3285,0.057932
3196.1922,0.058287
3198.0559,0.058441
3199.9195,0.058566
3201.7832,0.058854
3203.6469,0.058827
3205.5105,0.058393
3207.3742,0.058330
3209.2379,0.058684
3211.1015,0.058752
3212.9652,0.058747
3214.8289,0.059305
3216.6926,0.059451
3218.5562,0.058957
3220.4199,0.059348
3222.2836,0.059989
3224.1472,0.059669
3226.0109,0.059531
3227.8746,0.059626
3229.7382,0.059512
3231.6019,0.059603
3233.4656,0.060066
3235.3292,0.060284
3237.1929,0.060400
3239.0566,0.060693
3240.9202,0.060885
3242.7839,0.060708
3244.6476,0.061015
3246.5113,0.061297
3248.3749,0.061637
3250.2386,0.061537
3252.1023,0.061437
3253.9659,0.061947
3255.8296,0.062557
3257.6933,0.062795
3259.5569,0.062930
3261.4206,0.063487
3263.2843,0.063870
3265.1479,0.063768
3267.0116,0.064059
3268.8753,0.063748
3270.7390,0.063661
3272.6026,0.064282
3274.4663,0.064041
3276.3300,0.063049
3278.1936,0.063066
3280.0573,0.063620
3281.9210,0.063913
3283.7846,0.063362
3285.6483,0.063072
3287.5120,0.062627
3289.3756,0.061574
3291.2393,0.060836
3293.1030,0.060677
3294.9666,0.060559
3296.8303,0.060459
3298.6940,0.060175
3300.5577,0.059225
3302.4213,0.057917
3304.2850,0.057258
3306.1487,0.056689
3308.0123,0.056490
3309.8760,0.056614
3311.7397,0.056427
3313.6033,0.055899
3315.4670,0.055347
3317.3307,0.055720
3319.1943,0.056420
3321.0580,0.056156
3322.9217,0.055475
3324.7854,0.055181
3326.6490,0.055903
3328.5127,0.056797
3330.3764,0.057562
3332.2400,0.057084
3334.1037,0.056439
3335.9674,0.056680
3337.8310,0.056170
3339.6947,0.055317
3341.5584,0.054882
3343.4220,0.054198
3345.2857,0.052782
3347.1494,0.051266
3349.0130,0.050706
3350.8767,0.050362
3352.7404,0.049769
3354.6041,0.049000
3356.4677,0.048464
3358.3314,0.047505
3360.1951,0.046826
3362.0587,0.046204
3363.9224,0.045259
3365.7861,0.044833
3367.6497,0.044199
3369.5134,0.043763
3371.3771,0.044493
3373.2407,0.044734
3375.1044,0.044415
3376.9681,0.044319
3378.8317,0.044229
3380.6954,0.044148
3382.5591,0.044668
3384.4228,0.045235
3386.2864,0.044884
3388.1501,0.044493
3390.0138,0.045267
3391.8774,0.046457
3393.7411,0.046663
3395.6048,0.045875
3397.4684,0.045529
3399.3321,0.045586
3401.1958,0.045636
3403.0594,0.045333
3404.9231,0.045140
3406.7868,0.044065
3408.6505,0.042986
3410.5141,0.042770
3412.3778,0.042428
3414.2415,0.041182
3416.1051,0.039943
3417.9688,0.038610
3419.8325,0.036520
3421.6961,0.034824
3423.5598,0.034356
3425.4235,0.033706
3427.2871,0.032924
3429.1508,0.031908
3431.0145,0.030430
3432.8781,0.029853
3434.7418,0.029484
3436.6055,0.027892
3438.4692,0.027245
3440.3328,0.027230
3442.1965,0.026486
3444.0602,0.025650
3445.9238,0.025169
3447.7875,0.025122
3449.6512,0.024999
3451.5148,0.024004
3453.3785,0.022448
3455.2422,0.021877
3457.1058,0.022636
3458.9695,0.023156
3460.8332,0.023738
3462.6969,0.023543
3464.5605,0.021954
3466.4242,0.020769
3468.2879,0.020647
3470.1515,0.020294
3472.0152,0.020297
3473.8789,0.020620
3475.7425,0.020237
3477.6062,0.019454
3479.4699,0.018555
3481.3335,0.018486
3483.1972,0.018827
3485.0609,0.018500
3486.9245,0.017624
3488.7882,0.016251
3490.6519,0.015272
3492.5156,0.015949
3494.3792,0.016369
3496.2429,0.016032
3498.1066,0.015860
3499.9702,0.014981
3501.8339,0.014830
3503.6976,0.015215
3505.5612,0.014255
3507.4249,0.013297
3509.2886,0.013150
3511.1522,0.012664
3513.0159,0.012247
3514.8796,0.012711
3516.7432,0.013045
3518.6069,0.012435
3520.4706,0.011642
3522.3343,0.011437
3524.1979,0.011831
3526.0616,0.011593
3527.9253,0.011533
3529.7889,0.011776
3531.6526,0.011292
3533.5163,0.010884
3535.3799,0.010352
3537.2436,0.009377
3539.1073,0.009146
3540.9709,0.009909
3542.8346,0.010215
3544.6983,0.010058
3546.5620,0.009993
3548.4256,0.009652
3550.2893,0.009840
3552.1530,0.009565
3554.0166,0.007977
3555.8803,0.007850
3557.7440,0.008725
3559.6076,0.008201
3561.4713,0.007521
3563.3350,0.007171
3565.1986,0.007025
3567.0623,0.007310
3568.9260,0.007504
3570.7896,0.008092
3572.6533,0.008459
3574.5170,0.008243
3576.3807,0.007896
3578.2443,0.007687
3580.1080,0.007321
3581.9717,0.007280
3583.8353,0.007714
3585.6990,0.008027
3587.5627,0.007690
3589.4263,0.006093
3591.2900,0.004957
3593.1537,0.005778
3595.0173,0.006841
3596.8810,0.007459
3598.7447,0.007766
3600.6084,0.007434
3602.4720,0.007519
3604.3357,0.007722
3606.1994,0.007715
3608.0630,0.007689
3609.9267,0.007122
3611.7904,0.006537
3613.6540,0.006249
3615.5177,0.006307
3617.3814,0.006495
3619.2450,0.006224
3621.1087,0.005920
3622.9724,0.005945
3624.8360,0.006115
3626.6997,0.005846
3628.5634,0.005955
3630.4271,0.006698
3632.2907,0.006830
3634.1544,0.006789
3636.0181,0.006638
3637.8817,0.006903
3639.7454,0.007305
3641.6091,0.007342
3643.4727,0.007148
3645.3364,0.006778
3647.2001,0.006434
3649.0637,0.006243
3650.9274,0.005517
3652.7911,0.005330
3654.6547,0.006130
3656.5184,0.006628
3658.3821,0.006666
3660.2458,0.006564
3662.1094,0.006837
3663.9731,0.006836
3665.8368,0.006982
3667.7004,0.007438
3669.5641,0.007080
3671.4278,0.006387
3673.2914,0.006180
3675.1551,0.006406
3677.0188,0.005967
3678.8824,0.005146
3680.7461,0.005679
3682.6098,0.006608
3684.4735,0.006988
3686.3371,0.006722
3688.2008,0.006524
3690.0645,0.006334
3691.9281,0.006232
3693.7918,0.006772
3695.6555,0.007079
3697.5191,0.006940
3699.3828,0.006923
3701.2465,0.007160
3703.1101,0.007336
3704.9738,0.007014
3706.8375,0.007104
3708.7011,0.007590
3710.5648,0.007508
3712.4285,0.007287
3714.2922,0.007022
3716.1558,0.006584
3718.0195,0.006582
3719.8832,0.007326
3721.7468,0.007814
3723.6105,0.007139
3725.4742,0.006686
3727.3378,0.007338
3729.2015,0.007171
3731.0652,0.006843
3732.9288,0.007117
3734.7925,0.006472
3736.6562,0.005779
3738.5199,0.005952
3740.3835,0.006622
3742.2472,0.007211
3744.1109,0.007438
3745.9745,0.007069
3747.8382,0.007017
3749.7019,0.007319
3751.5655,0.006867
3753.4292,0.006234
3755.2929,0.006300
3757.1565,0.007360
3759.0202,0.008394
3760.8839,0.008011
3762.7475,0.007293
3764.6112,0.007818
3766.4749,0.008702
3768.3386,0.008582
3770.2022,0.008135
3772.0659,0.007765
3773.9296,0.007253
3775.7932,0.007615
3777.6569,0.008328
3779.5206,0.008289
3781.3842,0.007990
3783.2479,0.008097
3785.1116,0.008340
3786.9752,0.008406
3788.8389,0.008485
3790.7026,0.008554
3792.5662,0.008604
3794.4299,0.008716
3796.2936,0.008481
3798.1573,0.008052
3800.0209,0.007940
3801.8846,0.007991
3803.7483,0.007510
3805.6119,0.007671
3807.4756,0.008638
3809.3393,0.008950
3811.2029,0.008447
3813.0666,0.008130
3814.9303,0.008324
3816.7939,0.008802
3818.6576,0.008474
3820.5213,0.008000
3822.3850,0.008169
3824.2486,0.008256
3826.1123,0.008047
3827.9760,0.008102
3829.8396,0.008439
3831.7033,0.008525
3833.5670,0.008353
3835.4306,0.008165
3837.2943,0.008403
3839.1580,0.008352
3841.0216,0.007698
3842.8853,0.007875
3844.7490,0.008133
3846.6126,0.007908
3848.4763,0.008257
3850.3400,0.009184
3852.2037,0.009835
3854.0673,0.009409
3855.9310,0.007803
3857.7947,0.007466
3859.6583,0.008330
3861.5220,0.009135
3863.3857,0.009647
3865.2493,0.009465
3867.1130,0.008743
3868.9767,0.008826
3870.8403,0.008545
3872.7040,0.007656
3874.5677,0.008108
3876.4314,0.008955
3878.2950,0.009141
3880.1587,0.008738
3882.0224,0.008384
3883.8860,0.008744
3885.7497,0.009046
3887.6134,0.009047
3889.4770,0.009332
3891.3407,0.009711
3893.2044,0.009326
3895.0680,0.008862
3896.9317,0.009224
3898.7954,0.009477
3900.6590,0.009283
3902.5227,0.009323
3904.3864,0.009745
3906.2501,0.009693
3908.1137,0.009348
3909.9774,0.009154
3911.8411,0.009245
3913.7047,0.009325
3915.5684,0.009248
3917.4321,0.009420
3919.2957,0.009813
3921.1594,0.009987
3923.0231,0.009773
3924.8867,0.009496
3926.7504,0.009498
3928.6141,0.009676
3930.4777,0.009809
3932.3414,0.009951
3934.2051,0.009896
3936.0688,0.009525
3937.9324,0.009468
3939.7961,0.009832
3941.6598,0.009945
3943.5234,0.009815
3945.3871,0.009864
3947.2508,0.010061
3949.1144,0.010149
3950.9781,0.009694
3952.8418,0.009274
3954.7054,0.009913
3956.5691,0.010450
3958.4328,0.010172
3960.2965,0.009908
3962.1601,0.009858
3964.0238,0.010081
3965.8875,0.010201
3967.7511,0.010194
3969.6148,0.010200
3971.4785,0.009987
3973.3421,0.010070
3975.2058,0.010141
3977.0695,0.009984
3978.9331,0.009969
3980.7968,0.009890
3982.6605,0.010242
3984.5241,0.010494
3986.3878,0.010357
3988.2515,0.010335
3990.1152,0.009938
3991.9788,0.009629
3993.8425,0.009782
3995.7062,0.010091
3997.5698,0.010401
3999.4335,0.010690
