Wavenumber,Intensity
650.4205,0.222383
652.2841,0.215688
654.1478,0.211702
656.0115,0.208158
657.8751,0.203535
659.7388,0.197890
661.6025,0.194606
663.4661,0.190144
665.3298,0.185966
667.1935,0.184220
669.0571,0.186092
670.9208,0.184820
672.7845,0.185094
674.6481,0.185702
676.5118,0.186216
678.3755,0.186850
680.2392,0.187777
682.1028,0.187922
683.9665,0.189679
685.8302,0.188872
687.6938,0.188336
689.5575,0.189662
691.4212,0.190691
693.2848,0.190474
695.1485,0.191896
697.0122,0.193681
698.8758,0.195976
700.7395,0.196408
702.6032,0.194155
704.4669,0.189471
706.3305,0.183534
708.1942,0.174932
710.0579,0.164551
711.9215,0.155030
713.7852,0.146415
715.6489,0.137934
717.5125,0.131011
719.3762,0.125512
721.2399,0.120766
723.1035,0.115741
724.9672,0.110798
726.8309,0.106551
728.6945,0.103208
730.5582,0.100192
732.4219,0.096728
734.2856,0.093177
736.1492,0.090940
738.0129,0.090023
739.8766,0.090709
741.7402,0.092489
743.6039,0.095032
745.4676,0.096755
747.3312,0.096529
749.1949,0.095722
751.0586,0.095300
752.9222,0.094394
754.7859,0.093456
756.6496,0.092574
758.5132,0.091720
760.3769,0.090776
762.2406,0.089914
764.1043,0.089478
765.9679,0.089346
767.8316,0.088924
769.6953,0.088557
771.5589,0.088471
773.4226,0.088946
775.2863,0.089191
777.1499,0.089239
779.0136,0.089918
780.8773,0.091093
782.7409,0.092577
784.6046,0.094144
786.4683,0.095533
788.3320,0.097170
790.1956,0.099202
792.0593,0.101175
793.9230,0.103132
795.7866,0.105055
797.6503,0.106776
799.5140,0.108703
801.3776,0.110037
803.2413,0.110321
805.1050,0.109678
806.9686,0.108469
808.8323,0.106485
810.6960,0.103867
812.5596,0.100761
814.4233,0.097474
816.2870,0.094198
818.1507,0.090949
820.0143,0.088079
821.8780,0.085911
823.7417,0.084964
825.6053,0.085695
827.4690,0.087592
829.3327,0.088529
831.1963,0.083348
833.0600,0.071909
834.9237,0.061926
836.7873,0.057443
838.6510,0.055977
840.5147,0.055294
842.3784,0.055104
844.2420,0.054922
846.1057,0.054698
847.9694,0.054359
849.8330,0.054179
851.6967,0.054105
853.5604,0.053698
855.4240,0.053277
857.2877,0.052954
859.1514,0.052805
861.0150,0.052747
862.8787,0.052436
864.7424,0.051932
866.6060,0.051770
868.4697,0.051780
870.3334,0.051526
872.1971,0.051450
874.0607,0.051635
875.9244,0.051666
877.7881,0.051739
879.6517,0.052034
881.5154,0.052485
883.3791,0.053089
885.2427,0.053571
887.1064,0.054029
888.9701,0.054614
890.8337,0.055379
892.6974,0.056241
894.5611,0.057143
896.4247,0.058009
898.2884,0.059141
900.1521,0.060761
902.0158,0.062755
903.8794,0.065336
905.7431,0.068852
907.6068,0.073258
909.4704,0.078632
911.3341,0.085871
913.1978,0.094841
915.0614,0.099529
916.9251,0.091322
918.7888,0.074653
920.6524,0.061767
922.5161,0.056048
924.3798,0.054383
926.2435,0.054135
928.1071,0.054472
929.9708,0.054987
931.8345,0.055464
933.6981,0.055917
935.5618,0.056455
937.4255,0.056930
939.2891,0.057252
941.1528,0.057582
943.0165,0.058000
944.8801,0.058476
946.7438,0.059072
948.6075,0.059878
950.4711,0.060888
952.3348,0.061936
954.1985,0.063053
956.0622,0.064459
957.9258,0.065921
959.7895,0.067350
961.6532,0.068924
963.5168,0.070681
965.3805,0.072795
967.2442,0.075497
969.1078,0.078786
970.9715,0.082285
972.8352,0.086464
974.6988,0.092768
976.5625,0.103210
978.4262,0.120641
980.2899,0.144403
982.1535,0.153446
984.0172,0.126699
985.8809,0.092400
987.7445,0.077485
989.6082,0.075561
991.4719,0.076329
993.3355,0.077276
995.1992,0.078288
997.0629,0.079339
998.9265,0.080276
1000.7902,0.081092
1002.6539,0.081719
1004.5175,0.082392
1006.3812,0.083377
1008.2449,0.084339
1010.1086,0.085246
1011.9722,0.086169
1013.8359,0.087093
1015.6996,0.088056
1017.5632,0.088909
1019.4269,0.089601
1021.2906,0.090253
1023.1542,0.090926
1025.0179,0.091648
1026.8816,0.092428
1028.7452,0.093266
1030.6089,0.094242
1032.4726,0.095384
1034.3362,0.096677
1036.1999,0.098417
1038.0636,0.100748
1039.9273,0.103450
1041.7909,0.106485
1043.6546,0.110101
1045.5183,0.113980
1047.3819,0.116799
1049.2456,0.116285
1051.1093,0.110073
1052.9729,0.099423
1054.8366,0.089375
1056.7003,0.083120
1058.5639,0.080284
1060.4276,0.079448
1062.2913,0.079377
1064.1550,0.079684
1066.0186,0.080650
1067.8823,0.082215
1069.7460,0.084145
1071.6096,0.086538
1073.4733,0.089309
1075.3370,0.091849
1077.2006,0.093875
1079.0643,0.095678
1080.9280,0.097502
1082.7916,0.099427
1084.6553,0.101490
1086.5190,0.103886
1088.3826,0.106767
1090.2463,0.110266
1092.1100,0.114455
1093.9737,0.119381
1095.8373,0.125181
1097.7010,0.131851
1099.5647,0.139197
1101.4283,0.146711
1103.2920,0.153736
1105.1557,0.159101
1107.0193,0.160525
1108.8830,0.156363
1110.7467,0.146634
1112.6103,0.133377
1114.4740,0.119565
1116.3377,0.106991
1118.2014,0.096649
1120.0650,0.088984
1121.9287,0.083691
1123.7924,0.080059
1125.6560,0.077331
1127.5197,0.075033
1129.3834,0.072906
1131.2470,0.070946
1133.1107,0.069392
1134.9744,0.068333
1136.8380,0.067711
1138.7017,0.067472
1140.5654,0.067534
1142.4290,0.067808
1144.2927,0.068203
1146.1564,0.068648
1148.0201,0.069041
1149.8837,0.069330
1151.7474,0.069626
1153.6111,0.069944
1155.4747,0.070258
1157.3384,0.070551
1159.2021,0.070786
1161.0657,0.071179
1162.9294,0.072003
1164.7931,0.073474
1166.6567,0.075829
1168.5204,0.079106
1170.3841,0.082767
1172.2477,0.085359
1174.1114,0.084984
1175.9751,0.081014
1177.8388,0.075348
1179.7024,0.070554
1181.5661,0.067753
1183.4298,0.066639
1185.2934,0.066360
1187.1571,0.066388
1189.0208,0.066489
1190.8844,0.066587
1192.7481,0.066683
1194.6118,0.066731
1196.4754,0.066921
1198.3391,0.067244
1200.2028,0.067529
1202.0665,0.067888
1203.9301,0.068295
1205.7938,0.068662
1207.6575,0.069010
1209.5211,0.069397
1211.3848,0.069866
1213.2485,0.070347
1215.1121,0.070811
1216.9758,0.071321
1218.8395,0.071834
1220.7031,0.072327
1222.5668,0.072870
1224.4305,0.073424
1226.2941,0.073948
1228.1578,0.074455
1230.0215,0.074973
1231.8852,0.075445
1233.7488,0.075954
1235.6125,0.076607
1237.4762,0.077221
1239.3398,0.077803
1241.2035,0.078416
1243.0672,0.078997
1244.9308,0.079589
1246.7945,0.080252
1248.6582,0.081000
1250.5218,0.081713
1252.3855,0.082451
1254.2492,0.083323
1256.1129,0.084227
1257.9765,0.085144
1259.8402,0.086216
1261.7039,0.087354
1263.5675,0.088437
1265.4312,0.089471
1267.2949,0.090127
1269.1585,0.090225
1271.0222,0.090173
1272.8859,0.090279
1274.7495,0.090622
1276.6132,0.091335
1278.4769,0.092385
1280.3405,0.093697
1282.2042,0.095304
1284.0679,0.097225
1285.9316,0.099502
1287.7952,0.102134
1289.6589,0.104931
1291.5226,0.108152
1293.3862,0.112147
1295.2499,0.116803
1297.1136,0.122230
1298.9772,0.128721
1300.8409,0.136557
1302.7046,0.145229
1304.5682,0.152318
1306.4319,0.153300
1308.2956,0.142621
1310.1592,0.120657
1312.0229,0.097378
1313.8866,0.081966
1315.7503,0.075997
1317.6139,0.075645
1319.4776,0.077620
1321.3413,0.080197
1323.2049,0.083026
1325.0686,0.086138
1326.9323,0.089228
1328.7959,0.092212
1330.6596,0.094945
1332.5233,0.097096
1334.3869,0.098494
1336.2506,0.099586
1338.1143,0.101290
1339.9780,0.103366
1341.8416,0.104064
1343.7053,0.104095
1345.5690,0.104771
1347.4326,0.105810
1349.2963,0.107192
1351.1600,0.108839
1353.0236,0.110755
1354.8873,0.113211
1356.7510,0.115696
1358.6146,0.117797
1360.4783,0.120636
1362.3420,0.125444
1364.2056,0.129791
1366.0693,0.132117
1367.9330,0.135613
1369.7967,0.139803
1371.6603,0.143130
1373.5240,0.147934
1375.3877,0.153448
1377.2513,0.157121
1379.1150,0.161898
1380.9787,0.168105
1382.8423,0.174455
1384.7060,0.181345
1386.5697,0.190372
1388.4333,0.200420
1390.2970,0.205812
1392.1607,0.208510
1394.0244,0.209210
1395.8880,0.203565
1397.7517,0.193619
1399.6154,0.182458
1401.4790,0.171699
1403.3427,0.162104
1405.2064,0.147927
1407.0700,0.128710
1408.9337,0.109708
1410.7974,0.092596
1412.6610,0.080686
1414.5247,0.075272
1416.3884,0.075076
1418.2520,0.080355
1420.1157,0.089919
1421.9794,0.094482
1423.8431,0.092021
1425.7067,0.082252
1427.5704,0.072072
1429.4341,0.066376
1431.2977,0.064531
1433.1614,0.064593
1435.0251,0.066207
1436.8887,0.070088
1438.7524,0.072321
1440.6161,0.072933
1442.4797,0.074494
1444.3434,0.075946
1446.2071,0.077045
1448.0707,0.077435
1449.9344,0.075637
1451.7981,0.072436
1453.6618,0.069178
1455.5254,0.068318
1457.3891,0.072169
1459.2528,0.074030
1461.1164,0.072792
1462.9801,0.072772
1464.8438,0.073699
1466.7074,0.072993
1468.5711,0.070875
1470.4348,0.069833
1472.2984,0.070851
1474.1621,0.071905
1476.0258,0.071466
1477.8895,0.071271
1479.7531,0.071125
1481.6168,0.071650
1483.4805,0.071949
1485.3441,0.072058
1487.2078,0.073109
1489.0715,0.075392
1490.9351,0.077224
1492.7988,0.076723
1494.6625,0.076573
1496.5261,0.078997
1498.3898,0.081496
1500.2535,0.081853
1502.1171,0.081114
1503.9808,0.080610
1505.8445,0.083464
1507.7082,0.091015
1509.5718,0.090654
1511.4355,0.089743
1513.2992,0.090315
1515.1628,0.091527
1517.0265,0.093574
1518.8902,0.094857
1520.7538,0.096729
1522.6175,0.100026
1524.4812,0.100231
1526.3448,0.101487
1528.2085,0.102736
1530.0722,0.102746
1531.9359,0.103999
1533.7995,0.107119
1535.6632,0.107549
1537.5269,0.107194
1539.3905,0.111576
1541.2542,0.119132
1543.1179,0.120148
1544.9815,0.121592
1546.8452,0.122902
1548.7089,0.124400
1550.5725,0.127339
1552.4362,0.129219
1554.2999,0.130803
1556.1635,0.133431
1558.0272,0.139258
1559.8909,0.151827
1561.7546,0.149298
1563.6182,0.147977
1565.4819,0.150333
1567.3456,0.153259
1569.2092,0.157568
1571.0729,0.161917
1572.9366,0.162717
1574.8002,0.166282
1576.6639,0.173895
1578.5276,0.177105
1580.3912,0.177941
1582.2549,0.180781
1584.1186,0.183360
1585.9822,0.185161
1587.8459,0.186261
1589.7096,0.186815
1591.5733,0.186558
1593.4369,0.185744
1595.3006,0.184194
1597.1643,0.181943
1599.0279,0.179313
1600.8916,0.176743
1602.7553,0.174073
1604.6189,0.171580
1606.4826,0.169254
1608.3463,0.167216
1610.2099,0.164714
1612.0736,0.161271
1613.9373,0.157439
1615.8010,0.153257
1617.6646,0.145746
1619.5283,0.137605
1621.3920,0.131908
1623.2556,0.124868
1625.1193,0.116143
1626.9830,0.108185
1628.8466,0.098830
1630.7103,0.089049
1632.5740,0.081203
1634.4376,0.074097
1636.3013,0.066353
1638.1650,0.061228
1640.0286,0.059664
1641.8923,0.058748
1643.7560,0.059176
1645.6197,0.061193
1647.4833,0.064616
1649.3470,0.066283
1651.2107,0.068337
1653.0743,0.074504
1654.9380,0.079494
1656.8017,0.078609
1658.6653,0.079075
1660.5290,0.079589
1662.3927,0.079336
1664.2563,0.077450
1666.1200,0.075315
1667.9837,0.073621
1669.8474,0.071969
1671.7110,0.070707
1673.5747,0.071348
1675.4384,0.073953
1677.3020,0.077024
1679.1657,0.079744
1681.0294,0.084211
1682.8930,0.089241
1684.7567,0.095914
1686.6204,0.098003
1688.4840,0.096990
1690.3477,0.095361
1692.2114,0.092386
1694.0750,0.089180
1695.9387,0.085661
1697.8024,0.081406
1699.6661,0.078271
1701.5297,0.070668
1703.3934,0.063842
1705.2571,0.056794
1707.1207,0.047313
1708.9844,0.040565
1710.8481,0.035913
1712.7117,0.032188
1714.5754,0.029876
1716.4391,0.028224
1718.3027,0.027109
1720.1664,0.025661
1722.0301,0.024606
1723.8937,0.023136
1725.7574,0.021151
1727.6211,0.019075
1729.4848,0.017484
1731.3484,0.016086
1733.2121,0.015224
1735.0758,0.014220
1736.9394,0.013491
1738.8031,0.013106
1740.6668,0.012758
1742.5304,0.012400
1744.3941,0.012348
1746.2578,0.012042
1748.1214,0.011838
1749.9851,0.011348
1751.8488,0.010945
1753.7125,0.010825
1755.5761,0.010888
1757.4398,0.010725
1759.3035,0.010694
1761.1671,0.010760
1763.0308,0.010788
1764.8945,0.010532
1766.7581,0.010525
1768.6218,0.010443
1770.4855,0.010558
1772.3491,0.010572
1774.2128,0.010439
1776.0765,0.010350
1777.9401,0.010520
1779.8038,0.010520
1781.6675,0.010469
1783.5312,0.010524
1785.3948,0.010695
1787.2585,0.010680
1789.1222,0.010737
1790.9858,0.010844
1792.8495,0.010933
1794.7132,0.010702
1796.5768,0.010705
1798.4405,0.010678
1800.3042,0.010765
1802.1678,0.010840
1804.0315,0.011044
1805.8952,0.011263
1807.7589,0.011396
1809.6225,0.011288
1811.4862,0.011301
1813.3499,0.011175
1815.2135,0.011174
1817.0772,0.011061
1818.9409,0.011171
1820.8045,0.011203
1822.6682,0.011148
1824.5319,0.011033
1826.3955,0.011089
1828.2592,0.011059
1830.1229,0.011001
1831.9865,0.010634
1833.8502,0.010581
1835.7139,0.010828
1837.5776,0.011045
1839.4412,0.010726
1841.3049,0.010773
1843.1686,0.010985
1845.0322,0.011229
1846.8959,0.011115
1848.7596,0.011063
1850.6232,0.011024
1852.4869,0.011153
1854.3506,0.011133
1856.2142,0.011168
1858.0779,0.011070
1859.9416,0.011280
1861.8052,0.011509
1863.6689,0.011457
1865.5326,0.011029
1867.3963,0.010928
1869.2599,0.011087
1871.1236,0.011075
1872.9873,0.010879
1874.8509,0.011025
1876.7146,0.011191
1878.5783,0.011333
1880.4419,0.011152
1882.3056,0.011391
1884.1693,0.011551
1886.0329,0.011554
1887.8966,0.011640
1889.7603,0.011655
1891.6240,0.011293
1893.4876,0.011131
1895.3513,0.011260
1897.2150,0.011657
1899.0786,0.011362
1900.9423,0.011191
1902.8060,0.011314
1904.6696,0.011156
1906.5333,0.010924
1908.3970,0.011320
1910.2606,0.011346
1912.1243,0.011280
1913.9880,0.011396
1915.8516,0.011529
1917.7153,0.010999
1919.5790,0.011131
1921.4427,0.011612
1923.3063,0.011624
1925.1700,0.010976
1927.0337,0.011073
1928.8973,0.010998
1930.7610,0.011115
1932.6247,0.010972
1934.4883,0.010514
1936.3520,0.010142
1938.2157,0.010492
1940.0793,0.010941
1941.9430,0.011338
1943.8067,0.010360
1945.6704,0.009753
1947.5340,0.009956
1949.3977,0.009939
1951.2614,0.009709
1953.1250,0.009470
1954.9887,0.008666
1956.8524,0.008350
1958.7160,0.007984
1960.5797,0.008040
1962.4434,0.006898
1964.3070,0.006107
1966.1707,0.004807
1968.0344,0.004337
1969.8980,0.004172
1971.7617,0.005030
1973.6254,0.005069
1975.4891,0.006263
1977.3527,0.006838
1979.2164,0.007088
1981.0801,0.007994
1982.9437,0.007580
1984.8074,0.007248
1986.6711,0.008137
1988.5347,0.008105
1990.3984,0.008110
1992.2621,0.007396
1994.1257,0.007584
1995.9894,0.008376
1997.8531,0.009973
1999.7167,0.009284
2001.5804,0.008012
2003.4441,0.007769
2005.3078,0.007805
2007.1714,0.008266
2009.0351,0.008142
2010.8988,0.006416
2012.7624,0.005792
2014.6261,0.006990
2016.4898,0.007344
2018.3534,0.006338
2020.2171,0.006367
2022.0808,0.005568
2023.9444,0.004945
2025.8081,0.004599
2027.6718,0.005214
2029.5355,0.005079
2031.3991,0.006126
2033.2628,0.006616
2035.1265,0.007437
2036.9901,0.007810
2038.8538,0.007994
2040.7175,0.007543
2042.5811,0.007891
2044.4448,0.008589
2046.3085,0.009773
2048.1721,0.009621
2050.0358,0.009651
2051.8995,0.010427
2053.7631,0.011273
2055.6268,0.011761
2057.4905,0.012082
2059.3542,0.011546
2061.2178,0.011696
2063.0815,0.012072
2064.9452,0.012247
2066.8088,0.012103
2068.6725,0.012937
2070.5362,0.013723
2072.3998,0.014037
2074.2635,0.013372
2076.1272,0.013060
2077.9908,0.013285
2079.8545,0.014018
2081.7182,0.014194
2083.5819,0.014324
2085.4455,0.014258
2087.3092,0.014542
2089.1729,0.014938
2091.0365,0.014960
2092.9002,0.014732
2094.7639,0.014612
2096.6275,0.014036
2098.4912,0.014234
2100.3549,0.014460
2102.2185,0.014153
2104.0822,0.014061
2105.9459,0.014403
2107.8095,0.014794
2109.6732,0.014873
2111.5369,0.014555
2113.4006,0.014886
2115.2642,0.015553
2117.1279,0.015535
2118.9916,0.015000
2120.8552,0.015042
2122.7189,0.015116
2124.5826,0.015000
2126.4462,0.014549
2128.3099,0.014730
2130.1736,0.014775
2132.0372,0.014133
2133.9009,0.013100
2135.7646,0.013292
2137.6282,0.013051
2139.4919,0.012716
2141.3556,0.012644
2143.2193,0.013100
2145.0829,0.012752
2146.9466,0.011441
2148.8103,0.010460
2150.6739,0.011132
2152.5376,0.010768
2154.4013,0.009802
2156.2649,0.006580
2158.1286,0.005364
2159.9923,0.007207
2161.8559,0.009501
2163.7196,0.009045
2165.5833,0.007691
2167.4470,0.007647
2169.3106,0.009920
2171.1743,0.010728
2173.0380,0.010153
2174.9016,0.010592
2176.7653,0.011999
2178.6290,0.012520
2180.4926,0.012094
2182.3563,0.010223
2184.2200,0.010281
2186.0836,0.011125
2187.9473,0.011900
2189.8110,0.011782
2191.6746,0.011723
2193.5383,0.012557
2195.4020,0.012758
2197.2657,0.012843
2199.1293,0.014091
2200.9930,0.014495
2202.8567,0.014369
2204.7203,0.014294
2206.5840,0.014143
2208.4477,0.014206
2210.3113,0.014628
2212.1750,0.015018
2214.0387,0.015339
2215.9023,0.014640
2217.7660,0.014118
2219.6297,0.014688
2221.4934,0.015264
2223.3570,0.016120
2225.2207,0.016655
2227.0844,0.016018
2228.9480,0.016238
2230.8117,0.016332
2232.6754,0.017083
2234.5390,0.017221
2236.4027,0.017330
2238.2664,0.017333
2240.1300,0.017205
2241.9937,0.017274
2243.8574,0.017064
2245.7210,0.017441
2247.5847,0.018073
2249.4484,0.017847
2251.3121,0.017860
2253.1757,0.018521
2255.0394,0.019370
2256.9031,0.018926
2258.7667,0.018110
2260.6304,0.018295
2262.4941,0.018561
2264.3577,0.018803
2266.2214,0.019659
2268.0851,0.019871
2269.9487,0.020086
2271.8124,0.021000
2273.6761,0.021417
2275.5397,0.020586
2277.4034,0.020589
2279.2671,0.021345
2281.1308,0.021892
2282.9944,0.022306
2284.8581,0.022525
2286.7218,0.022530
2288.5854,0.022581
2290.4491,0.022513
2292.3128,0.022460
2294.1764,0.022495
2296.0401,0.022747
2297.9038,0.022687
2299.7674,0.022706
2301.6311,0.022754
2303.4948,0.022684
2305.3585,0.022656
2307.2221,0.022781
2309.0858,0.022966
2310.9495,0.023231
2312.8131,0.022748
2314.6768,0.022543
2316.5405,0.022806
2318.4041,0.022699
2320.2678,0.022743
2322.1315,0.022872
2323.9951,0.022990
2325.8588,0.022831
2327.7225,0.022265
2329.5861,0.021937
2331.4498,0.021761
2333.3135,0.021361
2335.1772,0.021336
2337.0408,0.021560
2338.9045,0.021712
2340.7682,0.022150
2342.6318,0.022333
2344.4955,0.022285
2346.3592,0.022094
2348.2228,0.021757
2350.0865,0.021567
2351.9502,0.021383
2353.8138,0.021292
2355.6775,0.021531
2357.5412,0.021170
2359.4049,0.021065
2361.2685,0.021532
2363.1322,0.021815
2364.9959,0.021524
2366.8595,0.021884
2368.7232,0.022149
2370.5869,0.022410
2372.4505,0.022643
2374.3142,0.022670
2376.1779,0.022873
2378.0415,0.023151
2379.9052,0.023032
2381.7689,0.022995
2383.6325,0.022863
2385.4962,0.022659
2387.3599,0.022780
2389.2236,0.023229
2391.0872,0.023428
2392.9509,0.023120
2394.8146,0.022878
2396.6782,0.022933
2398.5419,0.023046
2400.4056,0.023232
2402.2692,0.023577
2404.1329,0.023704
2405.9966,0.023624
2407.8602,0.023510
2409.7239,0.023741
2411.5876,0.023873
2413.4512,0.023850
2415.3149,0.023861
2417.1786,0.023803
2419.0423,0.023914
2420.9059,0.024156
2422.7696,0.024208
2424.6333,0.024225
2426.4969,0.024413
2428.3606,0.024561
2430.2243,0.024376
2432.0879,0.024188
2433.9516,0.024472
2435.8153,0.024608
2437.6789,0.024547
2439.5426,0.024635
2441.4063,0.024586
2443.2700,0.024805
2445.1336,0.024965
2446.9973,0.024679
2448.8610,0.024456
2450.7246,0.024745
2452.5883,0.024820
2454.4520,0.024490
2456.3156,0.024370
2458.1793,0.024290
2460.0430,0.024150
2461.9066,0.024085
2463.7703,0.024149
2465.6340,0.023807
2467.4976,0.023665
2469.3613,0.023911
2471.2250,0.024110
2473.0887,0.024133
2474.9523,0.024317
2476.8160,0.024385
2478.6797,0.024407
2480.5433,0.024429
2482.4070,0.024674
2484.2707,0.024811
2486.1343,0.025011
2487.9980,0.024835
2489.8617,0.024642
2491.7253,0.024977
2493.5890,0.025054
2495.4527,0.025282
2497.3164,0.025636
2499.1800,0.025661
2501.0437,0.025501
2502.9074,0.025703
2504.7710,0.025781
2506.6347,0.025362
2508.4984,0.025334
2510.3620,0.025873
2512.2257,0.026193
2514.0894,0.026098
2515.9530,0.025920
2517.8167,0.026077
2519.6804,0.026174
2521.5440,0.026094
2523.4077,0.026523
2525.2714,0.026694
2527.1351,0.026732
2528.9987,0.027098
2530.8624,0.026969
2532.7261,0.026700
2534.5897,0.026762
2536.4534,0.026818
2538.3171,0.026707
2540.1807,0.026714
2542.0444,0.026712
2543.9081,0.026614
2545.7717,0.026900
2547.6354,0.027363
2549.4991,0.027104
2551.3627,0.026522
2553.2264,0.026457
2555.0901,0.026806
2556.9538,0.026989
2558.8174,0.027094
2560.6811,0.027343
2562.5448,0.027299
2564.4084,0.027527
2566.2721,0.027749
2568.1358,0.027777
2569.9994,0.028016
2571.8631,0.028129
2573.7268,0.028120
2575.5904,0.027939
2577.4541,0.028280
2579.3178,0.028737
2581.1815,0.028857
2583.0451,0.028741
2584.9088,0.028935
2586.7725,0.029312
2588.6361,0.029272
2590.4998,0.029260
2592.3635,0.029599
2594.2271,0.029662
2596.0908,0.029428
2597.9545,0.029729
2599.8181,0.030374
2601.6818,0.030551
2603.5455,0.030613
2605.4091,0.030864
2607.2728,0.031003
2609.1365,0.031038
2611.0002,0.031182
2612.8638,0.031212
2614.7275,0.031370
2616.5912,0.031680
2618.4548,0.031659
2620.3185,0.031555
2622.1822,0.031722
2624.0458,0.032219
2625.9095,0.032803
2627.7732,0.033109
2629.6368,0.033208
2631.5005,0.033375
2633.3642,0.033552
2635.2279,0.033575
2637.0915,0.033717
2638.9552,0.034121
2640.8189,0.034408
2642.6825,0.034653
2644.5462,0.034838
2646.4099,0.034825
2648.2735,0.035019
2650.1372,0.035352
2652.0009,0.035594
2653.8645,0.035817
2655.7282,0.035756
2657.5919,0.035621
2659.4555,0.035621
2661.3192,0.035793
2663.1829,0.035982
2665.0466,0.035981
2666.9102,0.036072
2668.7739,0.036291
2670.6376,0.036527
2672.5012,0.036582
2674.3649,0.036793
2676.2286,0.037025
2678.0922,0.037072
2679.9559,0.037365
2681.8196,0.037780
2683.6832,0.037692
2685.5469,0.037663
2687.4106,0.037967
2689.2742,0.038178
2691.1379,0.038459
2693.0016,0.038828
2694.8653,0.038872
2696.7289,0.039011
2698.5926,0.039432
2700.4563,0.039861
2702.3199,0.040135
2704.1836,0.040550
2706.0473,0.040900
2707.9109,0.041223
2709.7746,0.041553
2711.6383,0.041951
2713.5019,0.042137
2715.3656,0.042353
2717.2293,0.042913
2719.0930,0.043299
2720.9566,0.043331
2722.8203,0.043558
2724.6840,0.044129
2726.5476,0.044660
2728.4113,0.045173
2730.2750,0.045664
2732.1386,0.046019
2734.0023,0.046248
2735.8660,0.046497
2737.7296,0.047098
2739.5933,0.047808
2741.4570,0.048241
2743.3206,0.048589
2745.1843,0.049166
2747.0480,0.049809
2748.9117,0.050526
2750.7753,0.051252
2752.6390,0.051627
2754.5027,0.051928
2756.3663,0.052440
2758.2300,0.052911
2760.0937,0.053435
2761.9573,0.053937
2763.8210,0.054530
2765.6847,0.055248
2767.5483,0.055810
2769.4120,0.056298
2771.2757,0.056875
2773.1394,0.057546
2775.0030,0.058251
2776.8667,0.058883
2778.7304,0.059458
2780.5940,0.059782
2782.4577,0.059986
2784.3214,0.060003
2786.1850,0.059885
2788.0487,0.059515
2789.9124,0.059300
2791.7760,0.058953
2793.6397,0.058258
2795.5034,0.057584
2797.3670,0.056919
2799.2307,0.056526
2801.0944,0.056354
2802.9581,0.055696
2804.8217,0.055279
2806.6854,0.054937
2808.5491,0.054527
2810.4127,0.054466
2812.2764,0.054395
2814.1401,0.054258
2816.0037,0.054225
2817.8674,0.054135
2819.7311,0.053952
2821.5947,0.054291
2823.4584,0.054804
2825.3221,0.054709
2827.1857,0.054615
2829.0494,0.054141
2830.9131,0.053664
2832.7768,0.053482
2834.6404,0.053363
2836.5041,0.053396
2838.3678,0.053678
2840.2314,0.054143
2842.0951,0.054530
2843.9588,0.054819
2845.8224,0.055111
2847.6861,0.055387
2849.5498,0.056022
2851.4134,0.056792
2853.2771,0.057813
2855.1408,0.058594
2857.0045,0.058990
2858.8681,0.059457
2860.7318,0.060167
2862.5955,0.060646
2864.4591,0.060904
2866.3228,0.061136
2868.1865,0.061472
2870.0501,0.061863
2871.9138,0.062257
2873.7775,0.062542
2875.6411,0.063006
2877.5048,0.063525
2879.3685,0.064004
2881.2321,0.064473
2883.0958,0.065246
2884.9595,0.065826
2886.8232,0.065993
2888.6868,0.066353
2890.5505,0.066966
2892.4142,0.067529
2894.2778,0.068037
2896.1415,0.068540
2898.0052,0.068736
2899.8688,0.068795
2901.7325,0.068920
2903.5962,0.068950
2905.4598,0.069255
2907.3235,0.069443
2909.1872,0.069596
2911.0509,0.069966
2912.9145,0.070675
2914.7782,0.071525
2916.6419,0.072301
2918.5055,0.072855
2920.3692,0.073619
2922.2329,0.074096
2924.0965,0.074429
2925.9602,0.074902
2927.8239,0.075573
2929.6875,0.076148
2931.5512,0.076748
2933.4149,0.077224
2935.2785,0.077708
2937.1422,0.078129
2939.0059,0.078759
2940.8696,0.079187
2942.7332,0.079228
2944.5969,0.079265
2946.4606,0.079471
2948.3242,0.079593
2950.1879,0.079879
2952.0516,0.080053
2953.9152,0.080466
2955.7789,0.080882
2957.6426,0.081286
2959.5062,0.081823
2961.3699,0.082426
2963.2336,0.083274
2965.0972,0.084153
2966.9609,0.084839
2968.8246,0.085862
2970.6883,0.086756
2972.5519,0.087240
2974.4156,0.087565
2976.2793,0.088315
2978.1429,0.089110
2980.0066,0.089470
2981.8703,0.089461
2983.7339,0.089733
2985.5976,0.089975
2987.4613,0.090127
2989.3249,0.090819
2991.1886,0.092116
2993.0523,0.092672
2994.9160,0.093092
2996.7796,0.093787
2998.6433,0.094866
3000.5070,0.095562
3002.3706,0.096262
3004.2343,0.097197
3006.0980,0.098130
3007.9616,0.098781
3009.8253,0.099676
3011.6890,0.100261
3013.5526,0.100886
3015.4163,0.101753
3017.2800,0.102512
3019.1436,0.103026
3021.0073,0.103534
3022.8710,0.103829
3024.7347,0.104312
3026.5983,0.104593
3028.4620,0.104795
3030.3257,0.104719
3032.1893,0.105180
3034.0530,0.105534
3035.9167,0.105954
3037.7803,0.106257
3039.6440,0.106844
3041.5077,0.107313
3043.3713,0.107534
3045.2350,0.107570
3047.0987,0.107809
3048.9624,0.108209
3050.8260,0.108478
3052.6897,0.108695
3054.5534,0.109188
3056.4170,0.109658
3058.2807,0.109991
3060.1444,0.109879
3062.0080,0.109936
3063.8717,0.110195
3065.7354,0.110538
3067.5990,0.110583
3069.4627,0.110581
3071.3264,0.110372
3073.1900,0.110125
3075.0537,0.109906
3076.9174,0.109819
3078.7811,0.109692
3080.6447,0.109725
3082.5084,0.109703
3084.3721,0.109266
3086.2357,0.108553
3088.0994,0.108084
3089.9631,0.107367
3091.8267,0.106922
3093.6904,0.106126
3095.5541,0.104781
3097.4177,0.103850
3099.2814,0.103406
3101.1451,0.103027
3103.0087,0.102682
3104.8724,0.101645
3106.7361,0.100247
3108.5998,0.099123
3110.4634,0.098532
3112.3271,0.097751
3114.1908,0.096753
3116.0544,0.095415
3117.9181,0.094465
3119.7818,0.093984
3121.6454,0.093419
3123.5091,0.092715
3125.3728,0.091937
3127.2364,0.090534
3129.1001,0.089343
3130.9638,0.088919
3132.8275,0.088507
3134.6911,0.087693
3136.5548,0.087127
3138.4185,0.086737
3140.2821,0.086596
3142.1458,0.086186
3144.0095,0.085751
3145.8731,0.085346
3147.7368,0.084723
3149.6005,0.083755
3151.4641,0.083197
3153.3278,0.083095
3155.1915,0.083123
3157.0551,0.082546
3158.9188,0.081760
3160.7825,0.081314
3162.6462,0.080784
3164.5098,0.080230
3166.3735,0.080067
3168.2372,0.079710
3170.1008,0.079003
3171.9645,0.078240
3173.8282,0.078420
3175.6918,0.078535
3177.5555,0.077954
3179.4192,0.077236
3181.2828,0.077144
3183.1465,0.077206
3185.0102,0.077102
3186.8739,0.077004
3188.7375,0.076600
3190.6012,0.076564
3192.4649,0.077073
3194.3285,0.076771
3196.1922,0.076427
3198.0559,0.076422
3199.9195,0.076394
3201.7832,0.076602
3203.6469,0.077200
3205.5105,0.077275
3207.3742,0.077059
3209.2379,0.076704
3211.1015,0.077372
3212.9652,0.077975
3214.8289,0.078138
3216.6926,0.078234
3218.5562,0.078219
3220.4199,0.078104
3222.2836,0.078108
3224.1472,0.078466
3226.0109,0.079155
3227.8746,0.079081
3229.7382,0.079577
3231.6019,0.080296
3233.4656,0.080242
3235.3292,0.079758
3237.1929,0.080386
3239.0566,0.080787
3240.9202,0.080767
3242.7839,0.081363
3244.6476,0.082131
3246.5113,0.082175
3248.3749,0.082489
3250.2386,0.083071
3252.1023,0.083332
3253.9659,0.084134
3255.8296,0.084799
3257.6933,0.085063
3259.5569,0.085736
3261.4206,0.086102
3263.2843,0.085956
3265.1479,0.085920
3267.0116,0.085984
3268.8753,0.085535
3270.7390,0.085888
3272.6026,0.086025
3274.4663,0.086247
3276.3300,0.086278
3278.1936,0.085921
3280.0573,0.085397
3281.9210,0.085000
3283.7846,0.084506
3285.6483,0.084134
3287.5120,0.083566
3289.3756,0.082761
3291.2393,0.082108
3293.1030,0.081550
3294.9666,0.080895
3296.8303,0.080203
3298.6940,0.079100
3300.5577,0.078541
3302.4213,0.077600
3304.2850,0.076601
3306.1487,0.076146
3308.0123,0.076031
3309.8760,0.075533
3311.7397,0.074377
3313.6033,0.073363
3315.4670,0.073248
3317.3307,0.073568
3319.1943,0.073677
3321.0580,0.073812
3322.9217,0.074950
3324.7854,0.074964
3326.6490,0.074046
3328.5127,0.074830
3330.3764,0.075107
3332.2400,0.073971
3334.1037,0.074152
3335.9674,0.074431
3337.8310,0.073812
3339.6947,0.072464
3341.5584,0.071270
3343.4220,0.069904
3345.2857,0.068759
3347.1494,0.067936
3349.0130,0.066506
3350.8767,0.065113
3352.7404,0.064259
3354.6041,0.062765
3356.4677,0.061347
3358.3314,0.060438
3360.1951,0.059676
3362.0587,0.059041
3363.9224,0.058205
3365.7861,0.057259
3367.6497,0.056473
3369.5134,0.056184
3371.3771,0.056632
3373.2407,0.056651
3375.1044,0.056215
3376.9681,0.056393
3378.8317,0.056879
3380.6954,0.057223
3382.5591,0.057565
3384.4228,0.058410
3386.2864,0.059306
3388.1501,0.059350
3390.0138,0.059417
3391.8774,0.059662
3393.7411,0.060215
3395.6048,0.061324
3397.4684,0.061595
3399.3321,0.061048
3401.1958,0.060924
3403.0594,0.060389
3404.9231,0.059272
3406.7868,0.056976
3408.6505,0.055483
3410.5141,0.055005
3412.3778,0.053347
3414.2415,0.051226
3416.1051,0.049719
3417.9688,0.048852
3419.8325,0.048130
3421.6961,0.046005
3423.5598,0.044068
3425.4235,0.042758
3427.2871,0.040437
3429.1508,0.038631
3431.0145,0.037684
3432.8781,0.036777
3434.7418,0.035629
3436.6055,0.034440
3438.4692,0.034362
3440.3328,0.034004
3442.1965,0.032749
3444.0602,0.032892
3445.9238,0.032660
3447.7875,0.030857
3449.6512,0.029847
3451.5148,0.029458
3453.3785,0.029560
3455.2422,0.029890
3457.1058,0.029830
3458.9695,0.028712
3460.8332,0.027331
3462.6969,0.027029
3464.5605,0.027338
3466.4242,0.026991
3468.2879,0.025911
3470.1515,0.025457
3472.0152,0.024793
3473.8789,0.023802
3475.7425,0.024172
3477.6062,0.024389
3479.4699,0.023297
3481.3335,0.022249
3483.1972,0.021510
3485.0609,0.021480
3486.9245,0.021429
3488.7882,0.021007
3490.6519,0.020593
3492.5156,0.019744
3494.3792,0.019649
3496.2429,0.019334
3498.1066,0.017807
3499.9702,0.017034
3501.8339,0.017685
3503.6976,0.017833
3505.5612,0.016908
3507.4249,0.015802
3509.2886,0.015239
3511.1522,0.015215
3513.0159,0.015016
3514.8796,0.013892
3516.7432,0.013763
3518.6069,0.015064
3520.4706,0.014325
3522.3343,0.013096
3524.1979,0.013053
3526.0616,0.012531
3527.9253,0.012405
3529.7889,0.013160
3531.6526,0.013122
3533.5163,0.012439
3535.3799,0.012449
3537.2436,0.012225
3539.1073,0.012613
3540.9709,0.012657
3542.8346,0.011436
3544.6983,0.010443
3546.5620,0.010091
3548.4256,0.010625
3550.2893,0.010558
3552.1530,0.009256
3554.0166,0.009046
3555.8803,0.009103
3557.7440,0.009217
3559.6076,0.009637
3561.4713,0.009630
3563.3350,0.010199
3565.1986,0.010200
3567.0623,0.009191
3568.9260,0.008356
3570.7896,0.007648
3572.6533,0.007399
3574.5170,0.007134
3576.3807,0.006929
3578.2443,0.007415
3580.1080,0.007914
3581.9717,0.008190
3583.8353,0.008630
3585.6990,0.008615
3587.5627,0.008170
3589.4263,0.008140
3591.2900,0.007332
3593.1537,0.006433
3595.0173,0.006831
3596.8810,0.007388
3598.7447,0.007080
3600.6084,0.006966
3602.4720,0.007528
3604.3357,0.007793
3606.1994,0.007551
3608.0630,0.007250
3609.9267,0.007141
3611.7904,0.007157
3613.6540,0.006980
3615.5177,0.006804
3617.3814,0.006995
3619.2450,0.007509
3621.1087,0.007238
3622.9724,0.006936
3624.8360,0.007233
3626.6997,0.006792
3628.5634,0.006221
3630.4271,0.006247
3632.2907,0.006952
3634.1544,0.007926
3636.0181,0.007972
3637.8817,0.007533
3639.7454,0.007436
3641.6091,0.007476
3643.4727,0.007567
3645.3364,0.007197
3647.2001,0.006779
3649.0637,0.006077
3650.9274,0.005615
3652.7911,0.006521
3654.6547,0.006923
3656.5184,0.006749
3658.3821,0.006929
3660.2458,0.007849
3662.1094,0.007931
3663.9731,0.007499
3665.8368,0.007301
3667.7004,0.007535
3669.5641,0.007795
3671.4278,0.007008
3673.2914,0.006709
3675.1551,0.006800
3677.0188,0.006477
3678.8824,0.007002
3680.7461,0.007712
3682.6098,0.007540
3684.4735,0.007168
3686.3371,0.007644
3688.2008,0.008148
3690.0645,0.007633
3691.9281,0.007326
3693.7918,0.008150
3695.6555,0.008458
3697.5191,0.008245
3699.3828,0.008258
3701.2465,0.007998
3703.1101,0.008018
3704.9738,0.007952
3706.8375,0.007372
3708.7011,0.007807
3710.5648,0.008323
3712.4285,0.007947
3714.2922,0.007602
3716.1558,0.007886
3718.0195,0.008555
3719.8832,0.008437
3721.7468,0.007680
3723.6105,0.007267
3725.4742,0.008038
3727.3378,0.008840
3729.2015,0.008156
3731.0652,0.007959
3732.9288,0.008201
3734.7925,0.008087
3736.6562,0.007729
3738.5199,0.007656
3740.3835,0.008173
3742.2472,0.008194
3744.1109,0.007442
3745.9745,0.006733
3747.8382,0.007415
3749.7019,0.007846
3751.5655,0.007638
3753.4292,0.007404
3755.2929,0.007683
3757.1565,0.008647
3759.0202,0.009439
3760.8839,0.009333
3762.7475,0.009089
3764.6112,0.009378
3766.4749,0.009425
3768.3386,0.008884
3770.2022,0.008918
3772.0659,0.009488
3773.9296,0.009715
3775.7932,0.009797
3777.6569,0.010060
3779.5206,0.010158
3781.3842,0.009698
3783.2479,0.009437
3785.1116,0.009657
3786.9752,0.009845
3788.8389,0.010028
3790.7026,0.010017
3792.5662,0.009677
3794.4299,0.009480
3796.2936,0.009371
3798.1573,0.009301
3800.0209,0.009593
3801.8846,0.009914
3803.7483,0.009595
3805.6119,0.009271
3807.4756,0.009391
3809.3393,0.009410
3811.2029,0.009634
3813.0666,0.009672
3814.9303,0.009515
3816.7939,0.009631
3818.6576,0.009681
3820.5213,0.009527
3822.3850,0.009316
3824.2486,0.009188
3826.1123,0.009616
3827.9760,0.010070
3829.8396,0.010390
3831.7033,0.010395
3833.5670,0.010077
3835.4306,0.010034
3837.2943,0.010070
3839.1580,0.009958
3841.0216,0.009578
3842.8853,0.009258
3844.7490,0.009454
3846.6126,0.009670
3848.4763,0.009813
3850.3400,0.009994
3852.2037,0.010061
3854.0673,0.009302
3855.9310,0.008125
3857.7947,0.009013
3859.6583,0.010018
3861.5220,0.010275
3863.3857,0.010154
3865.2493,0.009988
3867.1130,0.010160
3868.9767,0.010246
3870.8403,0.010045
3872.7040,0.009833
3874.5677,0.009989
3876.4314,0.010546
3878.2950,0.010793
3880.1587,0.010610
3882.0224,0.010466
3883.8860,0.010584
3885.7497,0.010921
3887.6134,0.011230
3889.4770,0.010981
3891.3407,0.010440
3893.2044,0.010493
3895.0680,0.011119
3896.9317,0.011230
3898.7954,0.010792
3900.6590,0.010616
3902.5227,0.010800
3904.3864,0.010891
3906.2501,0.010935
3908.1137,0.010984
3909.9774,0.011094
3911.8411,0.011275
3913.7047,0.011576
3915.5684,0.011804
3917.4321,0.012001
3919.2957,0.011940
3921.1594,0.011456
3923.0231,0.011162
3924.8867,0.010779
3926.7504,0.010942
3928.6141,0.011792
3930.4777,0.012102
3932.3414,0.012308
3934.2051,0.012137
3936.0688,0.011589
3937.9324,0.011463
3939.7961,0.011629
3941.6598,0.011999
3943.5234,0.011915
3945.3871,0.011568
3947.2508,0.011811
3949.1144,0.011800
3950.9781,0.011687
3952.8418,0.011975
3954.7054,0.011888
3956.5691,0.011909
3958.4328,0.011891
3960.2965,0.011648
3962.1601,0.011601
3964.0238,0.012202
3965.8875,0.012921
3967.7511,0.012557
3969.6148,0.012157
3971.4785,0.012023
3973.3421,0.011735
3975.2058,0.012027
3977.0695,0.012663
3978.9331,0.012336
3980.7968,0.011765
3982.6605,0.011788
3984.5241,0.011741
3986.3878,0.012005
3988.2515,0.012246
3990.1152,0.012034
3991.9788,0.012129
3993.8425,0.012256
3995.7062,0.012249
3997.5698,0.012425
3999.4335,0.012104
