Wavenumber,Intensity
650.4205,0.263257
652.2841,0.257777
654.1478,0.256201
656.0115,0.252836
657.8751,0.249654
659.7388,0.249431
661.6025,0.252543
663.4661,0.256257
665.3298,0.259803
667.1935,0.261831
669.0571,0.260939
670.9208,0.253497
672.7845,0.247780
674.6481,0.242295
676.5118,0.238122
678.3755,0.235464
680.2392,0.234570
682.1028,0.231457
683.9665,0.228107
685.8302,0.225640
687.6938,0.223774
689.5575,0.221023
691.4212,0.219594
693.2848,0.218354
695.1485,0.217797
697.0122,0.217823
698.8758,0.217440
700.7395,0.216876
702.6032,0.216949
704.4669,0.214070
706.3305,0.207950
708.1942,0.199618
710.0579,0.190172
711.9215,0.180550
713.7852,0.171384
715.6489,0.161775
717.5125,0.154077
719.3762,0.147882
721.2399,0.141499
723.1035,0.135219
724.9672,0.130141
726.8309,0.125156
728.6945,0.120289
730.5582,0.115959
732.4219,0.111665
734.2856,0.107390
736.1492,0.104149
738.0129,0.102963
739.8766,0.103735
741.7402,0.106032
743.6039,0.108983
745.4676,0.111242
747.3312,0.111428
749.1949,0.110384
751.0586,0.109703
752.9222,0.108589
754.7859,0.107107
756.6496,0.106365
758.5132,0.106017
760.3769,0.105424
762.2406,0.104701
764.1043,0.103938
765.9679,0.103578
767.8316,0.103735
769.6953,0.103956
771.5589,0.104402
773.4226,0.105238
775.2863,0.105951
777.1499,0.106898
779.0136,0.108123
780.8773,0.109411
782.7409,0.110761
784.6046,0.112245
786.4683,0.114144
788.3320,0.116400
790.1956,0.118734
792.0593,0.121379
793.9230,0.124225
795.7866,0.126960
797.6503,0.129233
799.5140,0.131217
801.3776,0.132671
803.2413,0.133659
805.1050,0.133946
806.9686,0.132830
808.8323,0.130445
810.6960,0.127587
812.5596,0.124266
814.4233,0.120833
816.2870,0.117285
818.1507,0.113941
820.0143,0.111193
821.8780,0.109096
823.7417,0.108216
825.6053,0.109118
827.4690,0.111321
829.3327,0.112392
831.1963,0.106042
833.0600,0.092420
834.9237,0.081024
836.7873,0.075893
838.6510,0.074115
840.5147,0.073631
842.3784,0.073825
844.2420,0.073972
846.1057,0.073781
847.9694,0.073744
849.8330,0.073849
851.6967,0.073927
853.5604,0.074074
855.4240,0.074271
857.2877,0.074578
859.1514,0.074863
861.0150,0.075131
862.8787,0.075445
864.7424,0.075714
866.6060,0.076113
868.4697,0.076624
870.3334,0.077154
872.1971,0.077627
874.0607,0.078340
875.9244,0.079268
877.7881,0.080022
879.6517,0.080709
881.5154,0.081682
883.3791,0.082619
885.2427,0.083414
887.1064,0.084369
888.9701,0.085298
890.8337,0.086055
892.6974,0.086878
894.5611,0.087999
896.4247,0.089408
898.2884,0.091273
900.1521,0.093475
902.0158,0.096255
903.8794,0.100088
905.7431,0.105022
907.6068,0.110922
909.4704,0.117705
911.3341,0.126080
913.1978,0.135695
915.0614,0.140081
916.9251,0.130062
918.7888,0.110931
920.6524,0.096832
922.5161,0.091302
924.3798,0.090106
926.2435,0.090386
928.1071,0.091256
929.9708,0.092370
931.8345,0.093662
933.6981,0.094897
935.5618,0.096079
937.4255,0.097490
939.2891,0.098941
941.1528,0.100177
943.0165,0.101469
944.8801,0.103029
946.7438,0.104768
948.6075,0.106455
950.4711,0.108034
952.3348,0.109693
954.1985,0.111370
956.0622,0.113080
957.9258,0.115051
959.7895,0.117266
961.6532,0.119610
963.5168,0.122106
965.3805,0.124947
967.2442,0.128343
969.1078,0.132260
970.9715,0.136389
972.8352,0.141161
974.6988,0.148524
976.5625,0.160821
978.4262,0.181325
980.2899,0.209158
982.1535,0.219454
984.0172,0.187605
985.8809,0.147227
987.7445,0.130288
989.6082,0.128982
991.4719,0.130967
993.3355,0.133395
995.1992,0.135810
997.0629,0.138168
998.9265,0.140567
1000.7902,0.143052
1002.6539,0.145589
1004.5175,0.148099
1006.3812,0.150472
1008.2449,0.152608
1010.1086,0.154214
1011.9722,0.155149
1013.8359,0.155414
1015.6996,0.154924
1017.5632,0.153731
1019.4269,0.151879
1021.2906,0.149449
1023.1542,0.146834
1025.0179,0.144340
1026.8816,0.142032
1028.7452,0.140099
1030.6089,0.138683
1032.4726,0.137738
1034.3362,0.137181
1036.1999,0.136923
1038.0636,0.137243
1039.9273,0.138259
1041.7909,0.139821
1043.6546,0.141839
1045.5183,0.143994
1047.3819,0.145168
1049.2456,0.143015
1051.1093,0.135284
1052.9729,0.123464
1054.8366,0.112506
1056.7003,0.105605
1058.5639,0.102381
1060.4276,0.101180
1062.2913,0.100879
1064.1550,0.101069
1066.0186,0.101694
1067.8823,0.102775
1069.7460,0.104081
1071.6096,0.105468
1073.4733,0.107035
1075.3370,0.108749
1077.2006,0.110577
1079.0643,0.112556
1080.9280,0.114839
1082.7916,0.117479
1084.6553,0.120283
1086.5190,0.123475
1088.3826,0.127289
1090.2463,0.131572
1092.1100,0.136486
1093.9737,0.142162
1095.8373,0.148507
1097.7010,0.155547
1099.5647,0.163262
1101.4283,0.171127
1103.2920,0.178162
1105.1557,0.183087
1107.0193,0.183784
1108.8830,0.178291
1110.7467,0.166547
1112.6103,0.151215
1114.4740,0.135512
1116.3377,0.121362
1118.2014,0.109832
1120.0650,0.101328
1121.9287,0.095570
1123.7924,0.091766
1125.6560,0.088856
1127.5197,0.086129
1129.3834,0.083452
1131.2470,0.080946
1133.1107,0.078788
1134.9744,0.077045
1136.8380,0.075742
1138.7017,0.074856
1140.5654,0.074366
1142.4290,0.074158
1144.2927,0.074110
1146.1564,0.074142
1148.0201,0.074163
1149.8837,0.074293
1151.7474,0.074631
1153.6111,0.075193
1155.4747,0.075950
1157.3384,0.076879
1159.2021,0.078177
1161.0657,0.079860
1162.9294,0.081913
1164.7931,0.084677
1166.6567,0.088305
1168.5204,0.092551
1170.3841,0.096900
1172.2477,0.099919
1174.1114,0.099434
1175.9751,0.094793
1177.8388,0.088266
1179.7024,0.082823
1181.5661,0.079683
1183.4298,0.078270
1185.2934,0.077806
1187.1571,0.077779
1189.0208,0.077726
1190.8844,0.077602
1192.7481,0.077576
1194.6118,0.077717
1196.4754,0.077938
1198.3391,0.078215
1200.2028,0.078641
1202.0665,0.079155
1203.9301,0.079625
1205.7938,0.080133
1207.6575,0.080687
1209.5211,0.081120
1211.3848,0.081557
1213.2485,0.082156
1215.1121,0.082782
1216.9758,0.083342
1218.8395,0.083912
1220.7031,0.084457
1222.5668,0.084882
1224.4305,0.085330
1226.2941,0.085899
1228.1578,0.086493
1230.0215,0.087117
1231.8852,0.087776
1233.7488,0.088317
1235.6125,0.088822
1237.4762,0.089486
1239.3398,0.090195
1241.2035,0.090804
1243.0672,0.091514
1244.9308,0.092413
1246.7945,0.093213
1248.6582,0.093923
1250.5218,0.094696
1252.3855,0.095587
1254.2492,0.096547
1256.1129,0.097399
1257.9765,0.098327
1259.8402,0.099666
1261.7039,0.101036
1263.5675,0.102153
1265.4312,0.103197
1267.2949,0.103892
1269.1585,0.104041
1271.0222,0.103955
1272.8859,0.103957
1274.7495,0.104265
1276.6132,0.105068
1278.4769,0.106279
1280.3405,0.107860
1282.2042,0.109777
1284.0679,0.111846
1285.9316,0.114329
1287.7952,0.117502
1289.6589,0.121057
1291.5226,0.125081
1293.3862,0.129909
1295.2499,0.135589
1297.1136,0.142281
1298.9772,0.150182
1300.8409,0.159682
1302.7046,0.169828
1304.5682,0.176754
1306.4319,0.175126
1308.2956,0.160278
1310.1592,0.134132
1312.0229,0.108017
1313.8866,0.091286
1315.7503,0.085075
1317.6139,0.085166
1319.4776,0.087854
1321.3413,0.090875
1323.2049,0.093942
1325.0686,0.097340
1326.9323,0.100725
1328.7959,0.103983
1330.6596,0.107042
1332.5233,0.109468
1334.3869,0.110941
1336.2506,0.112076
1338.1143,0.114372
1339.9780,0.117674
1341.8416,0.118705
1343.7053,0.118482
1345.5690,0.119321
1347.4326,0.120674
1349.2963,0.122434
1351.1600,0.124428
1353.0236,0.126712
1354.8873,0.129712
1356.7510,0.132541
1358.6146,0.134843
1360.4783,0.138391
1362.3420,0.145071
1364.2056,0.150907
1366.0693,0.153136
1367.9330,0.156985
1369.7967,0.161808
1371.6603,0.165356
1373.5240,0.171471
1375.3877,0.178788
1377.2513,0.182704
1379.1150,0.187994
1380.9787,0.195258
1382.8423,0.202575
1384.7060,0.210712
1386.5697,0.222155
1388.4333,0.234769
1390.2970,0.239973
1392.1607,0.242021
1394.0244,0.242950
1395.8880,0.236913
1397.7517,0.225252
1399.6154,0.212001
1401.4790,0.198669
1403.3427,0.186860
1405.2064,0.169896
1407.0700,0.147073
1408.9337,0.125278
1410.7974,0.105736
1412.6610,0.092026
1414.5247,0.085844
1416.3884,0.085781
1418.2520,0.092603
1420.1157,0.104392
1421.9794,0.109017
1423.8431,0.106450
1425.7067,0.096053
1427.5704,0.084615
1429.4341,0.077695
1431.2977,0.074890
1433.1614,0.074522
1435.0251,0.076428
1436.8887,0.081622
1438.7524,0.084370
1440.6161,0.084540
1442.4797,0.086052
1444.3434,0.087615
1446.2071,0.088847
1448.0707,0.089787
1449.9344,0.087858
1451.7981,0.083821
1453.6618,0.079953
1455.5254,0.079318
1457.3891,0.085880
1459.2528,0.088450
1461.1164,0.085831
1462.9801,0.085489
1464.8438,0.087106
1466.7074,0.086461
1468.5711,0.083367
1470.4348,0.081881
1472.2984,0.083853
1474.1621,0.086221
1476.0258,0.085636
1477.8895,0.085027
1479.7531,0.084395
1481.6168,0.084932
1483.4805,0.085125
1485.3441,0.084713
1487.2078,0.085793
1489.0715,0.089502
1490.9351,0.092295
1492.7988,0.090642
1494.6625,0.089880
1496.5261,0.093342
1498.3898,0.096978
1500.2535,0.096939
1502.1171,0.095328
1503.9808,0.094191
1505.8445,0.097944
1507.7082,0.110620
1509.5718,0.108756
1511.4355,0.106401
1513.2992,0.106417
1515.1628,0.107469
1517.0265,0.110268
1518.8902,0.111690
1520.7538,0.113890
1522.6175,0.118898
1524.4812,0.118601
1526.3448,0.119951
1528.2085,0.121282
1530.0722,0.120561
1531.9359,0.122009
1533.7995,0.126481
1535.6632,0.126034
1537.5269,0.124379
1539.3905,0.130332
1541.2542,0.142327
1543.1179,0.142423
1544.9815,0.143480
1546.8452,0.143719
1548.7089,0.144635
1550.5725,0.148173
1552.4362,0.150071
1554.2999,0.151255
1556.1635,0.153953
1558.0272,0.162715
1559.8909,0.184202
1561.7546,0.175737
1563.6182,0.171855
1565.4819,0.174343
1567.3456,0.177576
1569.2092,0.183563
1571.0729,0.189588
1572.9366,0.189119
1574.8002,0.193299
1576.6639,0.204784
1578.5276,0.208426
1580.3912,0.208006
1582.2549,0.211019
1584.1186,0.214063
1585.9822,0.216433
1587.8459,0.217788
1589.7096,0.218371
1591.5733,0.218137
1593.4369,0.217373
1595.3006,0.215912
1597.1643,0.213561
1599.0279,0.210412
1600.8916,0.207275
1602.7553,0.204231
1604.6189,0.201191
1606.4826,0.198483
1608.3463,0.196178
1610.2099,0.193150
1612.0736,0.188655
1613.9373,0.183630
1615.8010,0.178792
1617.6646,0.170289
1619.5283,0.160023
1621.3920,0.153091
1623.2556,0.145458
1625.1193,0.135489
1626.9830,0.126180
1628.8466,0.115190
1630.7103,0.103640
1632.5740,0.094546
1634.4376,0.086377
1636.3013,0.077232
1638.1650,0.070896
1640.0286,0.069008
1641.8923,0.067934
1643.7560,0.068129
1645.6197,0.070402
1647.4833,0.075258
1649.3470,0.076642
1651.2107,0.078446
1653.0743,0.086768
1654.9380,0.093489
1656.8017,0.090774
1658.6653,0.090821
1660.5290,0.091427
1662.3927,0.091651
1664.2563,0.090052
1666.1200,0.087518
1667.9837,0.085785
1669.8474,0.085004
1671.7110,0.084070
1673.5747,0.084421
1675.4384,0.087513
1677.3020,0.091189
1679.1657,0.093567
1681.0294,0.098153
1682.8930,0.104126
1684.7567,0.113723
1686.6204,0.115230
1688.4840,0.112977
1690.3477,0.111275
1692.2114,0.107694
1694.0750,0.103974
1695.9387,0.100648
1697.8024,0.095952
1699.6661,0.092462
1701.5297,0.084424
1703.3934,0.076185
1705.2571,0.067357
1707.1207,0.056012
1708.9844,0.048239
1710.8481,0.042720
1712.7117,0.038115
1714.5754,0.035226
1716.4391,0.033071
1718.3027,0.031887
1720.1664,0.030226
1722.0301,0.028847
1723.8937,0.026947
1725.7574,0.024605
1727.6211,0.022380
1729.4848,0.020438
1731.3484,0.018615
1733.2121,0.017744
1735.0758,0.016686
1736.9394,0.016035
1738.8031,0.015668
1740.6668,0.015487
1742.5304,0.015020
1744.3941,0.014732
1746.2578,0.014293
1748.1214,0.014132
1749.9851,0.013747
1751.8488,0.013426
1753.7125,0.013102
1755.5761,0.013065
1757.4398,0.013051
1759.3035,0.013001
1761.1671,0.012839
1763.0308,0.012956
1764.8945,0.012766
1766.7581,0.012769
1768.6218,0.012545
1770.4855,0.012350
1772.3491,0.012426
1774.2128,0.012705
1776.0765,0.012545
1777.9401,0.012555
1779.8038,0.012548
1781.6675,0.012714
1783.5312,0.012781
1785.3948,0.013089
1787.2585,0.013009
1789.1222,0.012897
1790.9858,0.012901
1792.8495,0.013199
1794.7132,0.013177
1796.5768,0.013139
1798.4405,0.013122
1800.3042,0.013399
1802.1678,0.013587
1804.0315,0.013609
1805.8952,0.013615
1807.7589,0.013755
1809.6225,0.013758
1811.4862,0.013914
1813.3499,0.013727
1815.2135,0.013467
1817.0772,0.013519
1818.9409,0.013798
1820.8045,0.013629
1822.6682,0.013544
1824.5319,0.013541
1826.3955,0.013504
1828.2592,0.013352
1830.1229,0.013569
1831.9865,0.013323
1833.8502,0.013262
1835.7139,0.013406
1837.5776,0.013471
1839.4412,0.013268
1841.3049,0.013193
1843.1686,0.013152
1845.0322,0.013462
1846.8959,0.013410
1848.7596,0.013342
1850.6232,0.013477
1852.4869,0.013871
1854.3506,0.013895
1856.2142,0.013702
1858.0779,0.013626
1859.9416,0.013890
1861.8052,0.013934
1863.6689,0.013734
1865.5326,0.013543
1867.3963,0.013605
1869.2599,0.013546
1871.1236,0.013633
1872.9873,0.013536
1874.8509,0.013706
1876.7146,0.013685
1878.5783,0.013792
1880.4419,0.014008
1882.3056,0.014056
1884.1693,0.013780
1886.0329,0.013538
1887.8966,0.013564
1889.7603,0.013740
1891.6240,0.013488
1893.4876,0.013687
1895.3513,0.013701
1897.2150,0.013899
1899.0786,0.014039
1900.9423,0.014005
1902.8060,0.013629
1904.6696,0.013549
1906.5333,0.013662
1908.3970,0.013979
1910.2606,0.013761
1912.1243,0.013586
1913.9880,0.013629
1915.8516,0.013664
1917.7153,0.013609
1919.5790,0.014132
1921.4427,0.014178
1923.3063,0.013765
1925.1700,0.012979
1927.0337,0.013191
1928.8973,0.013466
1930.7610,0.014065
1932.6247,0.013756
1934.4883,0.013572
1936.3520,0.013100
1938.2157,0.012565
1940.0793,0.012371
1941.9430,0.012962
1943.8067,0.012288
1945.6704,0.011497
1947.5340,0.011065
1949.3977,0.011420
1951.2614,0.011791
1953.1250,0.011631
1954.9887,0.010776
1956.8524,0.011170
1958.7160,0.010481
1960.5797,0.008965
1962.4434,0.008076
1964.3070,0.007832
1966.1707,0.006719
1968.0344,0.006165
1969.8980,0.005582
1971.7617,0.006122
1973.6254,0.005356
1975.4891,0.004213
1977.3527,0.003685
1979.2164,0.005592
1981.0801,0.007050
1982.9437,0.007732
1984.8074,0.007926
1986.6711,0.009375
1988.5347,0.009473
1990.3984,0.009631
1992.2621,0.009406
1994.1257,0.009195
1995.9894,0.009260
1997.8531,0.009986
1999.7167,0.009115
2001.5804,0.009169
2003.4441,0.009261
2005.3078,0.009594
2007.1714,0.008877
2009.0351,0.007666
2010.8988,0.006064
2012.7624,0.006586
2014.6261,0.006635
2016.4898,0.006761
2018.3534,0.006289
2020.2171,0.006264
2022.0808,0.005770
2023.9444,0.005904
2025.8081,0.005969
2027.6718,0.006726
2029.5355,0.006336
2031.3991,0.005805
2033.2628,0.006142
2035.1265,0.007184
2036.9901,0.006875
2038.8538,0.007535
2040.7175,0.008020
2042.5811,0.008814
2044.4448,0.009128
2046.3085,0.009944
2048.1721,0.010499
2050.0358,0.012161
2051.8995,0.012902
2053.7631,0.013007
2055.6268,0.013420
2057.4905,0.014380
2059.3542,0.013962
2061.2178,0.013456
2063.0815,0.013675
2064.9452,0.014788
2066.8088,0.015067
2068.6725,0.015604
2070.5362,0.015224
2072.3998,0.015067
2074.2635,0.015316
2076.1272,0.015729
2077.9908,0.016113
2079.8545,0.016617
2081.7182,0.016685
2083.5819,0.016891
2085.4455,0.016887
2087.3092,0.017214
2089.1729,0.017242
2091.0365,0.017156
2092.9002,0.016956
2094.7639,0.017480
2096.6275,0.017967
2098.4912,0.018067
2100.3549,0.017501
2102.2185,0.017418
2104.0822,0.017436
2105.9459,0.017300
2107.8095,0.017399
2109.6732,0.017324
2111.5369,0.017507
2113.4006,0.018610
2115.2642,0.018531
2117.1279,0.018439
2118.9916,0.018208
2120.8552,0.018109
2122.7189,0.018463
2124.5826,0.018388
2126.4462,0.017842
2128.3099,0.018582
2130.1736,0.018803
2132.0372,0.018206
2133.9009,0.016141
2135.7646,0.016367
2137.6282,0.017239
2139.4919,0.016526
2141.3556,0.014409
2143.2193,0.014499
2145.0829,0.014856
2146.9466,0.014410
2148.8103,0.012909
2150.6739,0.011929
2152.5376,0.011309
2154.4013,0.010027
2156.2649,0.007985
2158.1286,0.008176
2159.9923,0.008682
2161.8559,0.010747
2163.7196,0.010808
2165.5833,0.010718
2167.4470,0.010586
2169.3106,0.010937
2171.1743,0.011587
2173.0380,0.011370
2174.9016,0.011238
2176.7653,0.012796
2178.6290,0.012981
2180.4926,0.012815
2182.3563,0.012791
2184.2200,0.013770
2186.0836,0.014294
2187.9473,0.014118
2189.8110,0.014111
2191.6746,0.015018
2193.5383,0.015292
2195.4020,0.015555
2197.2657,0.015701
2199.1293,0.016177
2200.9930,0.016075
2202.8567,0.016020
2204.7203,0.015782
2206.5840,0.016161
2208.4477,0.016142
2210.3113,0.016664
2212.1750,0.017357
2214.0387,0.018528
2215.9023,0.018689
2217.7660,0.017641
2219.6297,0.017552
2221.4934,0.018675
2223.3570,0.018630
2225.2207,0.018338
2227.0844,0.018045
2228.9480,0.019144
2230.8117,0.019464
2232.6754,0.019076
2234.5390,0.020148
2236.4027,0.020687
2238.2664,0.019847
2240.1300,0.019881
2241.9937,0.019944
2243.8574,0.020825
2245.7210,0.021492
2247.5847,0.021534
2249.4484,0.021545
2251.3121,0.021855
2253.1757,0.021718
2255.0394,0.021713
2256.9031,0.021944
2258.7667,0.022070
2260.6304,0.022359
2262.4941,0.022711
2264.3577,0.023020
2266.2214,0.023414
2268.0851,0.023858
2269.9487,0.024219
2271.8124,0.024253
2273.6761,0.024300
2275.5397,0.025012
2277.4034,0.025319
2279.2671,0.025321
2281.1308,0.026399
2282.9944,0.027248
2284.8581,0.026743
2286.7218,0.026231
2288.5854,0.026625
2290.4491,0.027171
2292.3128,0.027184
2294.1764,0.026912
2296.0401,0.026715
2297.9038,0.026574
2299.7674,0.026976
2301.6311,0.027308
2303.4948,0.027655
2305.3585,0.027864
2307.2221,0.027576
2309.0858,0.027465
2310.9495,0.027421
2312.8131,0.027534
2314.6768,0.027564
2316.5405,0.027504
2318.4041,0.027338
2320.2678,0.027300
2322.1315,0.027664
2323.9951,0.027826
2325.8588,0.027524
2327.7225,0.026711
2329.5861,0.026526
2331.4498,0.026634
2333.3135,0.026383
2335.1772,0.026439
2337.0408,0.026636
2338.9045,0.026458
2340.7682,0.026716
2342.6318,0.027041
2344.4955,0.027167
2346.3592,0.027183
2348.2228,0.026783
2350.0865,0.026159
2351.9502,0.025876
2353.8138,0.025764
2355.6775,0.026138
2357.5412,0.026338
2359.4049,0.026084
2361.2685,0.025979
2363.1322,0.026039
2364.9959,0.026222
2366.8595,0.026488
2368.7232,0.026627
2370.5869,0.027280
2372.4505,0.027574
2374.3142,0.027552
2376.1779,0.027538
2378.0415,0.027738
2379.9052,0.027691
2381.7689,0.027572
2383.6325,0.027691
2385.4962,0.027762
2387.3599,0.027490
2389.2236,0.027392
2391.0872,0.027622
2392.9509,0.027706
2394.8146,0.027513
2396.6782,0.027749
2398.5419,0.027965
2400.4056,0.028008
2402.2692,0.028219
2404.1329,0.028158
2405.9966,0.028062
2407.8602,0.028305
2409.7239,0.028390
2411.5876,0.028333
2413.4512,0.028191
2415.3149,0.028317
2417.1786,0.028469
2419.0423,0.028765
2420.9059,0.028861
2422.7696,0.028784
2424.6333,0.028820
2426.4969,0.028905
2428.3606,0.029037
2430.2243,0.029001
2432.0879,0.028930
2433.9516,0.028836
2435.8153,0.028957
2437.6789,0.029073
2439.5426,0.029178
2441.4063,0.029230
2443.2700,0.028902
2445.1336,0.028944
2446.9973,0.029042
2448.8610,0.028959
2450.7246,0.028927
2452.5883,0.029379
2454.4520,0.028990
2456.3156,0.028519
2458.1793,0.028535
2460.0430,0.028859
2461.9066,0.029035
2463.7703,0.028766
2465.6340,0.028476
2467.4976,0.028547
2469.3613,0.028670
2471.2250,0.028534
2473.0887,0.028308
2474.9523,0.028435
2476.8160,0.028654
2478.6797,0.029045
2480.5433,0.029261
2482.4070,0.029141
2484.2707,0.029156
2486.1343,0.029245
2487.9980,0.029137
2489.8617,0.029355
2491.7253,0.029576
2493.5890,0.029731
2495.4527,0.029672
2497.3164,0.029929
2499.1800,0.030307
2501.0437,0.030294
2502.9074,0.030273
2504.7710,0.030240
2506.6347,0.030128
2508.4984,0.030226
2510.3620,0.030635
2512.2257,0.030876
2514.0894,0.030346
2515.9530,0.030325
2517.8167,0.030443
2519.6804,0.030498
2521.5440,0.030763
2523.4077,0.031067
2525.2714,0.031170
2527.1351,0.031389
2528.9987,0.031476
2530.8624,0.031231
2532.7261,0.030992
2534.5897,0.031368
2536.4534,0.031859
2538.3171,0.031645
2540.1807,0.031321
2542.0444,0.031317
2543.9081,0.031478
2545.7717,0.031647
2547.6354,0.031724
2549.4991,0.031447
2551.3627,0.031016
2553.2264,0.031007
2555.0901,0.031387
2556.9538,0.031595
2558.8174,0.031724
2560.6811,0.031643
2562.5448,0.031733
2564.4084,0.031891
2566.2721,0.032061
2568.1358,0.032551
2569.9994,0.032709
2571.8631,0.032803
2573.7268,0.032815
2575.5904,0.033091
2577.4541,0.033460
2579.3178,0.033385
2581.1815,0.033406
2583.0451,0.033710
2584.9088,0.034116
2586.7725,0.034112
2588.6361,0.034043
2590.4998,0.034154
2592.3635,0.034805
2594.2271,0.035232
2596.0908,0.035111
2597.9545,0.035188
2599.8181,0.035471
2601.6818,0.035290
2603.5455,0.035189
2605.4091,0.035633
2607.2728,0.035758
2609.1365,0.035726
2611.0002,0.035762
2612.8638,0.035959
2614.7275,0.036181
2616.5912,0.036344
2618.4548,0.036463
2620.3185,0.036459
2622.1822,0.036868
2624.0458,0.037468
2625.9095,0.037718
2627.7732,0.037800
2629.6368,0.038370
2631.5005,0.038681
2633.3642,0.038613
2635.2279,0.038862
2637.0915,0.039232
2638.9552,0.039538
2640.8189,0.039912
2642.6825,0.040161
2644.5462,0.040415
2646.4099,0.040597
2648.2735,0.040772
2650.1372,0.040936
2652.0009,0.040999
2653.8645,0.041146
2655.7282,0.041415
2657.5919,0.041405
2659.4555,0.041309
2661.3192,0.041457
2663.1829,0.041645
2665.0466,0.041784
2666.9102,0.041913
2668.7739,0.042026
2670.6376,0.042231
2672.5012,0.042227
2674.3649,0.042398
2676.2286,0.042843
2678.0922,0.042964
2679.9559,0.043091
2681.8196,0.043458
2683.6832,0.043642
2685.5469,0.043728
2687.4106,0.043929
2689.2742,0.044081
2691.1379,0.044207
2693.0016,0.044467
2694.8653,0.044856
2696.7289,0.045226
2698.5926,0.045713
2700.4563,0.046064
2702.3199,0.046276
2704.1836,0.046634
2706.0473,0.046854
2707.9109,0.046994
2709.7746,0.047221
2711.6383,0.047674
2713.5019,0.048310
2715.3656,0.048895
2717.2293,0.049035
2719.0930,0.049286
2720.9566,0.049702
2722.8203,0.050080
2724.6840,0.050546
2726.5476,0.051165
2728.4113,0.051921
2730.2750,0.052285
2732.1386,0.052414
2734.0023,0.053030
2735.8660,0.053720
2737.7296,0.054182
2739.5933,0.054738
2741.4570,0.055429
2743.3206,0.055946
2745.1843,0.056407
2747.0480,0.056830
2748.9117,0.057502
2750.7753,0.058385
2752.6390,0.058853
2754.5027,0.059134
2756.3663,0.059871
2758.2300,0.060568
2760.0937,0.061075
2761.9573,0.061804
2763.8210,0.062424
2765.6847,0.062951
2767.5483,0.063860
2769.4120,0.064591
2771.2757,0.065193
2773.1394,0.065938
2775.0030,0.066898
2776.8667,0.067602
2778.7304,0.067851
2780.5940,0.068259
2782.4577,0.068752
2784.3214,0.068711
2786.1850,0.068274
2788.0487,0.067841
2789.9124,0.067633
2791.7760,0.067295
2793.6397,0.066543
2795.5034,0.065483
2797.3670,0.064680
2799.2307,0.064214
2801.0944,0.063975
2802.9581,0.063522
2804.8217,0.062803
2806.6854,0.062181
2808.5491,0.062016
2810.4127,0.062188
2812.2764,0.062115
2814.1401,0.061627
2816.0037,0.061418
2817.8674,0.061434
2819.7311,0.061449
2821.5947,0.061566
2823.4584,0.061959
2825.3221,0.061958
2827.1857,0.061782
2829.0494,0.061294
2830.9131,0.060707
2832.7768,0.060287
2834.6404,0.060088
2836.5041,0.060116
2838.3678,0.060402
2840.2314,0.060951
2842.0951,0.061391
2843.9588,0.061676
2845.8224,0.062133
2847.6861,0.062783
2849.5498,0.063612
2851.4134,0.064058
2853.2771,0.064606
2855.1408,0.065471
2857.0045,0.066250
2858.8681,0.066662
2860.7318,0.067329
2862.5955,0.067843
2864.4591,0.068134
2866.3228,0.068492
2868.1865,0.068872
2870.0501,0.069029
2871.9138,0.069400
2873.7775,0.069876
2875.6411,0.070424
2877.5048,0.070935
2879.3685,0.071309
2881.2321,0.071571
2883.0958,0.072424
2884.9595,0.073084
2886.8232,0.073695
2888.6868,0.074517
2890.5505,0.074978
2892.4142,0.075473
2894.2778,0.076229
2896.1415,0.076570
2898.0052,0.076766
2899.8688,0.076792
2901.7325,0.076898
2903.5962,0.076805
2905.4598,0.076889
2907.3235,0.077053
2909.1872,0.077411
2911.0509,0.078060
2912.9145,0.078821
2914.7782,0.079280
2916.6419,0.080027
2918.5055,0.080964
2920.3692,0.082078
2922.2329,0.082725
2924.0965,0.083073
2925.9602,0.083740
2927.8239,0.084817
2929.6875,0.085823
2931.5512,0.086430
2933.4149,0.086654
2935.2785,0.087280
2937.1422,0.087952
2939.0059,0.088383
2940.8696,0.088752
2942.7332,0.089247
2944.5969,0.089567
2946.4606,0.090061
2948.3242,0.090549
2950.1879,0.090753
2952.0516,0.090935
2953.9152,0.091478
2955.7789,0.092208
2957.6426,0.092758
2959.5062,0.093268
2961.3699,0.094043
2963.2336,0.094876
2965.0972,0.096172
2966.9609,0.097337
2968.8246,0.098076
2970.6883,0.098796
2972.5519,0.099726
2974.4156,0.100278
2976.2793,0.101120
2978.1429,0.102137
2980.0066,0.102884
2981.8703,0.102956
2983.7339,0.103202
2985.5976,0.103831
2987.4613,0.104468
2989.3249,0.104793
2991.1886,0.105734
2993.0523,0.106986
2994.9160,0.108003
2996.7796,0.108735
2998.6433,0.109354
3000.5070,0.110105
3002.3706,0.111381
3004.2343,0.112680
3006.0980,0.113735
3007.9616,0.114261
3009.8253,0.115053
3011.6890,0.115963
3013.5526,0.117083
3015.4163,0.117958
3017.2800,0.118627
3019.1436,0.118720
3021.0073,0.119080
3022.8710,0.120053
3024.7347,0.120774
3026.5983,0.121034
3028.4620,0.120928
3030.3257,0.120687
3032.1893,0.121372
3034.0530,0.122118
3035.9167,0.122614
3037.7803,0.122977
3039.6440,0.123138
3041.5077,0.123316
3043.3713,0.124033
3045.2350,0.124597
3047.0987,0.124840
3048.9624,0.125071
3050.8260,0.125400
3052.6897,0.125414
3054.5534,0.125706
3056.4170,0.126034
3058.2807,0.126168
3060.1444,0.126420
3062.0080,0.126861
3063.8717,0.126850
3065.7354,0.126879
3067.5990,0.127053
3069.4627,0.127145
3071.3264,0.126705
3073.1900,0.126545
3075.0537,0.126170
3076.9174,0.125655
3078.7811,0.125600
3080.6447,0.125815
3082.5084,0.125477
3084.3721,0.124747
3086.2357,0.123678
3088.0994,0.123210
3089.9631,0.122431
3091.8267,0.121504
3093.6904,0.120646
3095.5541,0.120102
3097.4177,0.118826
3099.2814,0.117538
3101.1451,0.116938
3103.0087,0.116206
3104.8724,0.114537
3106.7361,0.112916
3108.5998,0.111954
3110.4634,0.111035
3112.3271,0.109497
3114.1908,0.108644
3116.0544,0.108353
3117.9181,0.107792
3119.7818,0.106553
3121.6454,0.105529
3123.5091,0.104561
3125.3728,0.103026
3127.2364,0.101320
3129.1001,0.100043
3130.9638,0.099696
3132.8275,0.099467
3134.6911,0.097981
3136.5548,0.096909
3138.4185,0.096765
3140.2821,0.096820
3142.1458,0.096590
3144.0095,0.095944
3145.8731,0.094656
3147.7368,0.093528
3149.6005,0.093050
3151.4641,0.092986
3153.3278,0.092646
3155.1915,0.092562
3157.0551,0.091988
3158.9188,0.090921
3160.7825,0.089819
3162.6462,0.089325
3164.5098,0.089143
3166.3735,0.088362
3168.2372,0.087689
3170.1008,0.087445
3171.9645,0.086909
3173.8282,0.086686
3175.6918,0.086124
3177.5555,0.085638
3179.4192,0.085353
3181.2828,0.085250
3183.1465,0.084957
3185.0102,0.084893
3186.8739,0.084839
3188.7375,0.084425
3190.6012,0.083716
3192.4649,0.083776
3194.3285,0.084407
3196.1922,0.084483
3198.0559,0.084175
3199.9195,0.084439
3201.7832,0.084334
3203.6469,0.083912
3205.5105,0.083955
3207.3742,0.084429
3209.2379,0.084645
3211.1015,0.084438
3212.9652,0.084074
3214.8289,0.084935
3216.6926,0.085684
3218.5562,0.085487
3220.4199,0.085305
3222.2836,0.085752
3224.1472,0.085978
3226.0109,0.085899
3227.8746,0.085970
3229.7382,0.086280
3231.6019,0.086098
3233.4656,0.086121
3235.3292,0.086905
3237.1929,0.087821
3239.0566,0.087995
3240.9202,0.088012
3242.7839,0.088010
3244.6476,0.088446
3246.5113,0.088624
3248.3749,0.089238
3250.2386,0.089556
3252.1023,0.089614
3253.9659,0.090138
3255.8296,0.090934
3257.6933,0.091097
3259.5569,0.091531
3261.4206,0.092331
3263.2843,0.093234
3265.1479,0.092981
3267.0116,0.092630
3268.8753,0.093239
3270.7390,0.093573
3272.6026,0.092882
3274.4663,0.092104
3276.3300,0.091780
3278.1936,0.092306
3280.0573,0.092596
3281.9210,0.092426
3283.7846,0.091669
3285.6483,0.091279
3287.5120,0.090702
3289.3756,0.090139
3291.2393,0.089348
3293.1030,0.087671
3294.9666,0.086738
3296.8303,0.086397
3298.6940,0.085283
3300.5577,0.084104
3302.4213,0.083330
3304.2850,0.082584
3306.1487,0.081727
3308.0123,0.080596
3309.8760,0.080165
3311.7397,0.080390
3313.6033,0.079999
3315.4670,0.079737
3317.3307,0.080145
3319.1943,0.080114
3321.0580,0.080019
3322.9217,0.080469
3324.7854,0.080466
3326.6490,0.080973
3328.5127,0.081833
3330.3764,0.081777
3332.2400,0.081092
3334.1037,0.080563
3335.9674,0.079923
3337.8310,0.079463
3339.6947,0.078385
3341.5584,0.077539
3343.4220,0.076519
3345.2857,0.074644
3347.1494,0.072808
3349.0130,0.071768
3350.8767,0.070868
3352.7404,0.069757
3354.6041,0.068169
3356.4677,0.066676
3358.3314,0.065678
3360.1951,0.064438
3362.0587,0.063227
3363.9224,0.062509
3365.7861,0.061839
3367.6497,0.061534
3369.5134,0.061603
3371.3771,0.061698
3373.2407,0.061584
3375.1044,0.061064
3376.9681,0.060745
3378.8317,0.061131
3380.6954,0.061631
3382.5591,0.062254
3384.4228,0.062914
3386.2864,0.063202
3388.1501,0.063287
3390.0138,0.063571
3391.8774,0.064074
3393.7411,0.065566
3395.6048,0.066256
3397.4684,0.065779
3399.3321,0.065357
3401.1958,0.065142
3403.0594,0.065008
3404.9231,0.064807
3406.7868,0.063238
3408.6505,0.060539
3410.5141,0.058435
3412.3778,0.056789
3414.2415,0.054798
3416.1051,0.053665
3417.9688,0.052681
3419.8325,0.051254
3421.6961,0.048537
3423.5598,0.046194
3425.4235,0.045234
3427.2871,0.043897
3429.1508,0.041866
3431.0145,0.040810
3432.8781,0.039897
3434.7418,0.038390
3436.6055,0.037526
3438.4692,0.036673
3440.3328,0.035335
3442.1965,0.034311
3444.0602,0.034178
3445.9238,0.033731
3447.7875,0.032707
3449.6512,0.032503
3451.5148,0.032441
3453.3785,0.032200
3455.2422,0.031708
3457.1058,0.030649
3458.9695,0.029736
3460.8332,0.030194
3462.6969,0.029845
3464.5605,0.028253
3466.4242,0.027547
3468.2879,0.028246
3470.1515,0.028487
3472.0152,0.026813
3473.8789,0.025248
3475.7425,0.025233
3477.6062,0.025513
3479.4699,0.025314
3481.3335,0.024882
3483.1972,0.024836
3485.0609,0.023669
3486.9245,0.022368
3488.7882,0.022762
3490.6519,0.022806
3492.5156,0.022034
3494.3792,0.021288
3496.2429,0.020215
3498.1066,0.019970
3499.9702,0.020419
3501.8339,0.020584
3503.6976,0.020354
3505.5612,0.019562
3507.4249,0.018886
3509.2886,0.017550
3511.1522,0.016492
3513.0159,0.016409
3514.8796,0.015897
3516.7432,0.015799
3518.6069,0.016693
3520.4706,0.016685
3522.3343,0.015045
3524.1979,0.014299
3526.0616,0.015290
3527.9253,0.015720
3529.7889,0.015258
3531.6526,0.015163
3533.5163,0.015913
3535.3799,0.015741
3537.2436,0.013661
3539.1073,0.012466
3540.9709,0.013070
3542.8346,0.013176
3544.6983,0.012876
3546.5620,0.012428
3548.4256,0.012517
3550.2893,0.013570
3552.1530,0.014308
3554.0166,0.013364
3555.8803,0.012302
3557.7440,0.013078
3559.6076,0.013147
3561.4713,0.011455
3563.3350,0.011373
3565.1986,0.012066
3567.0623,0.010756
3568.9260,0.009824
3570.7896,0.011347
3572.6533,0.012717
3574.5170,0.013067
3576.3807,0.012345
3578.2443,0.011512
3580.1080,0.010950
3581.9717,0.010989
3583.8353,0.011655
3585.6990,0.011695
3587.5627,0.010550
3589.4263,0.009424
3591.2900,0.010706
3593.1537,0.012147
3595.0173,0.011986
3596.8810,0.011295
3598.7447,0.011043
3600.6084,0.011287
3602.4720,0.012306
3604.3357,0.012811
3606.1994,0.012371
3608.0630,0.011535
3609.9267,0.010702
3611.7904,0.011106
3613.6540,0.011262
3615.5177,0.010593
3617.3814,0.010531
3619.2450,0.011071
3621.1087,0.011734
3622.9724,0.011933
3624.8360,0.011878
3626.6997,0.011436
3628.5634,0.010858
3630.4271,0.011003
3632.2907,0.011424
3634.1544,0.011615
3636.0181,0.011926
3637.8817,0.012469
3639.7454,0.012855
3641.6091,0.012839
3643.4727,0.012729
3645.3364,0.011797
3647.2001,0.009980
3649.0637,0.008996
3650.9274,0.010040
3652.7911,0.011294
3654.6547,0.012126
3656.5184,0.012814
3658.3821,0.013728
3660.2458,0.014132
3662.1094,0.013456
3663.9731,0.013203
3665.8368,0.013663
3667.7004,0.013394
3669.5641,0.013218
3671.4278,0.014844
3673.2914,0.017413
3675.1551,0.018233
3677.0188,0.017247
3678.8824,0.014690
3680.7461,0.012816
3682.6098,0.011960
3684.4735,0.012044
3686.3371,0.011688
3688.2008,0.011143
3690.0645,0.010948
3691.9281,0.011204
3693.7918,0.011911
3695.6555,0.012068
3697.5191,0.012106
3699.3828,0.012367
3701.2465,0.012748
3703.1101,0.012946
3704.9738,0.012509
3706.8375,0.012155
3708.7011,0.012295
3710.5648,0.011914
3712.4285,0.011336
3714.2922,0.012170
3716.1558,0.012726
3718.0195,0.012674
3719.8832,0.012770
3721.7468,0.012762
3723.6105,0.012381
3725.4742,0.012227
3727.3378,0.012598
3729.2015,0.012809
3731.0652,0.012438
3732.9288,0.011860
3734.7925,0.011210
3736.6562,0.010918
3738.5199,0.011530
3740.3835,0.012115
3742.2472,0.012090
3744.1109,0.011584
3745.9745,0.011323
3747.8382,0.012299
3749.7019,0.012426
3751.5655,0.011329
3753.4292,0.011889
3755.2929,0.013881
3757.1565,0.014094
3759.0202,0.013697
3760.8839,0.013642
3762.7475,0.013481
3764.6112,0.013775
3766.4749,0.014329
3768.3386,0.014400
3770.2022,0.014427
3772.0659,0.014314
3773.9296,0.013880
3775.7932,0.014032
3777.6569,0.014587
3779.5206,0.014779
3781.3842,0.014255
3783.2479,0.013993
3785.1116,0.014800
3786.9752,0.015488
3788.8389,0.015238
3790.7026,0.015027
3792.5662,0.014757
3794.4299,0.014266
3796.2936,0.013856
3798.1573,0.013887
3800.0209,0.014343
3801.8846,0.014434
3803.7483,0.014714
3805.6119,0.014642
3807.4756,0.014615
3809.3393,0.015039
3811.2029,0.014566
3813.0666,0.013863
3814.9303,0.013969
3816.7939,0.014327
3818.6576,0.013933
3820.5213,0.013479
3822.3850,0.013615
3824.2486,0.014831
3826.1123,0.014985
3827.9760,0.014552
3829.8396,0.014594
3831.7033,0.014248
3833.5670,0.014074
3835.4306,0.014375
3837.2943,0.014140
3839.1580,0.014658
3841.0216,0.015168
3842.8853,0.014617
3844.7490,0.014357
3846.6126,0.014451
3848.4763,0.014762
3850.3400,0.014595
3852.2037,0.013336
3854.0673,0.012193
3855.9310,0.014624
3857.7947,0.015895
3859.6583,0.015092
3861.5220,0.014865
3863.3857,0.014964
3865.2493,0.014651
3867.1130,0.014710
3868.9767,0.014664
3870.8403,0.014720
3872.7040,0.015737
3874.5677,0.016135
3876.4314,0.015761
3878.2950,0.015215
3880.1587,0.015135
3882.0224,0.015914
3883.8860,0.016300
3885.7497,0.015484
3887.6134,0.015548
3889.4770,0.016010
3891.3407,0.015480
3893.2044,0.015299
3895.0680,0.015666
3896.9317,0.015758
3898.7954,0.015509
3900.6590,0.015060
3902.5227,0.014829
3904.3864,0.016101
3906.2501,0.017278
3908.1137,0.017243
3909.9774,0.017068
3911.8411,0.016744
3913.7047,0.016441
3915.5684,0.016155
3917.4321,0.016273
3919.2957,0.016326
3921.1594,0.016422
3923.0231,0.016665
3924.8867,0.016388
3926.7504,0.016543
3928.6141,0.016993
3930.4777,0.016918
3932.3414,0.016973
3934.2051,0.017344
3936.0688,0.017641
3937.9324,0.017069
3939.7961,0.016664
3941.6598,0.017003
3943.5234,0.016854
3945.3871,0.016517
3947.2508,0.016852
3949.1144,0.016767
3950.9781,0.016815
3952.8418,0.017265
3954.7054,0.017555
3956.5691,0.017524
3958.4328,0.017207
3960.2965,0.017353
3962.1601,0.017666
3964.0238,0.017471
3965.8875,0.017551
3967.7511,0.017722
3969.6148,0.017321
3971.4785,0.016995
3973.3421,0.017129
3975.2058,0.017242
3977.0695,0.017258
3978.9331,0.017118
3980.7968,0.017116
3982.6605,0.017280
3984.5241,0.017629
3986.3878,0.017965
3988.2515,0.018318
3990.1152,0.018326
3991.9788,0.017933
3993.8425,0.017846
3995.7062,0.018015
3997.5698,0.018029
3999.4335,0.017887
