Wavenumber,Intensity
650.4205,0.170316
652.2841,0.165157
654.1478,0.162197
656.0115,0.159454
657.8751,0.158088
659.7388,0.157746
661.6025,0.155890
663.4661,0.152741
665.3298,0.152035
667.1935,0.152697
669.0571,0.152603
670.9208,0.150451
672.7845,0.150514
674.6481,0.150374
676.5118,0.149143
678.3755,0.148608
680.2392,0.150190
682.1028,0.150324
683.9665,0.149053
685.8302,0.147300
687.6938,0.146988
689.5575,0.146499
691.4212,0.147179
693.2848,0.148312
695.1485,0.148740
697.0122,0.149345
698.8758,0.150326
700.7395,0.150981
702.6032,0.150524
704.4669,0.147845
706.3305,0.144729
708.1942,0.139967
710.0579,0.133717
711.9215,0.126770
713.7852,0.120415
715.6489,0.115365
717.5125,0.110968
719.3762,0.106799
721.2399,0.102658
723.1035,0.098544
724.9672,0.095409
726.8309,0.092661
728.6945,0.089808
730.5582,0.087012
732.4219,0.084568
734.2856,0.081725
736.1492,0.078385
738.0129,0.076085
739.8766,0.075734
741.7402,0.076732
743.6039,0.077882
745.4676,0.078366
747.3312,0.077572
749.1949,0.076271
751.0586,0.075002
752.9222,0.073834
754.7859,0.072847
756.6496,0.072289
758.5132,0.071840
760.3769,0.071226
762.2406,0.070944
764.1043,0.070675
765.9679,0.070037
767.8316,0.069651
769.6953,0.069976
771.5589,0.070297
773.4226,0.070698
775.2863,0.071271
777.1499,0.071714
779.0136,0.072652
780.8773,0.073887
782.7409,0.074690
784.6046,0.075633
786.4683,0.077082
788.3320,0.078864
790.1956,0.080555
792.0593,0.082192
793.9230,0.083770
795.7866,0.085461
797.6503,0.087032
799.5140,0.088208
801.3776,0.089200
803.2413,0.089612
805.1050,0.089441
806.9686,0.088575
808.8323,0.086873
810.6960,0.085005
812.5596,0.082933
814.4233,0.080390
816.2870,0.077826
818.1507,0.075440
820.0143,0.073396
821.8780,0.071643
823.7417,0.070851
825.6053,0.071425
827.4690,0.072913
829.3327,0.073424
831.1963,0.068920
833.0600,0.059670
834.9237,0.051935
836.7873,0.048415
838.6510,0.047236
840.5147,0.046918
842.3784,0.046988
844.2420,0.047392
846.1057,0.047801
847.9694,0.047444
849.8330,0.046507
851.6967,0.045754
853.5604,0.045245
855.4240,0.044914
857.2877,0.044957
859.1514,0.045080
861.0150,0.045186
862.8787,0.045233
864.7424,0.045325
866.6060,0.045594
868.4697,0.045794
870.3334,0.045965
872.1971,0.046200
874.0607,0.046457
875.9244,0.046902
877.7881,0.047456
879.6517,0.047848
881.5154,0.048259
883.3791,0.049025
885.2427,0.050010
887.1064,0.050799
888.9701,0.051425
890.8337,0.052000
892.6974,0.052454
894.5611,0.052337
896.4247,0.051776
898.2884,0.052025
900.1521,0.053327
902.0158,0.054945
903.8794,0.057142
905.7431,0.060334
907.6068,0.064047
909.4704,0.068048
911.3341,0.073072
913.1978,0.079070
915.0614,0.081745
916.9251,0.075132
918.7888,0.062470
920.6524,0.052772
922.5161,0.048561
924.3798,0.047601
926.2435,0.047812
928.1071,0.048168
929.9708,0.048649
931.8345,0.049259
933.6981,0.049908
935.5618,0.050445
937.4255,0.051087
939.2891,0.051848
941.1528,0.052543
943.0165,0.053409
944.8801,0.054250
946.7438,0.054884
948.6075,0.055666
950.4711,0.056616
952.3348,0.057615
954.1985,0.058638
956.0622,0.059607
957.9258,0.060518
959.7895,0.061356
961.6532,0.062303
963.5168,0.063322
965.3805,0.064292
967.2442,0.065578
969.1078,0.067478
970.9715,0.069752
972.8352,0.072556
974.6988,0.077058
976.5625,0.084727
978.4262,0.097526
980.2899,0.114665
982.1535,0.120672
984.0172,0.100107
985.8809,0.073156
987.7445,0.061102
989.6082,0.059428
991.4719,0.060154
993.3355,0.061318
995.1992,0.062384
997.0629,0.063379
998.9265,0.064416
1000.7902,0.065357
1002.6539,0.066296
1004.5175,0.067279
1006.3812,0.068123
1008.2449,0.068900
1010.1086,0.069715
1011.9722,0.070443
1013.8359,0.071069
1015.6996,0.071723
1017.5632,0.072294
1019.4269,0.072731
1021.2906,0.073259
1023.1542,0.073807
1025.0179,0.074332
1026.8816,0.074990
1028.7452,0.075834
1030.6089,0.076825
1032.4726,0.077941
1034.3362,0.079123
1036.1999,0.080120
1038.0636,0.081034
1039.9273,0.082345
1041.7909,0.084334
1043.6546,0.086936
1045.5183,0.089678
1047.3819,0.091587
1049.2456,0.091007
1051.1093,0.086345
1052.9729,0.078616
1054.8366,0.071379
1056.7003,0.066960
1058.5639,0.065158
1060.4276,0.064905
1062.2913,0.065300
1064.1550,0.065934
1066.0186,0.066974
1067.8823,0.068337
1069.7460,0.069786
1071.6096,0.071365
1073.4733,0.072967
1075.3370,0.074635
1077.2006,0.076388
1079.0643,0.078252
1080.9280,0.080412
1082.7916,0.082696
1084.6553,0.085041
1086.5190,0.087770
1088.3826,0.090874
1090.2463,0.094212
1092.1100,0.097885
1093.9737,0.101926
1095.8373,0.106351
1097.7010,0.111142
1099.5647,0.116098
1101.4283,0.120981
1103.2920,0.125192
1105.1557,0.127892
1107.0193,0.128096
1108.8830,0.124580
1110.7467,0.117055
1112.6103,0.106954
1114.4740,0.096254
1116.3377,0.086505
1118.2014,0.078556
1120.0650,0.072657
1121.9287,0.068659
1123.7924,0.066045
1125.6560,0.064169
1127.5197,0.062500
1129.3834,0.060770
1131.2470,0.059169
1133.1107,0.057892
1134.9744,0.056829
1136.8380,0.056154
1138.7017,0.055842
1140.5654,0.055752
1142.4290,0.055959
1144.2927,0.056202
1146.1564,0.056416
1148.0201,0.056827
1149.8837,0.057290
1151.7474,0.057837
1153.6111,0.058541
1155.4747,0.059339
1157.3384,0.060257
1159.2021,0.061392
1161.0657,0.062814
1162.9294,0.064565
1164.7931,0.066696
1166.6567,0.069381
1168.5204,0.072672
1170.3841,0.075932
1172.2477,0.077998
1174.1114,0.077556
1175.9751,0.074246
1177.8388,0.069672
1179.7024,0.065841
1181.5661,0.063544
1183.4298,0.062475
1185.2934,0.062124
1187.1571,0.062035
1189.0208,0.061914
1190.8844,0.061809
1192.7481,0.061721
1194.6118,0.061639
1196.4754,0.061634
1198.3391,0.061799
1200.2028,0.062142
1202.0665,0.062490
1203.9301,0.062769
1205.7938,0.062986
1207.6575,0.063158
1209.5211,0.063303
1211.3848,0.063488
1213.2485,0.063663
1215.1121,0.063769
1216.9758,0.063833
1218.8395,0.063913
1220.7031,0.064005
1222.5668,0.064072
1224.4305,0.064150
1226.2941,0.064220
1228.1578,0.064309
1230.0215,0.064478
1231.8852,0.064661
1233.7488,0.064732
1235.6125,0.064718
1237.4762,0.064778
1239.3398,0.065049
1241.2035,0.065574
1243.0672,0.066299
1244.9308,0.067021
1246.7945,0.067612
1248.6582,0.068195
1250.5218,0.068763
1252.3855,0.069179
1254.2492,0.069517
1256.1129,0.069899
1257.9765,0.070414
1259.8402,0.071166
1261.7039,0.072110
1263.5675,0.073050
1265.4312,0.073793
1267.2949,0.074178
1269.1585,0.074222
1271.0222,0.074173
1272.8859,0.074248
1274.7495,0.074534
1276.6132,0.075097
1278.4769,0.075929
1280.3405,0.077009
1282.2042,0.078285
1284.0679,0.079724
1285.9316,0.081496
1287.7952,0.083650
1289.6589,0.086119
1291.5226,0.088960
1293.3862,0.092251
1295.2499,0.096188
1297.1136,0.100941
1298.9772,0.106386
1300.8409,0.112460
1302.7046,0.118355
1304.5682,0.121792
1306.4319,0.119922
1308.2956,0.110109
1310.1592,0.093264
1312.0229,0.075979
1313.8866,0.064635
1315.7503,0.060491
1317.6139,0.060469
1319.4776,0.062242
1321.3413,0.064483
1323.2049,0.066693
1325.0686,0.069016
1326.9323,0.071383
1328.7959,0.073746
1330.6596,0.075882
1332.5233,0.077485
1334.3869,0.078540
1336.2506,0.079410
1338.1143,0.080800
1339.9780,0.082747
1341.8416,0.083793
1343.7053,0.084061
1345.5690,0.084496
1347.4326,0.085057
1349.2963,0.085861
1351.1600,0.087000
1353.0236,0.088514
1354.8873,0.090497
1356.7510,0.092507
1358.6146,0.094268
1360.4783,0.096458
1362.3420,0.100126
1364.2056,0.103814
1366.0693,0.105867
1367.9330,0.108509
1369.7967,0.111701
1371.6603,0.114237
1373.5240,0.117595
1375.3877,0.121624
1377.2513,0.124596
1379.1150,0.128278
1380.9787,0.132892
1382.8423,0.137725
1384.7060,0.142994
1386.5697,0.149336
1388.4333,0.155915
1390.2970,0.159086
1392.1607,0.160159
1394.0244,0.159399
1395.8880,0.154817
1397.7517,0.148318
1399.6154,0.140497
1401.4790,0.132960
1403.3427,0.125788
1405.2064,0.114340
1407.0700,0.099928
1408.9337,0.086371
1410.7974,0.073780
1412.6610,0.065070
1414.5247,0.061401
1416.3884,0.061462
1418.2520,0.065448
1420.1157,0.073157
1421.9794,0.077089
1423.8431,0.075523
1425.7067,0.068476
1427.5704,0.060737
1429.4341,0.055543
1431.2977,0.053488
1433.1614,0.053539
1435.0251,0.054611
1436.8887,0.057318
1438.7524,0.059587
1440.6161,0.060575
1442.4797,0.061888
1444.3434,0.063105
1446.2071,0.063968
1448.0707,0.064314
1449.9344,0.063293
1451.7981,0.061248
1453.6618,0.059068
1455.5254,0.058367
1457.3891,0.061087
1459.2528,0.062796
1461.1164,0.061953
1462.9801,0.061792
1464.8438,0.062221
1466.7074,0.061883
1468.5711,0.060692
1470.4348,0.059869
1472.2984,0.060160
1474.1621,0.061071
1476.0258,0.061111
1477.8895,0.061176
1479.7531,0.061240
1481.6168,0.061798
1483.4805,0.062215
1485.3441,0.062404
1487.2078,0.063135
1489.0715,0.064929
1490.9351,0.066757
1492.7988,0.066867
1494.6625,0.066908
1496.5261,0.068568
1498.3898,0.070649
1500.2535,0.071469
1502.1171,0.071386
1503.9808,0.071221
1505.8445,0.072603
1507.7082,0.077930
1509.5718,0.078437
1511.4355,0.078069
1513.2992,0.078453
1515.1628,0.079082
1517.0265,0.080236
1518.8902,0.081127
1520.7538,0.082141
1522.6175,0.084465
1524.4812,0.084898
1526.3448,0.085644
1528.2085,0.086484
1530.0722,0.086716
1531.9359,0.087464
1533.7995,0.089446
1535.6632,0.090232
1537.5269,0.089962
1539.3905,0.091431
1541.2542,0.096359
1543.1179,0.098242
1544.9815,0.099830
1546.8452,0.101128
1548.7089,0.102342
1550.5725,0.104394
1552.4362,0.106059
1554.2999,0.107303
1556.1635,0.109076
1558.0272,0.112050
1559.8909,0.119749
1561.7546,0.119833
1563.6182,0.120049
1565.4819,0.122085
1567.3456,0.124405
1569.2092,0.127098
1571.0729,0.130441
1572.9366,0.131940
1574.8002,0.133995
1576.6639,0.138209
1578.5276,0.141135
1580.3912,0.142384
1582.2549,0.144351
1584.1186,0.145943
1585.9822,0.147072
1587.8459,0.147636
1589.7096,0.147563
1591.5733,0.147036
1593.4369,0.146225
1595.3006,0.144787
1597.1643,0.143173
1599.0279,0.141627
1600.8916,0.139920
1602.7553,0.138071
1604.6189,0.136412
1606.4826,0.135109
1608.3463,0.133841
1610.2099,0.132434
1612.0736,0.130446
1613.9373,0.127615
1615.8010,0.123360
1617.6646,0.116155
1619.5283,0.111017
1621.3920,0.107146
1623.2556,0.100785
1625.1193,0.093591
1626.9830,0.087645
1628.8466,0.080089
1630.7103,0.072882
1632.5740,0.067377
1634.4376,0.061224
1636.3013,0.053282
1638.1650,0.049559
1640.0286,0.049261
1641.8923,0.048964
1643.7560,0.049541
1645.6197,0.050651
1647.4833,0.052575
1649.3470,0.054408
1651.2107,0.056169
1653.0743,0.058775
1654.9380,0.062860
1656.8017,0.063791
1658.6653,0.064531
1660.5290,0.064813
1662.3927,0.064367
1664.2563,0.063220
1666.1200,0.062204
1667.9837,0.061063
1669.8474,0.059595
1671.7110,0.058929
1673.5747,0.059754
1675.4384,0.061598
1677.3020,0.064315
1679.1657,0.066714
1681.0294,0.069977
1682.8930,0.073088
1684.7567,0.076888
1686.6204,0.078943
1688.4840,0.078806
1690.3477,0.077783
1692.2114,0.075964
1694.0750,0.073686
1695.9387,0.070540
1697.8024,0.067088
1699.6661,0.064402
1701.5297,0.058079
1703.3934,0.053800
1705.2571,0.047814
1707.1207,0.039604
1708.9844,0.034440
1710.8481,0.030652
1712.7117,0.027555
1714.5754,0.025348
1716.4391,0.022978
1718.3027,0.021746
1720.1664,0.021158
1722.0301,0.020572
1723.8937,0.019153
1725.7574,0.017442
1727.6211,0.015859
1729.4848,0.014507
1731.3484,0.013191
1733.2121,0.012223
1735.0758,0.011089
1736.9394,0.010844
1738.8031,0.010610
1740.6668,0.010409
1742.5304,0.010153
1744.3941,0.009894
1746.2578,0.009482
1748.1214,0.009116
1749.9851,0.008694
1751.8488,0.008720
1753.7125,0.008572
1755.5761,0.008611
1757.4398,0.008600
1759.3035,0.008635
1761.1671,0.008513
1763.0308,0.008516
1764.8945,0.008455
1766.7581,0.008412
1768.6218,0.008234
1770.4855,0.008223
1772.3491,0.008105
1774.2128,0.008273
1776.0765,0.008295
1777.9401,0.008360
1779.8038,0.008463
1781.6675,0.008694
1783.5312,0.008499
1785.3948,0.008545
1787.2585,0.008664
1789.1222,0.008621
1790.9858,0.008516
1792.8495,0.008551
1794.7132,0.008503
1796.5768,0.008582
1798.4405,0.008545
1800.3042,0.008771
1802.1678,0.008913
1804.0315,0.008866
1805.8952,0.008793
1807.7589,0.009034
1809.6225,0.009132
1811.4862,0.009132
1813.3499,0.008926
1815.2135,0.008686
1817.0772,0.008653
1818.9409,0.008849
1820.8045,0.008964
1822.6682,0.009253
1824.5319,0.009202
1826.3955,0.008965
1828.2592,0.008567
1830.1229,0.008482
1831.9865,0.008487
1833.8502,0.008403
1835.7139,0.008446
1837.5776,0.008796
1839.4412,0.008820
1841.3049,0.008732
1843.1686,0.008604
1845.0322,0.008599
1846.8959,0.008673
1848.7596,0.009140
1850.6232,0.009404
1852.4869,0.009394
1854.3506,0.009053
1856.2142,0.008858
1858.0779,0.008846
1859.9416,0.009230
1861.8052,0.009283
1863.6689,0.009179
1865.5326,0.009001
1867.3963,0.008728
1869.2599,0.008428
1871.1236,0.008808
1872.9873,0.008888
1874.8509,0.008885
1876.7146,0.009039
1878.5783,0.009180
1880.4419,0.008987
1882.3056,0.008951
1884.1693,0.008990
1886.0329,0.009200
1887.8966,0.009300
1889.7603,0.009316
1891.6240,0.009025
1893.4876,0.009043
1895.3513,0.009048
1897.2150,0.009356
1899.0786,0.009336
1900.9423,0.009555
1902.8060,0.009627
1904.6696,0.009415
1906.5333,0.009172
1908.3970,0.009093
1910.2606,0.009210
1912.1243,0.009607
1913.9880,0.009246
1915.8516,0.009461
1917.7153,0.009537
1919.5790,0.009273
1921.4427,0.009010
1923.3063,0.009151
1925.1700,0.009004
1927.0337,0.008947
1928.8973,0.009080
1930.7610,0.009722
1932.6247,0.009341
1934.4883,0.009293
1936.3520,0.009420
1938.2157,0.008884
1940.0793,0.008491
1941.9430,0.008815
1943.8067,0.007836
1945.6704,0.007728
1947.5340,0.008255
1949.3977,0.008189
1951.2614,0.007553
1953.1250,0.007801
1954.9887,0.007599
1956.8524,0.007280
1958.7160,0.006868
1960.5797,0.007338
1962.4434,0.006972
1964.3070,0.005493
1966.1707,0.003166
1968.0344,0.002483
1969.8980,0.002758
1971.7617,0.003861
1973.6254,0.004134
1975.4891,0.004849
1977.3527,0.005574
1979.2164,0.005847
1981.0801,0.005697
1982.9437,0.006109
1984.8074,0.006061
1986.6711,0.007404
1988.5347,0.007159
1990.3984,0.006733
1992.2621,0.006179
1994.1257,0.005900
1995.9894,0.006827
1997.8531,0.006515
1999.7167,0.006206
2001.5804,0.007677
2003.4441,0.007316
2005.3078,0.006399
2007.1714,0.005551
2009.0351,0.005474
2010.8988,0.005688
2012.7624,0.006244
2014.6261,0.004704
2016.4898,0.004463
2018.3534,0.004006
2020.2171,0.004031
2022.0808,0.005071
2023.9444,0.005924
2025.8081,0.005265
2027.6718,0.005080
2029.5355,0.005171
2031.3991,0.005100
2033.2628,0.004055
2035.1265,0.005544
2036.9901,0.006370
2038.8538,0.006340
2040.7175,0.006181
2042.5811,0.007080
2044.4448,0.007602
2046.3085,0.008155
2048.1721,0.008121
2050.0358,0.008591
2051.8995,0.008963
2053.7631,0.009808
2055.6268,0.010423
2057.4905,0.010522
2059.3542,0.009786
2061.2178,0.009709
2063.0815,0.010129
2064.9452,0.010643
2066.8088,0.010604
2068.6725,0.010235
2070.5362,0.010053
2072.3998,0.010663
2074.2635,0.011101
2076.1272,0.011983
2077.9908,0.011996
2079.8545,0.011864
2081.7182,0.011781
2083.5819,0.011371
2085.4455,0.010989
2087.3092,0.011507
2089.1729,0.011374
2091.0365,0.011749
2092.9002,0.012187
2094.7639,0.011663
2096.6275,0.011484
2098.4912,0.011988
2100.3549,0.011779
2102.2185,0.011980
2104.0822,0.012661
2105.9459,0.013023
2107.8095,0.012263
2109.6732,0.012003
2111.5369,0.012298
2113.4006,0.012804
2115.2642,0.012960
2117.1279,0.012829
2118.9916,0.012739
2120.8552,0.012756
2122.7189,0.012546
2124.5826,0.012670
2126.4462,0.012409
2128.3099,0.011769
2130.1736,0.011665
2132.0372,0.012137
2133.9009,0.011831
2135.7646,0.011199
2137.6282,0.010743
2139.4919,0.010771
2141.3556,0.010667
2143.2193,0.011091
2145.0829,0.010040
2146.9466,0.009694
2148.8103,0.009751
2150.6739,0.009881
2152.5376,0.008628
2154.4013,0.006933
2156.2649,0.004075
2158.1286,0.004185
2159.9923,0.006533
2161.8559,0.009006
2163.7196,0.007492
2165.5833,0.006415
2167.4470,0.006925
2169.3106,0.008177
2171.1743,0.008411
2173.0380,0.008095
2174.9016,0.008262
2176.7653,0.008864
2178.6290,0.008187
2180.4926,0.008482
2182.3563,0.007927
2184.2200,0.008698
2186.0836,0.009927
2187.9473,0.010007
2189.8110,0.010084
2191.6746,0.010461
2193.5383,0.010385
2195.4020,0.009977
2197.2657,0.010311
2199.1293,0.010926
2200.9930,0.011181
2202.8567,0.011111
2204.7203,0.011047
2206.5840,0.011707
2208.4477,0.012426
2210.3113,0.011778
2212.1750,0.011276
2214.0387,0.012461
2215.9023,0.012651
2217.7660,0.011999
2219.6297,0.011702
2221.4934,0.012416
2223.3570,0.012913
2225.2207,0.013987
2227.0844,0.013738
2228.9480,0.013367
2230.8117,0.013209
2232.6754,0.013864
2234.5390,0.014247
2236.4027,0.014392
2238.2664,0.014282
2240.1300,0.014233
2241.9937,0.014467
2243.8574,0.015098
2245.7210,0.015391
2247.5847,0.014957
2249.4484,0.014745
2251.3121,0.015065
2253.1757,0.015291
2255.0394,0.016050
2256.9031,0.016241
2258.7667,0.015852
2260.6304,0.016052
2262.4941,0.016288
2264.3577,0.016460
2266.2214,0.016530
2268.0851,0.016576
2269.9487,0.016985
2271.8124,0.017333
2273.6761,0.017784
2275.5397,0.017827
2277.4034,0.018006
2279.2671,0.018439
2281.1308,0.018420
2282.9944,0.018535
2284.8581,0.019203
2286.7218,0.019212
2288.5854,0.019133
2290.4491,0.019135
2292.3128,0.019125
2294.1764,0.019434
2296.0401,0.019728
2297.9038,0.019605
2299.7674,0.019227
2301.6311,0.019244
2303.4948,0.019443
2305.3585,0.019353
2307.2221,0.019617
2309.0858,0.019897
2310.9495,0.019749
2312.8131,0.019644
2314.6768,0.019764
2316.5405,0.019840
2318.4041,0.019743
2320.2678,0.019665
2322.1315,0.019664
2323.9951,0.019629
2325.8588,0.019567
2327.7225,0.018983
2329.5861,0.018425
2331.4498,0.018319
2333.3135,0.018447
2335.1772,0.018610
2337.0408,0.018848
2338.9045,0.018760
2340.7682,0.018796
2342.6318,0.018985
2344.4955,0.019121
2346.3592,0.018928
2348.2228,0.018510
2350.0865,0.018290
2351.9502,0.018336
2353.8138,0.018374
2355.6775,0.018461
2357.5412,0.018152
2359.4049,0.017786
2361.2685,0.018310
2363.1322,0.018769
2364.9959,0.018512
2366.8595,0.018568
2368.7232,0.018762
2370.5869,0.019162
2372.4505,0.019444
2374.3142,0.019361
2376.1779,0.019347
2378.0415,0.019407
2379.9052,0.019453
2381.7689,0.019476
2383.6325,0.019244
2385.4962,0.019351
2387.3599,0.019442
2389.2236,0.019264
2391.0872,0.019287
2392.9509,0.019212
2394.8146,0.019416
2396.6782,0.019856
2398.5419,0.019930
2400.4056,0.019701
2402.2692,0.019726
2404.1329,0.019776
2405.9966,0.020019
2407.8602,0.020016
2409.7239,0.019891
2411.5876,0.020269
2413.4512,0.020484
2415.3149,0.020125
2417.1786,0.020128
2419.0423,0.020437
2420.9059,0.020296
2422.7696,0.020537
2424.6333,0.020476
2426.4969,0.020157
2428.3606,0.020499
2430.2243,0.020516
2432.0879,0.020278
2433.9516,0.020458
2435.8153,0.020537
2437.6789,0.020563
2439.5426,0.020691
2441.4063,0.020896
2443.2700,0.020786
2445.1336,0.020672
2446.9973,0.020667
2448.8610,0.020809
2450.7246,0.020775
2452.5883,0.020615
2454.4520,0.020510
2456.3156,0.020280
2458.1793,0.020102
2460.0430,0.020160
2461.9066,0.020427
2463.7703,0.020597
2465.6340,0.020555
2467.4976,0.020391
2469.3613,0.020430
2471.2250,0.020456
2473.0887,0.020378
2474.9523,0.020459
2476.8160,0.020737
2478.6797,0.020549
2480.5433,0.020448
2482.4070,0.020666
2484.2707,0.020979
2486.1343,0.021197
2487.9980,0.021177
2489.8617,0.021304
2491.7253,0.021294
2493.5890,0.021109
2495.4527,0.021177
2497.3164,0.021751
2499.1800,0.021813
2501.0437,0.021750
2502.9074,0.021714
2504.7710,0.021590
2506.6347,0.021943
2508.4984,0.022254
2510.3620,0.022333
2512.2257,0.022014
2514.0894,0.021816
2515.9530,0.022227
2517.8167,0.022485
2519.6804,0.022555
2521.5440,0.022478
2523.4077,0.022516
2525.2714,0.022442
2527.1351,0.022288
2528.9987,0.022728
2530.8624,0.022742
2532.7261,0.022777
2534.5897,0.023262
2536.4534,0.023064
2538.3171,0.022365
2540.1807,0.022353
2542.0444,0.022577
2543.9081,0.022594
2545.7717,0.022847
2547.6354,0.023089
2549.4991,0.023292
2551.3627,0.023524
2553.2264,0.023538
2555.0901,0.023278
2556.9538,0.023103
2558.8174,0.023469
2560.6811,0.023630
2562.5448,0.023375
2564.4084,0.023199
2566.2721,0.023199
2568.1358,0.023502
2569.9994,0.023880
2571.8631,0.023844
2573.7268,0.024166
2575.5904,0.024534
2577.4541,0.024358
2579.3178,0.024257
2581.1815,0.024505
2583.0451,0.024723
2584.9088,0.024815
2586.7725,0.025033
2588.6361,0.024849
2590.4998,0.024861
2592.3635,0.025339
2594.2271,0.025711
2596.0908,0.025953
2597.9545,0.025727
2599.8181,0.025702
2601.6818,0.026046
2603.5455,0.026129
2605.4091,0.026624
2607.2728,0.027102
2609.1365,0.027014
2611.0002,0.026699
2612.8638,0.026681
2614.7275,0.026802
2616.5912,0.027017
2618.4548,0.027265
2620.3185,0.027534
2622.1822,0.027736
2624.0458,0.027815
2625.9095,0.028091
2627.7732,0.028491
2629.6368,0.028389
2631.5005,0.028406
2633.3642,0.028866
2635.2279,0.029251
2637.0915,0.029469
2638.9552,0.029480
2640.8189,0.029432
2642.6825,0.029861
2644.5462,0.030414
2646.4099,0.030415
2648.2735,0.030422
2650.1372,0.030663
2652.0009,0.030877
2653.8645,0.030861
2655.7282,0.030734
2657.5919,0.030812
2659.4555,0.030954
2661.3192,0.031139
2663.1829,0.031185
2665.0466,0.031141
2666.9102,0.031443
2668.7739,0.031586
2670.6376,0.031643
2672.5012,0.032047
2674.3649,0.032222
2676.2286,0.032091
2678.0922,0.032311
2679.9559,0.032750
2681.8196,0.032935
2683.6832,0.033153
2685.5469,0.033351
2687.4106,0.033311
2689.2742,0.033116
2691.1379,0.033393
2693.0016,0.034039
2694.8653,0.034239
2696.7289,0.034269
2698.5926,0.034487
2700.4563,0.034823
2702.3199,0.035219
2704.1836,0.035471
2706.0473,0.035860
2707.9109,0.036293
2709.7746,0.036453
2711.6383,0.036571
2713.5019,0.036757
2715.3656,0.037106
2717.2293,0.037427
2719.0930,0.037621
2720.9566,0.037882
2722.8203,0.038381
2724.6840,0.038938
2726.5476,0.039535
2728.4113,0.039838
2730.2750,0.039964
2732.1386,0.040153
2734.0023,0.040556
2735.8660,0.040947
2737.7296,0.041590
2739.5933,0.042169
2741.4570,0.042580
2743.3206,0.042902
2745.1843,0.043323
2747.0480,0.043701
2748.9117,0.044262
2750.7753,0.045138
2752.6390,0.045913
2754.5027,0.046249
2756.3663,0.046533
2758.2300,0.046917
2760.0937,0.047228
2761.9573,0.047653
2763.8210,0.048362
2765.6847,0.048761
2767.5483,0.049178
2769.4120,0.049956
2771.2757,0.050480
2773.1394,0.050746
2775.0030,0.051484
2776.8667,0.052317
2778.7304,0.052759
2780.5940,0.052738
2782.4577,0.052887
2784.3214,0.052869
2786.1850,0.052721
2788.0487,0.052514
2789.9124,0.052524
2791.7760,0.052242
2793.6397,0.051442
2795.5034,0.050859
2797.3670,0.050389
2799.2307,0.050137
2801.0944,0.049936
2802.9581,0.049409
2804.8217,0.048807
2806.6854,0.048382
2808.5491,0.048263
2810.4127,0.048244
2812.2764,0.048158
2814.1401,0.047819
2816.0037,0.047745
2817.8674,0.047875
2819.7311,0.047942
2821.5947,0.048151
2823.4584,0.048387
2825.3221,0.048433
2827.1857,0.048037
2829.0494,0.047784
2830.9131,0.047607
2832.7768,0.047332
2834.6404,0.047335
2836.5041,0.047308
2838.3678,0.047675
2840.2314,0.048077
2842.0951,0.048437
2843.9588,0.048408
2845.8224,0.048564
2847.6861,0.049230
2849.5498,0.050185
2851.4134,0.050750
2853.2771,0.051032
2855.1408,0.051596
2857.0045,0.052289
2858.8681,0.052759
2860.7318,0.053022
2862.5955,0.053449
2864.4591,0.054052
2866.3228,0.054181
2868.1865,0.054249
2870.0501,0.054621
2871.9138,0.054824
2873.7775,0.055103
2875.6411,0.055633
2877.5048,0.056029
2879.3685,0.056418
2881.2321,0.056655
2883.0958,0.057170
2884.9595,0.057739
2886.8232,0.058239
2888.6868,0.058682
2890.5505,0.059057
2892.4142,0.059791
2894.2778,0.060524
2896.1415,0.060929
2898.0052,0.061191
2899.8688,0.061276
2901.7325,0.061178
2903.5962,0.061199
2905.4598,0.061110
2907.3235,0.061097
2909.1872,0.061527
2911.0509,0.062125
2912.9145,0.063172
2914.7782,0.064084
2916.6419,0.064454
2918.5055,0.064845
2920.3692,0.065369
2922.2329,0.065823
2924.0965,0.066472
2925.9602,0.066973
2927.8239,0.067253
2929.6875,0.067514
2931.5512,0.068341
2933.4149,0.069262
2935.2785,0.069678
2937.1422,0.069949
2939.0059,0.070394
2940.8696,0.070612
2942.7332,0.070733
2944.5969,0.071032
2946.4606,0.071600
2948.3242,0.071762
2950.1879,0.071732
2952.0516,0.072050
2953.9152,0.072532
2955.7789,0.072909
2957.6426,0.073534
2959.5062,0.073854
2961.3699,0.074484
2963.2336,0.075305
2965.0972,0.076000
2966.9609,0.076876
2968.8246,0.077791
2970.6883,0.078438
2972.5519,0.078939
2974.4156,0.079202
2976.2793,0.079445
2978.1429,0.079749
2980.0066,0.080355
2981.8703,0.080762
2983.7339,0.080735
2985.5976,0.080876
2987.4613,0.081222
2989.3249,0.081687
2991.1886,0.082468
2993.0523,0.083030
2994.9160,0.083576
2996.7796,0.084223
2998.6433,0.084805
3000.5070,0.085610
3002.3706,0.086570
3004.2343,0.086954
3006.0980,0.087397
3007.9616,0.088172
3009.8253,0.088946
3011.6890,0.089869
3013.5526,0.090937
3015.4163,0.091168
3017.2800,0.091345
3019.1436,0.091742
3021.0073,0.092357
3022.8710,0.092639
3024.7347,0.092677
3026.5983,0.092778
3028.4620,0.093184
3030.3257,0.093256
3032.1893,0.093539
3034.0530,0.093813
3035.9167,0.094077
3037.7803,0.094357
3039.6440,0.094794
3041.5077,0.095069
3043.3713,0.095260
3045.2350,0.095357
3047.0987,0.095513
3048.9624,0.095805
3050.8260,0.096200
3052.6897,0.096033
3054.5534,0.095836
3056.4170,0.095823
3058.2807,0.096196
3060.1444,0.096378
3062.0080,0.096203
3063.8717,0.096206
3065.7354,0.096752
3067.5990,0.096833
3069.4627,0.096872
3071.3264,0.096973
3073.1900,0.096782
3075.0537,0.095924
3076.9174,0.095542
3078.7811,0.095540
3080.6447,0.095425
3082.5084,0.094846
3084.3721,0.094447
3086.2357,0.094282
3088.0994,0.094144
3089.9631,0.093647
3091.8267,0.093257
3093.6904,0.092539
3095.5541,0.091486
3097.4177,0.090547
3099.2814,0.090114
3101.1451,0.089930
3103.0087,0.089278
3104.8724,0.087741
3106.7361,0.086477
3108.5998,0.085866
3110.4634,0.085542
3112.3271,0.084557
3114.1908,0.083766
3116.0544,0.083288
3117.9181,0.082373
3119.7818,0.081666
3121.6454,0.081829
3123.5091,0.081188
3125.3728,0.079520
3127.2364,0.078366
3129.1001,0.078046
3130.9638,0.077376
3132.8275,0.076636
3134.6911,0.075831
3136.5548,0.075691
3138.4185,0.075541
3140.2821,0.075609
3142.1458,0.075277
3144.0095,0.074696
3145.8731,0.074083
3147.7368,0.073230
3149.6005,0.072165
3151.4641,0.071919
3153.3278,0.072413
3155.1915,0.072625
3157.0551,0.072136
3158.9188,0.071284
3160.7825,0.070608
3162.6462,0.070296
3164.5098,0.069391
3166.3735,0.068780
3168.2372,0.068517
3170.1008,0.068588
3171.9645,0.068394
3173.8282,0.067735
3175.6918,0.067360
3177.5555,0.067508
3179.4192,0.067387
3181.2828,0.066955
3183.1465,0.066926
3185.0102,0.067498
3186.8739,0.066927
3188.7375,0.066193
3190.6012,0.066232
3192.4649,0.066647
3194.3285,0.066329
3196.1922,0.065835
3198.0559,0.066023
3199.9195,0.066538
3201.7832,0.066702
3203.6469,0.066313
3205.5105,0.066014
3207.3742,0.066486
3209.2379,0.066602
3211.1015,0.066318
3212.9652,0.065993
3214.8289,0.066260
3216.6926,0.066537
3218.5562,0.066998
3220.4199,0.066842
3222.2836,0.066956
3224.1472,0.067370
3226.0109,0.067018
3227.8746,0.066951
3229.7382,0.067238
3231.6019,0.066809
3233.4656,0.066652
3235.3292,0.067534
3237.1929,0.068510
3239.0566,0.068445
3240.9202,0.067741
3242.7839,0.067559
3244.6476,0.068258
3246.5113,0.068085
3248.3749,0.067842
3250.2386,0.068458
3252.1023,0.069676
3253.9659,0.069924
3255.8296,0.069977
3257.6933,0.070502
3259.5569,0.071276
3261.4206,0.070770
3263.2843,0.070072
3265.1479,0.070712
3267.0116,0.071318
3268.8753,0.071162
3270.7390,0.071433
3272.6026,0.071781
3274.4663,0.071098
3276.3300,0.070610
3278.1936,0.070877
3280.0573,0.070805
3281.9210,0.070673
3283.7846,0.070104
3285.6483,0.069588
3287.5120,0.069626
3289.3756,0.068936
3291.2393,0.067405
3293.1030,0.066856
3294.9666,0.066500
3296.8303,0.066594
3298.6940,0.066332
3300.5577,0.064741
3302.4213,0.062868
3304.2850,0.062502
3306.1487,0.062898
3308.0123,0.062872
3309.8760,0.062140
3311.7397,0.061216
3313.6033,0.060978
3315.4670,0.061045
3317.3307,0.061011
3319.1943,0.061457
3321.0580,0.062267
3322.9217,0.062781
3324.7854,0.062573
3326.6490,0.062856
3328.5127,0.063217
3330.3764,0.063211
3332.2400,0.062735
3334.1037,0.062297
3335.9674,0.061922
3337.8310,0.061076
3339.6947,0.060218
3341.5584,0.059718
3343.4220,0.058867
3345.2857,0.058015
3347.1494,0.056978
3349.0130,0.056112
3350.8767,0.055215
3352.7404,0.054205
3354.6041,0.053214
3356.4677,0.052090
3358.3314,0.051091
3360.1951,0.050364
3362.0587,0.049389
3363.9224,0.048412
3365.7861,0.047519
3367.6497,0.048043
3369.5134,0.048581
3371.3771,0.047879
3373.2407,0.047388
3375.1044,0.047231
3376.9681,0.047808
3378.8317,0.048933
3380.6954,0.048666
3382.5591,0.048372
3384.4228,0.049154
3386.2864,0.049753
3388.1501,0.049915
3390.0138,0.050632
3391.8774,0.050915
3393.7411,0.050389
3395.6048,0.051169
3397.4684,0.052204
3399.3321,0.052044
3401.1958,0.051619
3403.0594,0.050765
3404.9231,0.050230
3406.7868,0.048979
3408.6505,0.047045
3410.5141,0.045855
3412.3778,0.044987
3414.2415,0.043745
3416.1051,0.042068
3417.9688,0.040834
3419.8325,0.040466
3421.6961,0.039191
3423.5598,0.036850
3425.4235,0.034748
3427.2871,0.033455
3429.1508,0.032577
3431.0145,0.032042
3432.8781,0.031476
3434.7418,0.030403
3436.6055,0.029545
3438.4692,0.028817
3440.3328,0.027791
3442.1965,0.027200
3444.0602,0.026758
3445.9238,0.026294
3447.7875,0.025989
3449.6512,0.024952
3451.5148,0.023721
3453.3785,0.023934
3455.2422,0.024235
3457.1058,0.023907
3458.9695,0.023457
3460.8332,0.022574
3462.6969,0.021692
3464.5605,0.021653
3466.4242,0.021746
3468.2879,0.021519
3470.1515,0.021325
3472.0152,0.021001
3473.8789,0.020967
3475.7425,0.021289
3477.6062,0.019956
3479.4699,0.018926
3481.3335,0.018840
3483.1972,0.017297
3485.0609,0.016782
3486.9245,0.017646
3488.7882,0.017793
3490.6519,0.017718
3492.5156,0.017386
3494.3792,0.015935
3496.2429,0.014613
3498.1066,0.014226
3499.9702,0.014338
3501.8339,0.014846
3503.6976,0.014848
3505.5612,0.014709
3507.4249,0.014171
3509.2886,0.013134
3511.1522,0.012662
3513.0159,0.012476
3514.8796,0.012008
3516.7432,0.011885
3518.6069,0.011752
3520.4706,0.012082
3522.3343,0.012739
3524.1979,0.011489
3526.0616,0.010271
3527.9253,0.010084
3529.7889,0.009864
3531.6526,0.010293
3533.5163,0.010379
3535.3799,0.010086
3537.2436,0.009675
3539.1073,0.009153
3540.9709,0.009492
3542.8346,0.010098
3544.6983,0.009911
3546.5620,0.009163
3548.4256,0.008413
3550.2893,0.008623
3552.1530,0.008847
3554.0166,0.009041
3555.8803,0.009349
3557.7440,0.009213
3559.6076,0.009074
3561.4713,0.008534
3563.3350,0.008137
3565.1986,0.008253
3567.0623,0.007992
3568.9260,0.006567
3570.7896,0.007125
3572.6533,0.008394
3574.5170,0.008024
3576.3807,0.007561
3578.2443,0.007515
3580.1080,0.006975
3581.9717,0.006949
3583.8353,0.007552
3585.6990,0.007697
3587.5627,0.007571
3589.4263,0.007558
3591.2900,0.007733
3593.1537,0.008013
3595.0173,0.007643
3596.8810,0.007065
3598.7447,0.007275
3600.6084,0.007793
3602.4720,0.008136
3604.3357,0.007795
3606.1994,0.006908
3608.0630,0.006682
3609.9267,0.007326
3611.7904,0.007289
3613.6540,0.006861
3615.5177,0.006833
3617.3814,0.007303
3619.2450,0.007965
3621.1087,0.007396
3622.9724,0.006410
3624.8360,0.007206
3626.6997,0.008113
3628.5634,0.007154
3630.4271,0.005855
3632.2907,0.006558
3634.1544,0.007687
3636.0181,0.008232
3637.8817,0.007889
3639.7454,0.007606
3641.6091,0.007706
3643.4727,0.007898
3645.3364,0.008306
3647.2001,0.008151
3649.0637,0.006808
3650.9274,0.005297
3652.7911,0.005685
3654.6547,0.006968
3656.5184,0.008166
3658.3821,0.008739
3660.2458,0.008310
3662.1094,0.008162
3663.9731,0.007777
3665.8368,0.007628
3667.7004,0.008391
3669.5641,0.008865
3671.4278,0.009544
3673.2914,0.009444
3675.1551,0.008550
3677.0188,0.008189
3678.8824,0.007879
3680.7461,0.007992
3682.6098,0.007923
3684.4735,0.007165
3686.3371,0.007239
3688.2008,0.008103
3690.0645,0.007664
3691.9281,0.007870
3693.7918,0.008681
3695.6555,0.008335
3697.5191,0.008108
3699.3828,0.008176
3701.2465,0.007858
3703.1101,0.007572
3704.9738,0.007765
3706.8375,0.007946
3708.7011,0.007933
3710.5648,0.007848
3712.4285,0.007735
3714.2922,0.007732
3716.1558,0.007821
3718.0195,0.008073
3719.8832,0.008408
3721.7468,0.008342
3723.6105,0.008613
3725.4742,0.008818
3727.3378,0.008391
3729.2015,0.008376
3731.0652,0.008611
3732.9288,0.008521
3734.7925,0.008102
3736.6562,0.007497
3738.5199,0.007229
3740.3835,0.007509
3742.2472,0.007887
3744.1109,0.007754
3745.9745,0.007216
3747.8382,0.007491
3749.7019,0.007392
3751.5655,0.006811
3753.4292,0.007476
3755.2929,0.009399
3757.1565,0.009934
3759.0202,0.009051
3760.8839,0.008762
3762.7475,0.009432
3764.6112,0.009696
3766.4749,0.009658
3768.3386,0.009554
3770.2022,0.009697
3772.0659,0.009770
3773.9296,0.009357
3775.7932,0.009508
3777.6569,0.009977
3779.5206,0.009900
3781.3842,0.009989
3783.2479,0.010140
3785.1116,0.009548
3786.9752,0.009142
3788.8389,0.009426
3790.7026,0.009506
3792.5662,0.009496
3794.4299,0.009733
3796.2936,0.009817
3798.1573,0.009627
3800.0209,0.009400
3801.8846,0.009454
3803.7483,0.010185
3805.6119,0.010568
3807.4756,0.010375
3809.3393,0.010140
3811.2029,0.009784
3813.0666,0.009721
3814.9303,0.009859
3816.7939,0.009627
3818.6576,0.009344
3820.5213,0.009777
3822.3850,0.009939
3824.2486,0.009797
3826.1123,0.009560
3827.9760,0.009327
3829.8396,0.009176
3831.7033,0.009238
3833.5670,0.009684
3835.4306,0.010121
3837.2943,0.010025
3839.1580,0.009243
3841.0216,0.009178
3842.8853,0.009356
3844.7490,0.009194
3846.6126,0.009617
3848.4763,0.009700
3850.3400,0.009408
3852.2037,0.009304
3854.0673,0.009671
3855.9310,0.010267
3857.7947,0.009764
3859.6583,0.009524
3861.5220,0.009793
3863.3857,0.010012
3865.2493,0.010511
3867.1130,0.010467
3868.9767,0.009901
3870.8403,0.010112
3872.7040,0.010477
3874.5677,0.010255
3876.4314,0.010120
3878.2950,0.010075
3880.1587,0.009982
3882.0224,0.010658
3883.8860,0.010962
3885.7497,0.010170
3887.6134,0.010168
3889.4770,0.010556
3891.3407,0.010574
3893.2044,0.010615
3895.0680,0.010415
3896.9317,0.010237
3898.7954,0.010341
3900.6590,0.010913
3902.5227,0.011754
3904.3864,0.012303
3906.2501,0.012050
3908.1137,0.011299
3909.9774,0.011066
3911.8411,0.010982
3913.7047,0.010943
3915.5684,0.010997
3917.4321,0.010880
3919.2957,0.010628
3921.1594,0.010902
3923.0231,0.011568
3924.8867,0.011545
3926.7504,0.011151
3928.6141,0.011527
3930.4777,0.011610
3932.3414,0.011356
3934.2051,0.011565
3936.0688,0.011770
3937.9324,0.011829
3939.7961,0.011491
3941.6598,0.010743
3943.5234,0.011082
3945.3871,0.012067
3947.2508,0.011792
3949.1144,0.011457
3950.9781,0.011825
3952.8418,0.012025
3954.7054,0.011792
3956.5691,0.011540
3958.4328,0.011645
3960.2965,0.011668
3962.1601,0.011818
3964.0238,0.012057
3965.8875,0.011848
3967.7511,0.011725
3969.6148,0.012119
3971.4785,0.012339
3973.3421,0.011944
3975.2058,0.011835
3977.0695,0.012014
3978.9331,0.011956
3980.7968,0.011899
3982.6605,0.011894
3984.5241,0.011867
3986.3878,0.011773
3988.2515,0.011833
3990.1152,0.012071
3991.9788,0.012265
3993.8425,0.012076
3995.7062,0.011918
3997.5698,0.011968
3999.4335,0.012124
